WetView ver 7.1	07-17-2018	22:00:27
AC9 Absorption and Attenuation Meter
00000266		; Serial number
2	; structure version number
Reserved
0.000000	0.000000		; Depth calibration
19200			; Baud rate
0.100000			; Path length (meters)
31			; number of temperature calibration bins
				12.59339	13.44920	14.48425	15.49668	16.50852	17.49564	18.50545	19.52458	20.50176	21.48889	22.47318	23.48707	24.50962	25.49370	26.49784	27.51372	28.50746	29.47237	30.47938	31.50214	32.50470	33.49235	34.50337	35.50914	36.50618	37.52058	38.51018	39.51308	40.49994	41.49866	42.47204	; temperature bins
a650	Blue	20.34952		-0.00383	-0.00415	-0.00430	-0.00391	-0.00363	-0.00317	-0.00269	-0.00237	-0.00179	-0.00130	-0.00099	-0.00071	-0.00015	0.00000	0.00004	-0.00001	0.00015	0.00036	0.00058	0.00101	0.00161	0.00132	0.00160	0.00169	0.00242	0.00273	0.00336	0.00365	0.00427	0.00566	0.00670		; offset and temperature correction info
a676	Green	20.51193		-0.00398	-0.00384	-0.00360	-0.00306	-0.00302	-0.00255	-0.00235	-0.00212	-0.00163	-0.00136	-0.00118	-0.00089	-0.00029	0.00000	0.00068	0.00082	0.00099	0.00137	0.00145	0.00212	0.00260	0.00252	0.00321	0.00354	0.00457	0.00535	0.00617	0.00648	0.00742	0.00887	0.01002		; offset and temperature correction info
a715	Brown	20.23230		-0.00421	-0.00394	-0.00391	-0.00291	-0.00264	-0.00192	-0.00204	-0.00179	-0.00188	-0.00239	-0.00180	-0.00187	-0.00099	0.00000	0.00084	0.00162	0.00188	0.00224	0.00321	0.00381	0.00466	0.00528	0.00588	0.00696	0.00859	0.01041	0.01148	0.01282	0.01333	0.01456	0.01617		; offset and temperature correction info
c510	Red	20.40042		-0.00261	-0.00247	-0.00258	-0.00225	-0.00203	-0.00197	-0.00199	-0.00203	-0.00154	-0.00103	-0.00069	-0.00019	-0.00007	0.00000	0.00011	-0.00021	-0.00042	-0.00056	-0.00040	0.00011	0.00036	0.00050	0.00077	0.00079	0.00050	0.00042	0.00043	0.00092	0.00147	0.00200	0.00232		; offset and temperature correction info
c532	Magenta	20.40760		-0.00248	-0.00265	-0.00278	-0.00279	-0.00296	-0.00292	-0.00238	-0.00206	-0.00129	-0.00096	-0.00092	-0.00052	-0.00009	0.00000	0.00007	-0.00049	-0.00136	-0.00107	-0.00079	-0.00065	-0.00074	-0.00105	-0.00152	-0.00192	-0.00236	-0.00269	-0.00252	-0.00233	-0.00172	-0.00128	-0.00067		; offset and temperature correction info
c555	Black	20.50654		-0.00053	-0.00063	-0.00106	-0.00094	-0.00068	-0.00055	-0.00053	-0.00039	-0.00028	-0.00025	-0.00011	-0.00035	-0.00007	0.00000	-0.00037	-0.00055	-0.00036	-0.00014	0.00019	0.00044	0.00032	0.00040	0.00050	0.00028	0.00014	0.00013	0.00030	0.00073	0.00117	0.00176	0.00241		; offset and temperature correction info
a412	LtBlue	17.15231		-0.01972	-0.01823	-0.01612	-0.01381	-0.01272	-0.01080	-0.00959	-0.00866	-0.00710	-0.00532	-0.00354	-0.00148	-0.00028	0.00000	0.00176	0.00297	0.00394	0.00440	0.00453	0.00487	0.00804	0.00856	0.01065	0.01248	0.01388	0.01439	0.01659	0.01881	0.02256	0.02450	0.02719		; offset and temperature correction info
a440	LtGreen	18.00171		-0.00729	-0.00642	-0.00581	-0.00502	-0.00426	-0.00349	-0.00244	-0.00218	-0.00179	-0.00101	-0.00046	-0.00006	0.00036	0.00000	0.00040	0.00045	0.00030	-0.00015	-0.00024	-0.00035	0.00012	-0.00013	-0.00033	-0.00089	-0.00142	-0.00189	-0.00231	-0.00205	-0.00140	-0.00140	-0.00146		; offset and temperature correction info
a488	Yellow	18.86491		-0.00113	-0.00102	-0.00106	-0.00064	-0.00027	-0.00020	-0.00030	-0.00037	-0.00047	-0.00059	-0.00052	-0.00012	0.00008	0.00000	0.00025	0.00012	-0.00013	-0.00043	-0.00065	-0.00076	-0.00025	0.00010	0.00090	0.00111	0.00113	0.00104	0.00073	0.00068	0.00120	0.00186	0.00258		; offset and temperature correction info
c650	Blue	20.46075		-0.00145	-0.00097	-0.00092	-0.00139	-0.00185	-0.00196	-0.00237	-0.00266	-0.00238	-0.00163	-0.00083	-0.00041	-0.00010	0.00000	0.00005	-0.00001	0.00015	0.00034	0.00029	0.00065	0.00101	0.00164	0.00126	0.00156	0.00175	0.00270	0.00287	0.00371	0.00407	0.00473	0.00534		; offset and temperature correction info
c676	Green	20.10118		-0.00170	-0.00144	-0.00149	-0.00177	-0.00188	-0.00194	-0.00198	-0.00196	-0.00177	-0.00156	-0.00140	-0.00091	-0.00033	0.00000	0.00050	0.00092	0.00110	0.00141	0.00167	0.00199	0.00216	0.00265	0.00269	0.00289	0.00315	0.00374	0.00367	0.00408	0.00486	0.00561	0.00646		; offset and temperature correction info
c715	Brown	19.91219		-0.01201	-0.01097	-0.00859	-0.00680	-0.00651	-0.00592	-0.00535	-0.00440	-0.00387	-0.00303	-0.00222	-0.00153	-0.00028	0.00000	0.00093	0.00149	0.00247	0.00322	0.00330	0.00427	0.00373	0.00464	0.00536	0.00551	0.00643	0.00733	0.00779	0.00884	0.00899	0.01021	0.01120		; offset and temperature correction info
a510	Red	19.21192		0.00201	0.00193	0.00158	0.00098	0.00089	0.00049	0.00011	-0.00016	-0.00016	-0.00005	0.00028	0.00025	0.00006	0.00000	0.00035	-0.00022	-0.00023	-0.00080	-0.00144	-0.00154	-0.00153	-0.00204	-0.00220	-0.00219	-0.00190	-0.00128	-0.00069	-0.00018	0.00068	0.00152	0.00241		; offset and temperature correction info
a532	Magenta	19.41084		-0.00097	-0.00072	-0.00060	-0.00081	-0.00062	-0.00071	-0.00040	0.00020	0.00028	0.00043	0.00000	-0.00035	0.00007	0.00000	-0.00011	-0.00059	-0.00080	-0.00098	-0.00137	-0.00162	-0.00163	-0.00130	-0.00073	-0.00018	0.00090	0.00185	0.00175	0.00247	0.00291	0.00327	0.00349		; offset and temperature correction info
a555	Black	19.69776		0.00171	0.00183	0.00183	0.00186	0.00191	0.00170	0.00115	0.00131	0.00097	0.00073	0.00060	0.00013	0.00015	0.00000	0.00014	-0.00029	-0.00066	-0.00082	-0.00116	-0.00139	-0.00134	-0.00167	-0.00119	-0.00093	-0.00048	0.00053	0.00111	0.00095	0.00178	0.00206	0.00273		; offset and temperature correction info
c412	LtBlue	19.91180		-0.02051	-0.01853	-0.01589	-0.01311	-0.01059	-0.00877	-0.00705	-0.00581	-0.00413	-0.00231	-0.00098	-0.00066	-0.00011	0.00000	-0.00013	-0.00085	-0.00170	-0.00170	-0.00302	-0.00330	-0.00429	-0.00551	-0.00626	-0.00775	-0.00978	-0.01181	-0.01113	-0.01108	-0.01116	-0.01192	-0.01291		; offset and temperature correction info
c440	LtGreen	20.06241		-0.01064	-0.00992	-0.00892	-0.00766	-0.00639	-0.00531	-0.00478	-0.00384	-0.00287	-0.00187	-0.00102	-0.00063	-0.00023	0.00000	-0.00007	-0.00053	-0.00090	-0.00119	-0.00169	-0.00197	-0.00226	-0.00257	-0.00260	-0.00289	-0.00394	-0.00470	-0.00481	-0.00493	-0.00520	-0.00580	-0.00620		; offset and temperature correction info
c488	Yellow	20.35984		-0.01125	-0.01082	-0.00966	-0.00833	-0.00726	-0.00661	-0.00579	-0.00500	-0.00389	-0.00278	-0.00167	-0.00113	-0.00041	0.00000	0.00055	0.00121	0.00187	0.00226	0.00222	0.00251	0.00281	0.00359	0.00414	0.00427	0.00401	0.00404	0.00486	0.00563	0.00638	0.00684	0.00718		; offset and temperature correction info
0.003500	0.004000	0.015000	0.020000	0.015000	0.020000	2500.000000	2000.000000	1000.000000	; maxANoise	maxCNoise	maxADifference	maxCDifference	minACounts	minCCounts	minRCounts	maxTempSdev	maxDepthSdev
0			; auxilliary capabilities
1			; acquisition binsize
0	0.16660	0.15139	0.09362	3.95317	3.50709	2.65637	2.14838	1.24672	0.59879	4.59107	2.95931	2.44879	0.43051	0.35706	0.25951	3.62042	3.26782	3.16613	29.38	6.8	0.00	7.58	0.01271	0.01293	0.01639	0.00792	0.00589	0.00645	0.00470	0.01270	0.01686	0.00684	0.00706	0.00888	0.01492	0.01097	0.01198	0.00221	0.00628	0.00880
160	0.11409	0.11196	0.06087	3.54279	3.74353	3.45690	2.09145	1.20796	0.56535	3.25626	3.18985	2.74878	0.42920	0.34912	0.27259	3.46664	2.55147	2.43915
310	0.13351	0.14039	0.09369	2.37830	2.09946	1.72226	2.16900	1.29037	0.64470	1.60477	1.34999	1.54820	0.48056	0.40655	0.29898	3.19110	2.76007	2.13366
460	0.13950	0.12560	0.07316	1.58389	1.64779	1.33413	2.11537	1.22658	0.57577	0.88698	0.83080	1.17141	0.41400	0.34086	0.24972	3.63945	3.10290	2.05862
620	0.10825	0.11192	0.05855	2.91582	2.77120	1.72261	2.10519	1.22250	0.57805	1.42045	1.69787	1.45579	0.45503	0.38273	0.30853	2.35646	1.73907	1.41433
770	0.16854	0.15752	0.10565	1.28392	1.38833	1.42774	2.17198	1.27237	0.61753	1.66976	1.30314	1.34462	0.44717	0.37141	0.26788	2.61476	2.21571	2.04426
930	0.11800	0.11217	0.05702	1.93748	2.23608	2.17976	2.08833	1.20684	0.55799	1.85326	2.20922	2.15728	0.41623	0.33732	0.25485	2.79817	2.04815	1.87148
1080	0.12384	0.13150	0.08392	1.59816	1.58264	1.29803	2.16903	1.28722	0.64146	1.18889	0.96110	1.08820	0.48193	0.40623	0.30559	2.92675	2.44601	1.65995
1230	0.14581	0.13226	0.07623	1.78969	1.80192	1.75560	2.12488	1.23188	0.57981	2.06689	2.49483	2.40003	0.41874	0.34188	0.25436	3.22033	2.86253	2.85612
1400	0.11176	0.11329	0.06415	2.63429	2.09611	1.81000	2.11588	1.23681	0.59861	1.77249	1.52195	1.45301	0.47583	0.40824	0.31779	2.35972	1.75521	1.53869
1550	0.16388	0.15069	0.09551	1.80480	1.79314	1.45918	2.15216	1.25851	0.60440	1.67650	1.76981	1.90939	0.43598	0.36235	0.26569	3.15402	2.90802	2.74835	29.38	6.8	0.00	7.46	0.01271	0.01294	0.01639	0.00792	0.00589	0.00645	0.00470	0.01270	0.01686	0.00684	0.00706	0.00888	0.01493	0.01097	0.01198	0.00221	0.00629	0.00880
1710	0.11369	0.11115	0.05978	2.46679	2.73845	2.67215	2.10260	1.21642	0.57158	2.05465	1.87309	1.98349	0.43936	0.36376	0.28752	2.76017	2.04070	1.60991
1860	0.15581	0.16070	0.11243	1.41996	1.41436	1.17991	2.18900	1.29474	0.63982	1.48766	1.64404	1.67403	0.46979	0.39202	0.28356	2.65395	2.31460	2.02310
2020	0.12823	0.11716	0.06651	2.24367	2.51237	2.31836	2.10866	1.21946	0.57202	2.34723	2.71336	2.23113	0.42274	0.34108	0.25751	3.46624	3.07110	2.03334
2180	0.11916	0.12589	0.07847	1.97139	1.94762	1.54939	2.14817	1.27176	0.62964	1.47773	1.25691	1.26771	0.48408	0.41021	0.31207	2.49181	2.06290	1.86725
2330	0.15005	0.14017	0.08493	1.59656	1.82073	1.71094	2.13802	1.23841	0.58769	1.94515	2.13160	2.06827	0.42558	0.35087	0.26101	3.04774	2.51886	2.20948
2480	0.11227	0.10883	0.05785	2.40485	2.08519	1.80274	2.10505	1.21848	0.57378	1.66929	2.11342	2.02445	0.42276	0.34908	0.26181	3.19789	2.69770	1.97784
2640	0.11641	0.11282	0.06400	2.06991	2.17449	2.10076	2.10376	1.21830	0.57500	1.92525	1.98711	1.89790	0.42470	0.34764	0.26215	2.93163	2.49583	2.21406
2800	0.11592	0.11767	0.06357	2.11709	2.23604	1.98247	2.10643	1.21963	0.57481	1.92149	2.02645	1.90947	0.42522	0.34757	0.26126	2.97147	2.47908	2.14444
2970	0.11893	0.11980	0.06602	2.12517	2.28195	2.01316	2.10652	1.22004	0.57520	1.91178	2.03040	1.90494	0.42842	0.34919	0.26396	2.95525	2.48954	2.18703
3130	0.12158	0.12235	0.07070	2.11670	2.24249	1.99472	2.10834	1.22866	0.58164	1.89904	2.00527	1.89966	0.43344	0.35351	0.26796	2.97888	2.53040	2.17028	29.32	6.3	0.00	7.54	0.01272	0.01294	0.01640	0.00792	0.00590	0.00646	0.00470	0.01271	0.01687	0.00684	0.00706	0.00889	0.01493	0.01097	0.01199	0.00222	0.00629	0.00881
3290	0.12126	0.12340	0.07113	2.20248	2.15441	1.89970	2.10893	1.22464	0.57830	1.90482	2.10879	1.99456	0.43532	0.35979	0.27473	2.87920	2.41759	2.13407
3450	0.12689	0.12544	0.07315	2.22743	2.24067	1.92840	2.11358	1.22901	0.58291	1.85716	2.03588	1.95980	0.43690	0.35451	0.27059	2.90830	2.40316	2.11657
3620	0.12239	0.12623	0.07022	2.14559	2.26239	1.96785	2.10741	1.22708	0.57699	1.88792	2.02300	1.90524	0.43500	0.35813	0.27594	2.93573	2.43743	2.13746
3780	0.12967	0.12729	0.07472	2.06130	2.20322	1.96399	2.11532	1.22722	0.58216	1.92892	2.04769	1.88720	0.43800	0.35641	0.27119	2.89075	2.38829	2.11327
3950	0.12848	0.12901	0.07457	2.12308	2.26829	1.99408	2.11242	1.23071	0.58347	1.88487	2.00365	1.88272	0.44017	0.35662	0.27213	2.93085	2.44199	2.14168
4110	0.12702	0.12970	0.07386	2.06501	2.18543	1.95036	2.10791	1.22549	0.58213	1.91200	2.01080	1.87095	0.43598	0.35401	0.27081	2.90080	2.43486	2.15556
4270	0.12687	0.12650	0.07689	2.11046	2.21151	1.94234	2.11484	1.23069	0.58207	1.89128	2.04287	1.91364	0.43696	0.35671	0.27119	2.91135	2.42016	2.12206
4440	0.12474	0.12751	0.07262	2.11860	2.22421	1.94079	2.09958	1.22765	0.57707	1.87151	2.02221	1.91480	0.43337	0.35346	0.27076	2.90786	2.40207	2.11231
4600	0.12631	0.12924	0.07432	2.10378	2.22828	1.95110	2.10389	1.22865	0.58368	1.87565	2.01184	1.89735	0.43892	0.35466	0.27044	2.91071	2.41436	2.11878
4760	0.12664	0.12785	0.07604	2.10322	2.22098	1.95837	2.10897	1.23098	0.58305	1.88741	2.02480	1.89953	0.43779	0.35570	0.27054	2.92559	2.43170	2.13370	29.32	6.2	0.00	7.37	0.01272	0.01294	0.01640	0.00793	0.00590	0.00646	0.00470	0.01271	0.01688	0.00685	0.00706	0.00889	0.01494	0.01098	0.01199	0.00222	0.00630	0.00882
4930	0.12349	0.12629	0.07233	2.10910	2.21830	1.95131	2.10826	1.22720	0.57796	1.88275	2.01972	1.89920	0.43956	0.35985	0.27688	2.92397	2.42928	2.13318
5090	0.12930	0.13169	0.07632	2.10803	2.23394	1.96469	2.10843	1.23453	0.58518	1.88172	2.00530	1.88781	0.43954	0.35808	0.27376	2.92702	2.42210	2.12154
5250	0.12897	0.12989	0.07715	2.10029	2.23934	1.99712	2.11055	1.23119	0.58328	1.90356	2.02838	1.88233	0.43747	0.35829	0.27359	2.89058	2.42633	2.15389
5420	0.12653	0.12945	0.07489	2.13427	2.21352	1.92700	2.09996	1.23096	0.58267	1.86213	2.01218	1.91451	0.43802	0.35822	0.27422	2.92800	2.42240	2.11778
5580	0.12949	0.13013	0.07587	2.09781	2.21995	1.95855	2.10289	1.22908	0.58468	1.88437	2.01952	1.89290	0.43838	0.35898	0.27289	2.92948	2.43704	2.12826
5740	0.12780	0.12712	0.07575	2.07799	2.20430	1.95294	2.09799	1.22741	0.58094	1.89896	2.02979	1.88752	0.43933	0.36026	0.27673	2.89862	2.40358	2.11429
5910	0.12918	0.13010	0.07622	2.10664	2.23258	1.97284	2.11153	1.23019	0.58111	1.89193	2.03337	1.90335	0.43790	0.35924	0.27492	2.89176	2.39499	2.10973
6070	0.12787	0.12892	0.07426	2.11863	2.24071	1.94931	2.10694	1.22786	0.58231	1.85857	2.00179	1.89221	0.44007	0.35990	0.27303	2.92805	2.42842	2.12461
6230	0.12878	0.13023	0.07540	2.08292	2.20268	1.95037	2.10981	1.22715	0.58347	1.89473	2.03949	1.90269	0.43893	0.35718	0.27544	2.89455	2.39989	2.11532
6400	0.12952	0.12853	0.07563	2.11357	2.23083	1.96100	2.10711	1.23003	0.58378	1.87074	2.00747	1.88540	0.44371	0.36328	0.27837	2.92127	2.43337	2.13049	29.26	6.1	0.00	7.46	0.01272	0.01294	0.01640	0.00793	0.00590	0.00647	0.00471	0.01271	0.01688	0.00685	0.00707	0.00889	0.01494	0.01098	0.01199	0.00222	0.00630	0.00882
6560	0.13212	0.13397	0.07726	2.08540	2.20383	1.95512	2.10902	1.23531	0.58682	1.90239	2.03647	1.88824	0.44414	0.36253	0.27740	2.89114	2.40604	2.12948
6720	0.12942	0.12940	0.07623	2.11894	2.22818	1.94762	2.11105	1.23146	0.58173	1.86567	2.01290	1.89750	0.44292	0.36524	0.27897	2.91637	2.42176	2.12370
6890	0.13029	0.13129	0.07704	2.09490	2.21281	1.96515	2.11119	1.23288	0.58608	1.89312	2.02564	1.88791	0.44119	0.36055	0.27573	2.89750	2.41245	2.12855
7050	0.12618	0.12995	0.07680	2.10730	2.21002	1.93397	2.11116	1.22800	0.58215	1.86406	2.02037	1.90955	0.44430	0.36367	0.28214	2.91612	2.40738	2.09915
7220	0.13103	0.13156	0.07791	2.09873	2.24046	1.97612	2.11925	1.23695	0.58797	1.86246	1.98160	1.86710	0.44311	0.36217	0.27650	2.91548	2.42867	2.12829
7380	0.12688	0.12987	0.07601	2.09776	2.21121	1.93660	2.10261	1.23305	0.58322	1.85758	2.00830	1.89381	0.44374	0.36372	0.28040	2.91401	2.41224	2.11517
7540	0.13119	0.13259	0.07815	2.09282	2.21733	1.95278	2.12728	1.23791	0.58969	1.85833	2.00261	1.89123	0.44500	0.36568	0.27980	2.92667	2.42375	2.11269
7710	0.13016	0.13165	0.08030	2.08576	2.20514	1.94589	2.11680	1.23837	0.58933	1.87698	2.00888	1.88324	0.44459	0.36337	0.28035	2.91563	2.42246	2.11726
7870	0.13088	0.13042	0.07771	2.07895	2.20773	1.94912	2.11730	1.23476	0.58622	1.88135	2.01154	1.87780	0.44169	0.36064	0.27395	2.90705	2.40997	2.11244
8030	0.12820	0.12842	0.07835	2.08630	2.20381	1.95335	2.11101	1.23226	0.58495	1.87948	2.00505	1.87388	0.44748	0.36630	0.28124	2.91571	2.42204	2.12625	29.32	6.1	0.00	7.35	0.01272	0.01294	0.01641	0.00794	0.00591	0.00647	0.00471	0.01272	0.01688	0.00685	0.00707	0.00889	0.01494	0.01098	0.01200	0.00222	0.00630	0.00882
8200	0.13361	0.13286	0.07930	2.09416	2.21627	1.95901	2.11495	1.23730	0.58877	1.88673	2.02285	1.88109	0.44548	0.36296	0.28021	2.89969	2.40944	2.12418
8360	0.13210	0.13407	0.07895	2.11204	2.22277	1.95252	2.12233	1.23782	0.58976	1.85242	1.99831	1.87926	0.44534	0.36287	0.28016	2.92807	2.42280	2.11475
8520	0.13074	0.12996	0.07950	2.09878	2.22959	1.96637	2.11433	1.23500	0.58594	1.86713	1.99802	1.87155	0.44565	0.36187	0.27964	2.90659	2.42092	2.12705
8690	0.13312	0.13020	0.07971	2.10698	2.20726	1.93437	2.12152	1.24041	0.58991	1.86450	2.01056	1.89223	0.44519	0.36517	0.28083	2.90615	2.39951	2.10147
8850	0.13156	0.13361	0.07683	2.09904	2.23019	1.95674	2.12045	1.23531	0.58670	1.85590	2.00403	1.88265	0.44158	0.36045	0.27655	2.92287	2.42058	2.11772
9010	0.13052	0.13134	0.08017	2.08695	2.20490	1.93898	2.10960	1.23783	0.59025	1.86264	2.00716	1.89131	0.44328	0.36326	0.28043	2.90277	2.40444	2.10468
9180	0.13139	0.13074	0.07824	2.10692	2.21994	1.93921	2.12338	1.23813	0.58844	1.84694	1.98844	1.88541	0.44255	0.36564	0.28073	2.92326	2.42544	2.12057
9340	0.13053	0.13122	0.07881	2.08879	2.21737	1.95641	2.11529	1.23902	0.59074	1.87652	1.99962	1.87168	0.44380	0.36360	0.28004	2.90282	2.41129	2.11823
9500	0.12853	0.13172	0.07766	2.08984	2.20505	1.94258	2.11588	1.23544	0.58730	1.87703	2.00665	1.87761	0.44173	0.36214	0.27650	2.88619	2.39371	2.10653
9670	0.12909	0.12999	0.07941	2.11912	2.24191	1.96212	2.12198	1.24172	0.59350	1.85042	1.99026	1.88311	0.44742	0.36549	0.28433	2.94066	2.44805	2.13542	29.26	6.2	0.00	7.30	0.01272	0.01295	0.01641	0.00794	0.00591	0.00647	0.00471	0.01272	0.01688	0.00685	0.00707	0.00890	0.01494	0.01098	0.01200	0.00222	0.00630	0.00883
9830	0.13268	0.13148	0.07927	2.07428	2.19416	1.94771	2.10942	1.23502	0.58630	1.89990	2.02877	1.88538	0.44368	0.36457	0.27813	2.88007	2.38556	2.10714
9990	0.13138	0.13284	0.07974	2.11312	2.23286	1.95817	2.11758	1.23829	0.59075	1.87296	2.01901	1.89014	0.44594	0.36456	0.27966	2.90687	2.40836	2.11392
10150	0.13074	0.13207	0.08011	2.10285	2.22590	1.96381	2.11370	1.23729	0.58900	1.87322	2.01074	1.88319	0.44492	0.36392	0.27847	2.89591	2.40077	2.11265
10320	0.13105	0.13340	0.08064	2.10480	2.21771	1.94618	2.12370	1.23837	0.58935	1.86804	2.00744	1.88999	0.44364	0.36247	0.27768	2.92221	2.41638	2.11184
10480	0.12998	0.13263	0.07870	2.08662	2.21600	1.95555	2.11775	1.23824	0.58780	1.88152	2.03730	1.89601	0.44402	0.36111	0.27942	2.92456	2.40957	2.09130
10650	0.13383	0.13534	0.08139	2.08905	2.21680	1.95911	2.11634	1.24057	0.59308	1.86400	1.99766	1.88422	0.44719	0.36627	0.28408	2.92162	2.41995	2.11694
10810	0.13149	0.13391	0.07884	2.10452	2.22570	1.95633	2.11167	1.23762	0.58651	1.87067	2.00286	1.87994	0.44354	0.36104	0.27882	2.92049	2.42879	2.12822
10970	0.13318	0.13513	0.08169	2.08951	2.20001	1.93405	2.11930	1.24197	0.59247	1.87408	2.01259	1.89094	0.44824	0.36350	0.28164	2.90364	2.40121	2.11376
11140	0.13349	0.13279	0.07911	2.12015	2.23948	1.96302	2.11902	1.23786	0.58875	1.84476	1.97653	1.86897	0.44512	0.36092	0.27851	2.92726	2.43053	2.11881
11300	0.13351	0.13697	0.08080	2.09364	2.22772	1.97107	2.11781	1.24097	0.59327	1.89197	1.99570	1.86279	0.44761	0.36667	0.28440	2.90764	2.43075	2.14808	29.32	6.2	0.00	7.34	0.01272	0.01295	0.01641	0.00794	0.00591	0.00647	0.00471	0.01272	0.01688	0.00685	0.00707	0.00890	0.01494	0.01098	0.01200	0.00222	0.00631	0.00883
11460	0.13367	0.13254	0.07954	2.09512	2.18814	1.91695	2.11432	1.23968	0.59005	1.87922	2.02738	1.91306	0.44553	0.36356	0.28008	2.92366	2.41266	2.09935
11630	0.13312	0.13665	0.08009	2.09398	2.21803	1.95781	2.12034	1.24503	0.59239	1.87366	2.00619	1.87615	0.44741	0.36628	0.28118	2.93239	2.43560	2.12632
11790	0.13276	0.13113	0.07762	2.07435	2.19469	1.94627	2.11285	1.23685	0.58962	1.89019	2.02267	1.88657	0.44202	0.36308	0.27849	2.90583	2.40858	2.11363
11950	0.12950	0.13077	0.07678	2.10058	2.20870	1.94298	2.11125	1.23012	0.58403	1.86938	2.01909	1.90175	0.44563	0.36463	0.28159	2.91396	2.40249	2.09981
12120	0.13423	0.13408	0.07981	2.09704	2.23240	1.96629	2.12074	1.23434	0.58860	1.87282	1.99527	1.87331	0.44433	0.36522	0.27893	2.91837	2.41472	2.11732
12280	0.13031	0.13154	0.07649	2.09352	2.21065	1.94608	2.11153	1.23285	0.58600	1.87534	2.01670	1.89648	0.44630	0.36428	0.28197	2.91391	2.41041	2.12045
12440	0.13392	0.13338	0.08120	2.11661	2.23294	1.95601	2.12077	1.23794	0.58854	1.87334	2.01935	1.90393	0.44610	0.36301	0.28220	2.92964	2.41329	2.10659
12610	0.13195	0.13479	0.08030	2.10277	2.22909	1.96753	2.11995	1.23668	0.59205	1.86943	1.99016	1.87826	0.45108	0.36797	0.28345	2.92690	2.40684	2.10027
12770	0.13518	0.13778	0.08088	2.07067	2.17308	1.91400	2.13159	1.24541	0.59456	1.87220	1.98248	1.89438	0.45134	0.37373	0.28874	2.87182	2.34026	2.05280
12940	0.13718	0.13720	0.08543	2.11581	2.20884	1.91060	2.12491	1.24504	0.59573	1.85280	1.97388	1.89867	0.44945	0.37002	0.28418	2.90863	2.40901	2.13254	29.38	6.1	0.00	7.36	0.01272	0.01295	0.01641	0.00794	0.00591	0.00647	0.00471	0.01272	0.01688	0.00685	0.00707	0.00890	0.01494	0.01098	0.01200	0.00222	0.00631	0.00883
13100	0.13675	0.13726	0.08088	2.08965	2.19231	1.92323	2.12381	1.24165	0.59461	1.84861	1.98381	1.91121	0.44846	0.36639	0.28274	2.92093	2.39420	2.10788
13260	0.13355	0.13259	0.08074	2.12930	2.23486	1.93945	2.11877	1.23903	0.59083	1.85391	1.96101	1.85925	0.44653	0.36520	0.28145	2.90393	2.37415	2.06687
13430	0.13293	0.13514	0.08455	2.07797	2.22363	1.96314	2.12604	1.24351	0.59541	1.86822	1.94809	1.85435	0.45055	0.36859	0.28360	2.90555	2.42647	2.15568
13590	0.13630	0.13513	0.07988	2.06893	2.20209	1.95237	2.11623	1.23974	0.59198	1.85871	1.95428	1.85923	0.44923	0.36962	0.28427	2.87397	2.38023	2.11273
13750	0.13497	0.13476	0.08250	2.13100	2.20187	1.88393	2.11902	1.24203	0.59327	1.83313	1.97256	1.88697	0.44538	0.36562	0.28035	2.97767	2.44574	2.09619
13920	0.13349	0.13134	0.07942	2.06205	2.19161	1.95099	2.11108	1.23799	0.58866	1.88447	2.00473	1.89098	0.44870	0.36815	0.28452	2.90437	2.40644	2.10659
14080	0.13644	0.13787	0.08253	2.09199	2.22578	1.97918	2.12742	1.24106	0.59369	1.89630	1.98038	1.86419	0.45025	0.36589	0.28530	2.90148	2.42723	2.15156
14240	0.13477	0.13383	0.07973	2.06747	2.16887	1.92477	2.11359	1.23791	0.58933	1.95948	2.08313	1.90726	0.44633	0.36783	0.28386	2.87841	2.39572	2.15028
14410	0.13557	0.13814	0.08193	2.10789	2.20461	1.92832	2.12759	1.24072	0.59153	1.88668	2.01664	1.89907	0.44618	0.36466	0.27945	2.91529	2.40766	2.13590
14570	0.12963	0.13237	0.07764	2.12127	2.22663	1.96045	2.12091	1.23351	0.58757	1.88773	2.03161	1.90561	0.44700	0.36805	0.28467	2.92658	2.42564	2.12499	29.32	6.1	0.00	7.33	0.01272	0.01295	0.01641	0.00794	0.00591	0.00647	0.00471	0.01272	0.01688	0.00685	0.00707	0.00890	0.01494	0.01098	0.01200	0.00222	0.00631	0.00883
14740	0.13555	0.13609	0.07968	2.10411	2.22219	1.95654	2.12037	1.24197	0.59286	1.88472	1.99406	1.88001	0.44895	0.36842	0.28323	2.90452	2.40286	2.11926
14900	0.13729	0.13617	0.08527	2.11368	2.22116	1.95647	2.12590	1.24331	0.59528	1.88932	2.00604	1.90162	0.44871	0.37010	0.28663	2.91937	2.41057	2.11523
15060	0.13573	0.13267	0.08166	2.09012	2.21095	1.95183	2.11663	1.23797	0.59286	1.89678	2.00769	1.89094	0.44980	0.36815	0.28415	2.91775	2.41418	2.12046
15230	0.13621	0.13280	0.08195	2.09791	2.21637	1.95675	2.12153	1.24141	0.59117	1.89389	2.01046	1.89327	0.44498	0.36464	0.28071	2.92324	2.42440	2.13049
15390	0.13249	0.13187	0.08030	2.08894	2.19894	1.93917	2.12463	1.23874	0.59046	1.88908	2.00047	1.88961	0.44524	0.36582	0.28023	2.90692	2.40737	2.11514
15550	0.13492	0.13796	0.08234	2.10601	2.22458	1.96018	2.12311	1.24394	0.59497	1.88829	2.00803	1.90459	0.44887	0.36747	0.28470	2.93424	2.42571	2.12392
15720	0.13446	0.13385	0.08062	2.10156	2.23141	1.97767	2.12254	1.24088	0.59145	1.88697	1.99013	1.88390	0.44553	0.36539	0.28058	2.92153	2.41939	2.11746
15880	0.13567	0.13473	0.08280	2.07312	2.19847	1.94978	2.12826	1.24582	0.59631	1.89685	2.00903	1.88638	0.44981	0.37017	0.28427	2.92197	2.41161	2.11142
16040	0.13319	0.13416	0.08005	2.09392	2.20113	1.94127	2.12204	1.23824	0.59165	1.85357	1.97341	1.87649	0.44139	0.36294	0.27979	2.92673	2.40490	2.08050
16210	0.12925	0.12818	0.07622	2.06751	2.21045	1.96480	2.11208	1.23524	0.58719	1.84342	1.94834	1.85440	0.44536	0.36588	0.28384	2.89667	2.40371	2.11544	29.32	6.1	0.00	7.36	0.01272	0.01294	0.01641	0.00794	0.00591	0.00647	0.00471	0.01272	0.01688	0.00685	0.00707	0.00890	0.01494	0.01098	0.01200	0.00222	0.00630	0.00883
16370	0.13414	0.13543	0.08060	2.07760	2.19295	1.93065	2.12070	1.24057	0.59185	1.86154	1.96556	1.85172	0.44870	0.36513	0.28284	2.89932	2.39281	2.09105
16530	0.13276	0.12968	0.07886	2.07569	2.18453	1.92728	2.11509	1.23476	0.58606	1.88258	1.99831	1.86848	0.44354	0.36594	0.28112	2.92014	2.43655	2.13175
16700	0.13068	0.13402	0.08076	2.05049	2.19975	1.97018	2.12642	1.23969	0.59341	1.85890	1.94739	1.85934	0.45096	0.37005	0.28536	2.88020	2.37959	2.12492
16860	0.13565	0.13798	0.08393	2.10953	2.16244	1.87312	2.12340	1.24404	0.59472	1.83870	1.94873	1.89604	0.45105	0.36540	0.28464	2.92406	2.40833	2.07610
17030	0.13443	0.13819	0.08454	2.06481	2.12936	1.81769	2.13138	1.24829	0.59811	1.81932	1.88292	1.80601	0.45498	0.37056	0.28891	2.83599	2.30045	1.97387
17190	0.14354	0.14418	0.09068	1.91079	2.02836	1.77276	2.13827	1.25797	0.60976	1.69280	1.73780	1.76150	0.46550	0.38582	0.29826	2.81108	2.25531	1.96033
17350	0.14726	0.14436	0.09038	1.99630	2.09420	1.82207	2.13093	1.25489	0.60401	1.75537	1.80987	1.77905	0.44893	0.37308	0.28386	2.83439	2.33837	2.03704
17510	0.13097	0.13123	0.07306	2.17480	2.93613	2.28961	2.11433	1.22944	0.58208	2.39789	1.83999	1.87723	0.44069	0.35657	0.27251	2.83585	2.64970	2.76056
17680	0.12658	0.12867	0.07663	1.85168	2.21881	1.94437	2.11870	1.24041	0.59241	2.10238	2.06782	1.93264	0.46190	0.37342	0.29542	2.77418	2.21717	2.02367
17850	0.15087	0.15101	0.09660	1.99172	1.98110	1.58784	2.14894	1.27538	0.62471	1.53400	1.54452	1.70761	0.48114	0.40468	0.32120	2.74626	1.93262	1.57995	29.32	6.3	0.00	7.44	0.01272	0.01294	0.01640	0.00793	0.00590	0.00646	0.00470	0.01271	0.01688	0.00685	0.00707	0.00889	0.01494	0.01098	0.01199	0.00222	0.00630	0.00882
18010	0.16106	0.15927	0.10349	2.12125	2.31057	1.62385	2.14942	1.27496	0.62701	1.30638	1.39393	1.71723	0.47791	0.39769	0.31295	2.70477	2.04866	1.60339
18160	0.15754	0.15241	0.10015	1.67159	1.91810	1.57718	2.15502	1.27191	0.62024	1.57452	1.46708	1.54605	0.45980	0.38430	0.28709	2.68083	2.13864	1.90426
18320	0.13628	0.13090	0.07880	1.76833	1.88298	1.65853	2.12344	1.23478	0.58600	1.73423	1.86844	1.79495	0.43142	0.35462	0.26542	2.90069	2.44181	2.11272
18480	0.11787	0.12187	0.06987	2.08371	2.11485	1.66612	2.10879	1.23002	0.58139	1.70718	1.85578	1.82327	0.44012	0.35563	0.27748	2.93081	2.36721	2.04253
18650	0.13142	0.13310	0.08064	1.87972	1.99845	1.77930	2.13250	1.24802	0.60205	1.68100	1.61467	1.56333	0.46417	0.38373	0.30588	2.66632	2.04496	1.71800
18810	0.15405	0.14976	0.09523	1.78115	1.97616	1.74579	2.14255	1.25843	0.60334	1.69502	1.75831	1.72307	0.44449	0.37024	0.27813	2.89707	2.42150	2.14688
18980	0.12719	0.12688	0.07163	2.14568	2.22739	1.93853	2.10850	1.22861	0.58056	1.77967	1.79334	1.75514	0.44383	0.36282	0.28521	2.76577	2.13156	1.69923
19130	0.14544	0.15108	0.10057	1.63021	1.74240	1.54899	2.16070	1.27244	0.61567	1.65719	1.67573	1.66757	0.45199	0.37852	0.28366	2.84919	2.41015	2.11963
19300	0.12679	0.12700	0.07107	2.15326	2.42842	2.16739	2.11324	1.22393	0.57735	1.87419	2.07326	1.79372	0.43993	0.35534	0.27782	2.80567	2.29589	1.94192
19460	0.13792	0.14315	0.09181	1.60777	1.63288	1.49728	2.15456	1.26606	0.61394	1.59913	1.67661	1.67697	0.45691	0.37833	0.28293	2.76080	2.30077	2.03468	29.32	6.4	0.00	7.48	0.01272	0.01294	0.01640	0.00793	0.00590	0.00646	0.00470	0.01271	0.01687	0.00685	0.00706	0.00889	0.01493	0.01097	0.01199	0.00222	0.00630	0.00882
19620	0.12945	0.12751	0.07401	2.08949	2.23564	1.97096	2.10983	1.22336	0.57688	1.85341	2.01520	1.80730	0.43619	0.35185	0.27466	2.74385	2.23294	1.87007
19780	0.13638	0.14066	0.09150	1.63382	1.69811	1.51301	2.15912	1.26723	0.61932	1.51885	1.55543	1.59833	0.46122	0.38409	0.28924	2.70096	2.24758	1.97948
19940	0.13351	0.12720	0.07536	2.04063	2.16883	1.87465	2.11808	1.22578	0.57489	1.81297	2.44351	2.07487	0.42752	0.34798	0.26637	3.13617	3.00022	1.88192
20100	0.12274	0.12691	0.07354	2.17146	2.09053	1.90309	2.12251	1.24779	0.60329	1.47057	1.47946	1.66670	0.46455	0.38627	0.30404	2.72915	2.16312	1.77635
20260	0.14867	0.14637	0.09382	1.69510	1.84668	1.66875	2.14566	1.25819	0.60655	1.66361	1.73893	1.73915	0.44430	0.36569	0.27554	2.89384	2.43731	2.18772
20430	0.12180	0.12083	0.06733	2.15513	2.25286	1.96512	2.10634	1.22259	0.57497	1.76852	1.92098	1.81092	0.43446	0.35142	0.27112	2.84290	2.28072	1.87803
20590	0.13848	0.14204	0.09056	1.66327	1.80503	1.63099	2.15858	1.27071	0.62068	1.60429	1.55349	1.53282	0.46949	0.39677	0.30530	2.63532	2.15323	1.92169
20740	0.14739	0.13935	0.08492	1.85259	1.93912	1.74527	2.13408	1.24354	0.59248	1.80833	1.96198	1.87962	0.43743	0.35719	0.27120	2.83146	2.34445	2.09983
20910	0.11893	0.12271	0.06760	2.15281	2.28541	1.97559	2.10667	1.22154	0.57961	1.73876	1.75740	1.70189	0.44596	0.36494	0.28562	2.69866	2.07503	1.73488
21070	0.14511	0.14759	0.09577	1.68598	1.77242	1.54769	2.15655	1.27138	0.62145	1.56245	1.56136	1.59714	0.46525	0.39084	0.29429	2.68134	2.16952	1.92377	29.32	6.3	0.00	7.49	0.01272	0.01294	0.01640	0.00793	0.00590	0.00646	0.00470	0.01270	0.01687	0.00684	0.00706	0.00889	0.01493	0.01097	0.01199	0.00222	0.00629	0.00881
21230	0.13802	0.13644	0.08075	1.99131	2.13736	1.87791	2.11861	1.23522	0.58539	1.82394	1.87767	1.73964	0.43538	0.35486	0.27331	2.80147	2.29745	2.01886
21390	0.12377	0.12648	0.07595	1.91768	1.96544	1.67323	2.12552	1.23875	0.59382	1.63738	1.68410	1.64983	0.45663	0.37647	0.29715	2.58776	2.01647	1.78204
21550	0.14580	0.14714	0.09496	1.73582	1.75771	1.51898	2.15411	1.26394	0.61127	1.63125	1.75010	1.71453	0.45038	0.37353	0.28059	2.81085	2.26225	1.96124
21710	0.12987	0.12825	0.07489	2.02381	2.13226	1.83143	2.12109	1.23260	0.58424	1.65898	1.73513	1.70681	0.44071	0.35806	0.27810	2.75853	2.19671	1.89721
21870	0.13514	0.13560	0.08337	1.84792	1.92116	1.66107	2.13384	1.24876	0.60346	1.70873	1.78410	1.73793	0.45507	0.37594	0.29046	2.77339	2.26343	2.03422
22030	0.13923	0.14064	0.08529	1.98780	2.04201	1.78512	2.12825	1.24607	0.60003	1.83870	1.86886	1.83884	0.45115	0.36580	0.28585	2.89145	2.35433	2.05893
22200	0.13423	0.13795	0.08499	2.00003	2.08504	1.84437	2.12772	1.24369	0.59484	1.85915	1.86142	1.83910	0.44919	0.37109	0.28730	2.89243	2.34634	2.06798
22360	0.13905	0.13755	0.08424	2.01724	2.09870	1.84290	2.12955	1.24706	0.59735	1.85538	1.87329	1.84374	0.44962	0.37091	0.28679	2.87480	2.33790	2.06746
22520	0.14133	0.13791	0.08330	2.00372	2.11539	1.86734	2.12899	1.24369	0.59383	1.81854	1.81540	1.79304	0.45149	0.37092	0.28943	2.83670	2.34916	2.13203
22680	0.14526	0.14373	0.09132	2.01574	2.03146	1.73920	2.13357	1.25258	0.60171	1.93865	1.99913	1.18697	0.45544	0.37484	0.28236	3.54218	2.94881	2.26779	29.38	6.3	0.00	7.53	0.01272	0.01294	0.01640	0.00792	0.00589	0.00645	0.00470	0.01271	0.01688	0.00684	0.00705	0.00888	0.01494	0.01098	0.01199	0.00222	0.00629	0.00881
22840	0.12622	0.12660	0.07285	2.71523	3.19154	3.23288	2.11053	1.22678	0.58164	3.09847	2.88532	2.81054	0.43617	0.35731	0.27546	4.19531	3.71288	3.53609
23010	0.12863	0.13128	0.07753	4.64333	5.47576	5.32377	2.12299	1.23674	0.58769	6.15732	7.06437	8.13729	0.44422	0.36337	0.27592	12.78176	13.92792	16.95172
23170	0.13100	0.13239	0.07780	18.76043	18.54903	16.69197	2.11743	1.23170	0.58442	16.64672	17.75808	19.24678	0.44022	0.35705	0.27667	31.79913	32.94273	30.76708
23330	0.12972	0.13135	0.07958	25.24381	24.01092	20.45144	2.12493	1.23863	0.59048	21.03860	22.26123	25.59350	0.43618	0.35984	0.27054	38.76862	35.41172	30.59330
23490	0.11797	0.11610	0.06392	21.95092	18.04983	15.07231	2.09607	1.21078	0.56280	5.05204	0.35129	0.32801	0.41897	0.33411	0.25386	1.59654	1.06633	0.69134
23660	0.11447	0.11760	0.06337	0.57782	0.56158	0.47337	2.10102	1.21586	0.56797	0.35908	0.34476	0.31796	0.43125	0.34692	0.26533	1.58789	1.06901	0.69482
23830	0.12037	0.12460	0.07123	0.57369	0.55457	0.46149	2.10991	1.22396	0.57963	0.34544	0.32937	0.30129	0.43894	0.35918	0.27549	1.56306	1.04013	0.67179
23990	0.12816	0.13023	0.07476	0.55833	0.54285	0.45556	2.12073	1.23108	0.58552	0.34929	0.33658	0.31425	0.44314	0.36252	0.28290	1.58780	1.07346	0.70634
24160	0.13411	0.13248	0.07964	0.59308	0.57451	0.48310	2.11955	1.23519	0.58753	0.36691	0.35096	0.32473	0.44252	0.35864	0.27650	1.59305	1.06817	0.69521
24320	0.12566	0.12658	0.07236	0.59122	0.57272	0.48085	2.10181	1.22116	0.57505	0.36334	0.34538	0.32051	0.42505	0.34436	0.26445	1.57370	1.04965	0.67994	29.32	6.3	0.00	7.37	0.01272	0.01295	0.01641	0.00793	0.00590	0.00646	0.00471	0.01271	0.01688	0.00685	0.00706	0.00889	0.01494	0.01098	0.01200	0.00222	0.00630	0.00882
24480	0.11426	0.11418	0.06365	0.56373	0.54562	0.45579	2.10575	1.21643	0.57320	0.34444	0.32870	0.30544	0.43006	0.35154	0.26997	1.55629	1.03494	0.66682
24650	0.12476	0.12518	0.07085	0.55580	0.53985	0.44943	2.10800	1.22427	0.57517	0.33788	0.32409	0.29762	0.43048	0.34544	0.26364	1.54782	1.03161	0.66280
24810	0.11978	0.11824	0.06821	0.55191	0.53780	0.44831	2.09352	1.21853	0.57214	0.34070	0.33044	0.30522	0.43580	0.35248	0.27435	1.57198	1.05222	0.68472
24980	0.12763	0.12618	0.07542	0.57428	0.55860	0.46823	2.10518	1.22721	0.57855	0.35611	0.34538	0.31707	0.43435	0.35450	0.27177	1.57537	1.05492	0.68674
25140	0.12762	0.12927	0.07536	0.57912	0.56322	0.47229	2.10938	1.23127	0.58366	0.35971	0.34874	0.32086	0.43923	0.35938	0.27499	1.58581	1.06458	0.69483
25300	0.12877	0.12729	0.07524	0.58264	0.56664	0.47434	2.10499	1.22930	0.58253	0.36251	0.35203	0.32364	0.44128	0.36131	0.27994	1.59358	1.07078	0.70175
25470	0.13173	0.13140	0.07712	0.58815	0.56940	0.47689	2.11157	1.23412	0.58641	0.36383	0.35296	0.32588	0.44197	0.36081	0.27694	1.59586	1.07673	0.70933
25630	0.12692	0.12991	0.07436	0.60189	0.58881	0.49852	2.11149	1.23144	0.58315	0.38855	0.37539	0.34751	0.44398	0.36586	0.28388	1.62575	1.10221	0.73030
25790	0.13378	0.13346	0.07934	0.61595	0.59859	0.50341	2.11765	1.23861	0.58941	0.38774	0.37398	0.34882	0.44570	0.36287	0.27879	1.62446	1.10138	0.73048
25960	0.13475	0.13588	0.08138	0.62420	0.60805	0.51675	2.12758	1.23992	0.59141	0.40093	0.39295	0.36540	0.44843	0.37230	0.28940	1.64892	1.12174	0.74709	29.32	6.1	0.00	7.48	0.01273	0.01295	0.01641	0.00793	0.00590	0.00646	0.00471	0.01272	0.01689	0.00685	0.00707	0.00890	0.01495	0.01098	0.01200	0.00222	0.00630	0.00882
26120	0.13917	0.14156	0.08600	0.63399	0.62041	0.53047	2.13607	1.24814	0.59911	0.41949	0.40960	0.38026	0.45624	0.37436	0.28886	1.66847	1.14799	0.77307
26280	0.13669	0.13766	0.08260	0.65252	0.63291	0.53687	2.12197	1.23800	0.59062	0.41186	0.39427	0.36416	0.44706	0.37091	0.28323	1.64132	1.11262	0.73535
26450	0.13243	0.13425	0.08025	0.61751	0.60027	0.50648	2.11612	1.23438	0.58654	0.38695	0.37394	0.34626	0.44048	0.35784	0.27289	1.60964	1.08369	0.71062
26610	0.12594	0.12708	0.07109	0.59410	0.57600	0.48014	2.10497	1.22209	0.57727	0.36428	0.35236	0.32564	0.43506	0.35579	0.26833	1.58463	1.05943	0.68966
26770	0.12071	0.12378	0.07021	0.57575	0.55983	0.46941	2.10281	1.22105	0.57117	0.35942	0.34695	0.31813	0.43142	0.35131	0.26906	1.57716	1.05696	0.68953
26940	0.12087	0.12502	0.07035	0.57627	0.55725	0.46577	2.10329	1.22198	0.57317	0.35427	0.34444	0.31591	0.43327	0.34930	0.26848	1.57347	1.05314	0.68415
27100	0.12324	0.12488	0.07005	0.57442	0.55863	0.46741	2.10590	1.22471	0.57534	0.35535	0.34635	0.31670	0.43532	0.34868	0.26911	1.57459	1.05380	0.68469
27270	0.12186	0.12404	0.07350	0.57402	0.56026	0.46973	2.10559	1.22612	0.57918	0.36050	0.35081	0.32268	0.43674	0.35433	0.27225	1.58600	1.06236	0.69195
27430	0.12674	0.12590	0.07378	0.58051	0.56453	0.47285	2.11066	1.22755	0.58005	0.36125	0.35126	0.32199	0.43759	0.35750	0.27380	1.58609	1.06162	0.69102
27600	0.12730	0.12808	0.07459	0.58388	0.56903	0.47681	2.10663	1.22432	0.58102	0.36405	0.35580	0.32519	0.43915	0.35851	0.27722	1.58754	1.06728	0.69772	29.32	6.1	0.00	7.47	0.01273	0.01295	0.01641	0.00794	0.00591	0.00647	0.00471	0.01272	0.01689	0.00685	0.00707	0.00890	0.01495	0.01098	0.01200	0.00222	0.00630	0.00883
27760	0.12976	0.13230	0.07872	0.58895	0.57349	0.48140	2.11578	1.23617	0.58557	0.36985	0.36074	0.33171	0.44313	0.36117	0.28019	1.59518	1.07358	0.70408
27920	0.13322	0.13487	0.08234	0.59585	0.58206	0.49019	2.11916	1.24081	0.59183	0.37796	0.36577	0.33703	0.44533	0.36489	0.27942	1.60231	1.07707	0.70421
28090	0.13133	0.12909	0.07842	0.58794	0.57154	0.47848	2.11178	1.23224	0.58386	0.36605	0.35460	0.32750	0.43697	0.35863	0.27227	1.59127	1.06486	0.69480
28250	0.12578	0.12759	0.07429	0.58182	0.56598	0.47485	2.10157	1.22888	0.58069	0.36321	0.35399	0.32579	0.43502	0.35606	0.27469	1.58848	1.06525	0.69627
28410	0.12947	0.13111	0.07792	0.59151	0.57717	0.48469	2.11291	1.23686	0.58820	0.37279	0.36292	0.33268	0.44364	0.36088	0.27850	1.59617	1.07373	0.70324
28580	0.13227	0.13233	0.07915	0.59047	0.57460	0.48307	2.11493	1.23567	0.58707	0.37040	0.36074	0.33064	0.44203	0.36228	0.28049	1.60051	1.07450	0.70463
28740	0.13273	0.13591	0.08147	0.59261	0.57674	0.48617	2.11445	1.24008	0.58970	0.37458	0.36487	0.33668	0.44782	0.36718	0.28472	1.60511	1.08164	0.71333
28910	0.13999	0.14159	0.08588	0.60532	0.59038	0.49962	2.14662	1.25078	0.60204	0.38465	0.37479	0.34489	0.45607	0.37556	0.29292	1.61629	1.09330	0.72426
29070	0.14243	0.14156	0.09099	0.61176	0.59563	0.50362	2.13325	1.25300	0.60477	0.38936	0.38117	0.35034	0.45994	0.38256	0.29707	1.62685	1.10419	0.73397
29230	0.14846	0.14559	0.09337	0.62333	0.60530	0.51459	2.14010	1.25781	0.60724	0.39604	0.38655	0.35687	0.45843	0.37900	0.29486	1.62399	1.10136	0.72976	29.32	6.2	0.00	7.34	0.01273	0.01295	0.01641	0.00794	0.00591	0.00647	0.00471	0.01272	0.01689	0.00686	0.00708	0.00890	0.01495	0.01099	0.01200	0.00222	0.00631	0.00883
29390	0.14106	0.14124	0.08700	0.61364	0.59665	0.50366	2.12916	1.24901	0.60147	0.38842	0.37883	0.34831	0.45243	0.37686	0.29092	1.61375	1.09224	0.72222
29550	0.13866	0.13740	0.08260	0.60625	0.58820	0.49455	2.12772	1.24537	0.59411	0.37850	0.36879	0.34144	0.44316	0.36911	0.27859	1.59857	1.07567	0.70636
29710	0.12753	0.12873	0.07474	0.59604	0.58042	0.49040	2.10646	1.22682	0.57737	0.37765	0.36750	0.33882	0.43188	0.34978	0.26773	1.59449	1.07300	0.70208
29880	0.12270	0.12405	0.07167	0.59419	0.57769	0.48608	2.10084	1.22670	0.57583	0.37499	0.36651	0.33547	0.43430	0.35520	0.27143	1.59535	1.07531	0.70606
30040	0.12447	0.12572	0.07277	0.59499	0.57983	0.49007	2.10424	1.22294	0.57522	0.38080	0.37149	0.34002	0.43094	0.34854	0.26803	1.59741	1.07376	0.70378
30210	0.12191	0.12069	0.06934	0.59247	0.57352	0.48078	2.09691	1.22166	0.57203	0.36706	0.35840	0.32855	0.43263	0.34966	0.26856	1.58741	1.07109	0.70283
30380	0.12314	0.12400	0.07329	0.59399	0.57823	0.48467	2.10444	1.22335	0.57622	0.37358	0.36510	0.33587	0.43584	0.35072	0.27310	1.59720	1.07342	0.70212
30540	0.12769	0.12623	0.07444	0.59085	0.57298	0.48296	2.11848	1.23596	0.58723	0.37022	0.36099	0.32965	0.44221	0.35806	0.27577	1.58788	1.06629	0.69832
30710	0.12549	0.12603	0.07127	0.58708	0.57026	0.48046	2.10340	1.22814	0.58532	0.37507	0.36360	0.33495	0.44840	0.36816	0.28610	1.60007	1.07736	0.70638
30870	0.13887	0.13498	0.08350	0.59929	0.58328	0.49065	2.12105	1.24080	0.59366	0.37658	0.37013	0.33874	0.44685	0.36772	0.28135	1.60066	1.07859	0.70711	29.32	6.2	0.00	7.36	0.01273	0.01295	0.01641	0.00794	0.00591	0.00647	0.00471	0.01272	0.01689	0.00686	0.00708	0.00891	0.01495	0.01099	0.01200	0.00222	0.00631	0.00883
31030	0.13482	0.13384	0.08166	0.59660	0.58108	0.48899	2.10881	1.23737	0.58962	0.37472	0.36871	0.33676	0.44467	0.36519	0.27913	1.59688	1.07546	0.70394
31200	0.13250	0.13183	0.07834	0.59382	0.57730	0.48581	2.11753	1.23511	0.58627	0.37126	0.36625	0.33484	0.44261	0.36324	0.27990	1.59276	1.06994	0.70043
31360	0.13149	0.13331	0.07960	0.59158	0.57876	0.48746	2.11784	1.23545	0.58742	0.37419	0.36932	0.33688	0.44264	0.36185	0.27868	1.59864	1.07518	0.70465
31520	0.12947	0.12920	0.07614	0.59438	0.57909	0.48689	2.11582	1.23308	0.58562	0.37260	0.36620	0.33474	0.44333	0.36441	0.27747	1.59486	1.07110	0.70223
31680	0.12883	0.12915	0.07557	0.59330	0.57709	0.48532	2.11292	1.22914	0.58177	0.37150	0.36536	0.33293	0.44153	0.36006	0.27653	1.59765	1.07546	0.70439
31850	0.13209	0.13219	0.07813	0.59492	0.57938	0.48738	2.11455	1.23500	0.58623	0.37330	0.36848	0.33565	0.44203	0.35985	0.27709	1.59847	1.07491	0.70344
32010	0.13067	0.13163	0.07783	0.59386	0.57779	0.48567	2.10128	1.23066	0.58206	0.37263	0.36654	0.33401	0.44384	0.36332	0.27863	1.60143	1.07777	0.70748
32180	0.13233	0.13249	0.07921	0.59789	0.58152	0.48978	2.10350	1.23050	0.58339	0.37682	0.37142	0.33804	0.44253	0.35843	0.27628	1.59937	1.07757	0.70677
32340	0.13418	0.13558	0.08453	0.60243	0.58762	0.49556	2.11852	1.24275	0.59382	0.38308	0.37765	0.34560	0.45805	0.37324	0.29271	1.61566	1.09264	0.72065
32510	0.14527	0.14620	0.09259	0.61527	0.60013	0.50821	2.13187	1.25370	0.60504	0.38938	0.38233	0.35023	0.45549	0.37598	0.28979	1.61676	1.09015	0.71921	29.32	6.3	0.00	7.35	0.01273	0.01295	0.01641	0.00795	0.00591	0.00648	0.00471	0.01273	0.01690	0.00686	0.00708	0.00891	0.01495	0.01099	0.01201	0.00222	0.00631	0.00884
32660	0.13871	0.13584	0.08331	0.60642	0.58975	0.49773	2.11967	1.23944	0.59081	0.38142	0.37423	0.34352	0.44258	0.36230	0.27825	1.60752	1.08094	0.70937
32830	0.12732	0.12579	0.07216	0.60108	0.58472	0.49407	2.10181	1.22847	0.58091	0.37877	0.37261	0.34052	0.44094	0.36277	0.27994	1.60546	1.08002	0.70794
32990	0.13135	0.13100	0.07793	0.59599	0.57956	0.48863	2.10392	1.22865	0.58030	0.37617	0.37186	0.34054	0.43989	0.35899	0.27600	1.60447	1.07871	0.70719
33150	0.13218	0.13171	0.07892	0.60152	0.58611	0.49557	2.11827	1.24010	0.58932	0.38257	0.37490	0.34387	0.44601	0.36223	0.27809	1.60576	1.08381	0.71322
33320	0.13125	0.13087	0.07767	0.60126	0.58431	0.49358	2.11131	1.23444	0.58417	0.37940	0.37158	0.34054	0.44384	0.36091	0.27838	1.60486	1.08002	0.70837
33480	0.13253	0.13454	0.08163	0.60192	0.58636	0.49589	2.11663	1.23791	0.58882	0.38047	0.37544	0.34273	0.44524	0.36668	0.28229	1.60645	1.08310	0.71265
33640	0.13010	0.13246	0.07702	0.60145	0.58531	0.49310	2.11334	1.23277	0.58764	0.37883	0.37126	0.34041	0.44262	0.36198	0.27988	1.60439	1.07835	0.70884
33810	0.13120	0.13099	0.07998	0.60119	0.58544	0.49492	2.11129	1.23621	0.58925	0.37997	0.37349	0.34118	0.44329	0.36341	0.28151	1.60567	1.08214	0.71116
33970	0.13151	0.13051	0.07820	0.59984	0.58354	0.49190	2.10876	1.23035	0.58342	0.37678	0.37025	0.33881	0.43985	0.36063	0.27793	1.60546	1.07920	0.70803
34130	0.12823	0.12911	0.07766	0.59843	0.58314	0.49221	2.10819	1.23067	0.58292	0.37784	0.37188	0.34045	0.44084	0.36134	0.27859	1.60794	1.08307	0.71319	29.32	6.1	0.00	7.38	0.01273	0.01295	0.01642	0.00795	0.00592	0.00648	0.00471	0.01273	0.01690	0.00686	0.00709	0.00891	0.01496	0.01099	0.01201	0.00223	0.00631	0.00884
34290	0.13148	0.13155	0.07810	0.60211	0.58651	0.49464	2.10426	1.23152	0.58714	0.38098	0.37494	0.34300	0.44095	0.36193	0.27897	1.60597	1.07999	0.70981
34460	0.12862	0.13127	0.07629	0.59959	0.58408	0.49205	2.11320	1.22929	0.58437	0.37913	0.37423	0.34087	0.44273	0.36139	0.27777	1.60537	1.08180	0.71231
34620	0.13197	0.13211	0.07858	0.60209	0.58690	0.49548	2.11500	1.23433	0.58672	0.38210	0.37697	0.34375	0.44548	0.36160	0.28014	1.61056	1.08488	0.71576
34790	0.13413	0.13292	0.08067	0.60441	0.58851	0.49588	2.10890	1.23335	0.58384	0.38123	0.37523	0.34305	0.43932	0.36046	0.27673	1.60507	1.07990	0.71159
34950	0.12942	0.13077	0.07765	0.60115	0.58637	0.49456	2.11317	1.23307	0.58615	0.38145	0.37494	0.34361	0.44155	0.36090	0.27774	1.60369	1.08108	0.71246
35120	0.13061	0.12970	0.07931	0.60221	0.58686	0.49513	2.10538	1.23308	0.58521	0.38183	0.37546	0.34275	0.44228	0.36037	0.27871	1.60601	1.08164	0.71250
35280	0.12955	0.13149	0.07750	0.60288	0.58744	0.49581	2.12187	1.23153	0.58751	0.38270	0.37588	0.34459	0.44251	0.36397	0.28052	1.60816	1.08311	0.71455
35450	0.12927	0.13092	0.07699	0.60260	0.58621	0.49517	2.10985	1.23103	0.58260	0.38071	0.37491	0.34223	0.44542	0.36373	0.28239	1.61000	1.08661	0.71770
35610	0.13518	0.13486	0.08000	0.60659	0.58932	0.49780	2.11686	1.23663	0.58737	0.38386	0.37670	0.34579	0.44446	0.36402	0.28123	1.60657	1.08180	0.71284
35770	0.13384	0.13564	0.07943	0.60791	0.59215	0.50063	2.11091	1.23804	0.59162	0.38562	0.37960	0.34692	0.44699	0.36605	0.28247	1.60993	1.08553	0.71691	29.32	6.2	0.00	7.37	0.01273	0.01295	0.01642	0.00795	0.00592	0.00648	0.00471	0.01273	0.01690	0.00686	0.00709	0.00892	0.01496	0.01099	0.01201	0.00223	0.00631	0.00884
35940	0.13119	0.13250	0.07911	0.60620	0.58860	0.49722	2.11001	1.23615	0.58739	0.38119	0.37624	0.34533	0.44138	0.35998	0.27737	1.60418	1.08124	0.71262
36100	0.13091	0.13283	0.08087	0.60852	0.59281	0.50181	2.11265	1.23953	0.59154	0.38539	0.38096	0.34854	0.44619	0.36464	0.28080	1.61221	1.08659	0.71872
36260	0.13209	0.13146	0.07982	0.60661	0.58949	0.49872	2.11769	1.23715	0.58877	0.38388	0.37846	0.34700	0.44305	0.36127	0.27857	1.61208	1.08523	0.71635
36430	0.13268	0.13319	0.07977	0.61097	0.59457	0.50321	2.11169	1.23884	0.59026	0.38733	0.38133	0.35089	0.44594	0.36715	0.28229	1.61646	1.09002	0.72012
36590	0.13126	0.13229	0.07770	0.60913	0.59281	0.49995	2.11175	1.23433	0.58716	0.38536	0.37932	0.34885	0.44267	0.36232	0.27792	1.61109	1.08530	0.71605
36750	0.12971	0.13001	0.07505	0.60514	0.59020	0.49597	2.11054	1.23116	0.58434	0.38162	0.37685	0.34504	0.44597	0.36392	0.28367	1.61272	1.09094	0.72105
36920	0.13379	0.13466	0.07922	0.61072	0.59571	0.50158	2.11943	1.23924	0.58946	0.38631	0.38215	0.34958	0.44445	0.36361	0.27992	1.61379	1.08794	0.71794
37080	0.13110	0.13220	0.07813	0.60685	0.59257	0.49799	2.11518	1.23541	0.58513	0.38256	0.37871	0.34687	0.44250	0.36573	0.28202	1.61612	1.09107	0.72034
37240	0.13257	0.13526	0.08063	0.60906	0.59290	0.49979	2.11549	1.23567	0.58739	0.38552	0.38110	0.34970	0.44325	0.36056	0.27776	1.61066	1.08556	0.71644
37410	0.13084	0.13001	0.07687	0.60702	0.59100	0.49885	2.10523	1.23134	0.58261	0.38258	0.37857	0.34726	0.44388	0.36691	0.28379	1.61740	1.08953	0.72136	29.32	6.1	0.00	7.37	0.01273	0.01295	0.01642	0.00795	0.00592	0.00648	0.00471	0.01273	0.01690	0.00686	0.00709	0.00892	0.01496	0.01099	0.01201	0.00223	0.00631	0.00884
37570	0.13134	0.13290	0.08151	0.61149	0.59658	0.50311	2.11273	1.24019	0.59156	0.38770	0.38295	0.35142	0.44391	0.36595	0.28427	1.61628	1.08866	0.71934
37730	0.13577	0.13431	0.07928	0.61056	0.59586	0.50372	2.11574	1.23775	0.59119	0.38897	0.38421	0.35197	0.44540	0.36188	0.28180	1.61680	1.08851	0.71859
37900	0.13011	0.13260	0.07621	0.60851	0.59371	0.50095	2.10911	1.23711	0.58581	0.38565	0.38014	0.34946	0.44529	0.36590	0.28172	1.61878	1.08987	0.72135
38060	0.13401	0.13356	0.08212	0.61136	0.59699	0.50401	2.12022	1.24008	0.59120	0.38988	0.38363	0.35246	0.44655	0.36567	0.28158	1.61633	1.08798	0.71935
38220	0.13116	0.13223	0.07759	0.60888	0.59351	0.50052	2.11186	1.23471	0.58733	0.38546	0.38053	0.34968	0.44250	0.36267	0.27916	1.61311	1.08708	0.71875
38390	0.13207	0.13181	0.07868	0.61019	0.59482	0.50194	2.11611	1.23726	0.59039	0.38756	0.38151	0.35123	0.44421	0.36341	0.28093	1.61384	1.08565	0.71728
38550	0.12896	0.13106	0.07742	0.60828	0.59290	0.50081	2.10804	1.23485	0.58681	0.38613	0.37912	0.34979	0.44100	0.36179	0.27877	1.61156	1.08435	0.71531
38710	0.13107	0.13173	0.07953	0.60618	0.59405	0.50279	2.11819	1.23781	0.58870	0.38904	0.38342	0.35301	0.44452	0.36658	0.28234	1.61637	1.08963	0.72055
38880	0.13497	0.13494	0.08005	0.61052	0.59417	0.50194	2.12255	1.23522	0.59029	0.38700	0.38034	0.34965	0.44148	0.36052	0.27863	1.61324	1.08491	0.71728
39040	0.12848	0.13344	0.08198	0.60997	0.59712	0.50594	2.12188	1.24170	0.59234	0.39288	0.38696	0.35438	0.44873	0.36792	0.28645	1.61978	1.09348	0.72472	29.32	6.2	0.00	7.43	0.01273	0.01296	0.01642	0.00795	0.00592	0.00648	0.00471	0.01273	0.01690	0.00686	0.00709	0.00892	0.01496	0.01099	0.01201	0.00223	0.00631	0.00884
39200	0.13167	0.13380	0.07879	0.61176	0.59412	0.50027	2.11282	1.23382	0.58551	0.38471	0.38092	0.34850	0.44210	0.35946	0.27680	1.61278	1.08532	0.71546
39370	0.12952	0.13351	0.08095	0.60999	0.59432	0.50189	2.12084	1.23226	0.58959	0.38772	0.38392	0.35180	0.44316	0.36363	0.28153	1.61561	1.08830	0.71868
39530	0.13177	0.13122	0.07695	0.60839	0.59215	0.49897	2.11164	1.23253	0.58462	0.38399	0.38011	0.34821	0.44102	0.35931	0.27505	1.61076	1.08363	0.71516
39690	0.13001	0.13214	0.07883	0.60855	0.59290	0.50080	2.10874	1.23303	0.58639	0.38479	0.38339	0.34877	0.44341	0.36109	0.27642	1.61269	1.08607	0.71681
39860	0.13035	0.13074	0.07863	0.60868	0.59379	0.50020	2.10638	1.23739	0.58913	0.38514	0.38108	0.34776	0.44344	0.36493	0.27924	1.61214	1.08588	0.71666
40020	0.13366	0.13503	0.08122	0.60903	0.59436	0.50201	2.11324	1.24132	0.59173	0.38800	0.38435	0.35103	0.44907	0.36887	0.28169	1.61630	1.09152	0.72055
40180	0.13655	0.13640	0.08270	0.61007	0.59537	0.50192	2.11715	1.23993	0.59362	0.38724	0.38353	0.35018	0.44848	0.36830	0.28241	1.61613	1.08905	0.71957
40350	0.13576	0.13521	0.08182	0.61180	0.59725	0.50398	2.12565	1.24309	0.59334	0.38943	0.38668	0.35140	0.45006	0.36794	0.28516	1.62077	1.09135	0.72133
40510	0.13497	0.13404	0.07992	0.61049	0.59572	0.50248	2.11361	1.23725	0.59087	0.38673	0.38416	0.35003	0.44716	0.36557	0.28523	1.61772	1.09026	0.72087
40670	0.13570	0.13880	0.08540	0.61221	0.59983	0.50767	2.12096	1.24277	0.59608	0.39055	0.38844	0.35398	0.45390	0.36835	0.28620	1.62397	1.09581	0.72607	29.26	6.1	0.00	7.34	0.01273	0.01295	0.01642	0.00795	0.00592	0.00648	0.00471	0.01273	0.01690	0.00686	0.00709	0.00892	0.01496	0.01099	0.01201	0.00223	0.00631	0.00884
40840	0.13745	0.13853	0.08746	0.61583	0.60204	0.50872	2.12862	1.24413	0.59801	0.39210	0.38908	0.35521	0.45513	0.37183	0.28669	1.62560	1.09656	0.72624
41000	0.13717	0.13911	0.08730	0.61873	0.60482	0.51168	2.11731	1.24719	0.59928	0.39523	0.39078	0.35705	0.45546	0.37560	0.29118	1.63098	1.10006	0.73000
41160	0.13781	0.13877	0.08232	0.61689	0.60176	0.50760	2.12178	1.24122	0.59490	0.39025	0.38655	0.35322	0.44915	0.36667	0.28232	1.62143	1.09262	0.72218
41320	0.13117	0.13398	0.07737	0.61072	0.59646	0.50287	2.11058	1.23318	0.58645	0.38816	0.38377	0.35094	0.44266	0.36495	0.28111	1.61581	1.08879	0.71895
41490	0.13276	0.13237	0.08195	0.61396	0.60154	0.50871	2.12212	1.23990	0.59394	0.39253	0.38723	0.35481	0.44652	0.36640	0.28402	1.62341	1.09670	0.72641
41650	0.13272	0.13200	0.07845	0.61552	0.59964	0.50580	2.11666	1.23334	0.58452	0.38961	0.38662	0.35256	0.44262	0.36387	0.27863	1.62049	1.09340	0.72370
41810	0.12935	0.13295	0.07831	0.61309	0.59835	0.50431	2.11275	1.23479	0.58517	0.38912	0.38651	0.35150	0.44693	0.36496	0.28686	1.62294	1.09509	0.72630
41980	0.13599	0.13463	0.08146	0.61424	0.60010	0.50663	2.12668	1.23791	0.58663	0.38892	0.38641	0.35482	0.44323	0.35965	0.28014	1.62994	1.10199	0.73121
42140	0.13360	0.13331	0.08112	0.61947	0.60471	0.51131	2.11773	1.24178	0.59091	0.39424	0.38974	0.35609	0.45005	0.36549	0.28426	1.62629	1.09621	0.72601
42310	0.13490	0.13665	0.08277	0.61495	0.60220	0.50925	2.12089	1.24060	0.59504	0.39387	0.38904	0.35650	0.44695	0.36631	0.28386	1.62589	1.09553	0.72603	29.32	6.2	0.00	7.37	0.01273	0.01295	0.01642	0.00795	0.00592	0.00648	0.00471	0.01273	0.01690	0.00687	0.00709	0.00892	0.01496	0.01099	0.01201	0.00223	0.00632	0.00884
42470	0.13227	0.13224	0.07853	0.61447	0.60057	0.50672	2.11583	1.23578	0.58928	0.39184	0.38648	0.35381	0.44322	0.36598	0.28101	1.62237	1.09229	0.72191
42630	0.13206	0.13142	0.07525	0.60999	0.59456	0.50337	2.10686	1.22785	0.58249	0.39143	0.38451	0.35230	0.44472	0.36123	0.28296	1.62409	1.09562	0.72699
42790	0.13246	0.13417	0.07948	0.61605	0.60082	0.50891	2.11324	1.23549	0.58943	0.39499	0.38751	0.35502	0.44498	0.36377	0.28088	1.62611	1.09215	0.72328
42960	0.12963	0.13306	0.07686	0.61340	0.59831	0.50660	2.11046	1.23068	0.58639	0.39216	0.38650	0.35314	0.44551	0.36598	0.28309	1.62267	1.09518	0.72635
43120	0.13243	0.13378	0.07960	0.61519	0.59961	0.50840	2.12213	1.23252	0.58795	0.39447	0.38926	0.35442	0.44622	0.36332	0.28126	1.62245	1.09345	0.72441
43280	0.13099	0.13266	0.07766	0.61229	0.59692	0.50575	2.11403	1.23505	0.58670	0.39074	0.38461	0.35159	0.45037	0.36998	0.28686	1.62413	1.09610	0.72810
43450	0.13706	0.13655	0.08462	0.61631	0.60196	0.51077	2.12343	1.24228	0.59215	0.39539	0.38903	0.35555	0.44528	0.36648	0.28506	1.62224	1.09325	0.72506
43610	0.13441	0.13386	0.07935	0.61369	0.59728	0.50653	2.11935	1.23567	0.58716	0.39288	0.38594	0.35311	0.44829	0.36960	0.28650	1.62757	1.09754	0.72852
43780	0.13279	0.13188	0.07974	0.61567	0.60074	0.50876	2.12137	1.24050	0.59020	0.39423	0.38623	0.35400	0.44450	0.36434	0.28363	1.62056	1.09099	0.72358
43940	0.12957	0.13106	0.07757	0.61009	0.59319	0.50164	2.10344	1.23167	0.58473	0.39038	0.38243	0.35043	0.44411	0.36786	0.28388	1.61943	1.09407	0.72650	29.26	6.1	0.00	7.47	0.01273	0.01295	0.01642	0.00795	0.00592	0.00648	0.00471	0.01273	0.01690	0.00687	0.00709	0.00892	0.01496	0.01099	0.01201	0.00223	0.00631	0.00884
44100	0.13524	0.13505	0.08044	0.61567	0.59770	0.50656	2.11928	1.23901	0.59162	0.39546	0.38592	0.35445	0.44984	0.37003	0.28510	1.61981	1.09029	0.72129
44270	0.13734	0.13809	0.08444	0.61436	0.59912	0.50762	2.13333	1.24464	0.59605	0.39742	0.38927	0.35638	0.45329	0.37047	0.28860	1.62175	1.09454	0.72641
44430	0.13819	0.14072	0.08529	0.61468	0.59802	0.50650	2.13449	1.24728	0.59461	0.39583	0.38789	0.35459	0.45660	0.37455	0.29221	1.62407	1.09910	0.73071
44600	0.14206	0.14362	0.08778	0.62065	0.60278	0.51065	2.13843	1.25154	0.60199	0.39956	0.39153	0.35913	0.45805	0.37607	0.29337	1.62751	1.10090	0.73167
44760	0.14246	0.14357	0.08586	0.61987	0.60283	0.50960	2.13784	1.24713	0.59792	0.39743	0.38910	0.35737	0.45844	0.37805	0.29377	1.63215	1.10304	0.73347
44920	0.14177	0.14507	0.08817	0.62161	0.60521	0.51104	2.13581	1.25022	0.60083	0.39904	0.39049	0.35862	0.45501	0.37387	0.28933	1.62734	1.09940	0.72999
45080	0.13959	0.14168	0.08722	0.61967	0.60475	0.51136	2.12350	1.25001	0.60006	0.39771	0.38819	0.35636	0.45158	0.36939	0.28390	1.62085	1.09348	0.72289
45240	0.13428	0.13314	0.08270	0.61382	0.59884	0.50547	2.12696	1.24012	0.59096	0.39191	0.38545	0.35275	0.44945	0.36797	0.28418	1.62351	1.09737	0.72696
45410	0.13432	0.13376	0.07883	0.61595	0.60136	0.50589	2.12508	1.23994	0.59077	0.39162	0.38828	0.35338	0.44498	0.36367	0.28167	1.62106	1.09254	0.72280
45570	0.13142	0.13150	0.07880	0.61251	0.59819	0.50423	2.11303	1.24084	0.58767	0.39104	0.38656	0.35273	0.44861	0.36435	0.28392	1.62021	1.09448	0.72542	29.26	6.0	0.00	7.35	0.01273	0.01295	0.01641	0.00795	0.00592	0.00648	0.00471	0.01273	0.01690	0.00687	0.00709	0.00892	0.01495	0.01099	0.01201	0.00223	0.00631	0.00884
45740	0.13595	0.13534	0.08257	0.61699	0.60150	0.50838	2.12302	1.24427	0.59555	0.39487	0.38986	0.35685	0.45467	0.37259	0.29134	1.62575	1.09940	0.72895
45900	0.13818	0.13903	0.08558	0.61854	0.60368	0.51087	2.13224	1.24524	0.59660	0.39669	0.39158	0.35791	0.45137	0.36957	0.28598	1.62313	1.09661	0.72666
46060	0.13489	0.13637	0.08373	0.61628	0.60065	0.50753	2.11441	1.24201	0.59218	0.39331	0.38993	0.35553	0.44956	0.36700	0.28711	1.62133	1.09794	0.72683
46230	0.13758	0.13622	0.08370	0.61774	0.60267	0.50969	2.12012	1.24436	0.59549	0.39456	0.38946	0.35706	0.44880	0.36658	0.28434	1.62210	1.09481	0.72337
46390	0.13532	0.13512	0.07995	0.61403	0.59782	0.50436	2.11888	1.24162	0.59072	0.39245	0.38709	0.35400	0.44398	0.36437	0.28110	1.61737	1.09000	0.72013
46550	0.13064	0.13175	0.07821	0.61065	0.59642	0.50218	2.11635	1.23789	0.58616	0.39085	0.38515	0.35210	0.44684	0.36720	0.28666	1.62141	1.09592	0.72613
46710	0.13508	0.13544	0.08222	0.61711	0.60167	0.50823	2.12040	1.24050	0.59289	0.39510	0.39000	0.35643	0.44645	0.36525	0.28260	1.61836	1.09321	0.72321
46880	0.13421	0.13317	0.08071	0.61302	0.59757	0.50361	2.11579	1.23893	0.58875	0.39055	0.38654	0.35386	0.44416	0.36273	0.28214	1.61797	1.09379	0.72358
47040	0.13362	0.13298	0.07914	0.61450	0.59900	0.50577	2.11734	1.23989	0.58906	0.39312	0.38781	0.35466	0.44493	0.36255	0.27621	1.61918	1.09223	0.72149
47200	0.13199	0.13257	0.07913	0.61109	0.59641	0.50326	2.11596	1.23566	0.58607	0.39034	0.38482	0.35206	0.44143	0.36048	0.27699	1.61465	1.08843	0.71834	29.26	5.9	0.00	7.38	0.01273	0.01295	0.01642	0.00795	0.00592	0.00648	0.00471	0.01273	0.01690	0.00687	0.00709	0.00892	0.01496	0.01099	0.01201	0.00223	0.00631	0.00884
47370	0.13171	0.13322	0.08334	0.61658	0.60341	0.50993	2.12440	1.24462	0.59379	0.39638	0.39069	0.35792	0.44809	0.36616	0.28148	1.62109	1.09510	0.72535
47530	0.13403	0.13482	0.08077	0.61456	0.59998	0.50547	2.11728	1.23868	0.58946	0.39258	0.38599	0.35419	0.44242	0.36433	0.27943	1.61602	1.09125	0.72170
47690	0.13142	0.13583	0.08085	0.61522	0.60139	0.50846	2.11643	1.24310	0.59279	0.39431	0.38758	0.35699	0.44839	0.36660	0.28094	1.62049	1.09449	0.72419
47860	0.13042	0.13325	0.07946	0.61351	0.59796	0.50550	2.11956	1.23654	0.58709	0.39101	0.38493	0.35423	0.44222	0.36072	0.27740	1.61550	1.08924	0.71996
48020	0.13169	0.13319	0.07878	0.61396	0.59910	0.50668	2.11610	1.23892	0.59059	0.39320	0.38597	0.35568	0.44432	0.36479	0.28131	1.61959	1.09229	0.72187
48180	0.13175	0.13263	0.07919	0.61201	0.59650	0.50458	2.11103	1.23460	0.58712	0.39164	0.38434	0.35436	0.44331	0.36174	0.27909	1.61593	1.09055	0.72063
48340	0.12979	0.12937	0.07583	0.60980	0.59416	0.50181	2.11458	1.23241	0.58472	0.38862	0.38197	0.35099	0.44526	0.36454	0.28095	1.61838	1.09378	0.72363
48510	0.13135	0.13306	0.07964	0.61328	0.59724	0.50466	2.11514	1.23645	0.58835	0.39282	0.38490	0.35425	0.44517	0.35994	0.28012	1.61576	1.09040	0.72152
48670	0.13176	0.13236	0.08016	0.61107	0.59496	0.50245	2.11497	1.23385	0.58596	0.39093	0.38368	0.35159	0.44652	0.36507	0.28450	1.61954	1.09440	0.72461
48840	0.13461	0.13647	0.08164	0.61384	0.59752	0.50649	2.11061	1.23907	0.58938	0.39272	0.38606	0.35429	0.44582	0.36304	0.28062	1.61666	1.09106	0.72164	29.26	6.0	0.00	7.37	0.01273	0.01295	0.01642	0.00795	0.00592	0.00648	0.00471	0.01273	0.01690	0.00687	0.00709	0.00892	0.01496	0.01099	0.01201	0.00223	0.00631	0.00884
49000	0.13597	0.13524	0.08240	0.61469	0.59967	0.50804	2.12389	1.24114	0.59212	0.39472	0.38816	0.35608	0.44879	0.36696	0.28324	1.61946	1.09425	0.72362
49160	0.13378	0.13465	0.08080	0.61314	0.59706	0.50465	2.11216	1.23971	0.58993	0.39164	0.38493	0.35317	0.44731	0.36768	0.28150	1.61718	1.09271	0.72319
49330	0.13422	0.13606	0.08121	0.61218	0.59829	0.50490	2.11641	1.23865	0.58921	0.39209	0.38610	0.35370	0.44658	0.36315	0.28039	1.61641	1.09001	0.72070
49490	0.13247	0.13266	0.08173	0.61078	0.59543	0.50408	2.11618	1.23370	0.58649	0.38999	0.38469	0.35315	0.44637	0.36562	0.28120	1.61731	1.09154	0.72343
49660	0.13494	0.13693	0.08215	0.61272	0.59723	0.50542	2.11916	1.24135	0.59046	0.39323	0.38650	0.35386	0.44867	0.36463	0.28192	1.61666	1.09180	0.72233
49820	0.13445	0.13592	0.08055	0.61186	0.59795	0.50515	2.11430	1.23779	0.58939	0.39206	0.38647	0.35415	0.44820	0.36416	0.28036	1.61804	1.09235	0.72256
49980	0.13432	0.13549	0.08006	0.61191	0.59659	0.50493	2.10774	1.23760	0.59029	0.39033	0.38528	0.35259	0.44837	0.36867	0.28525	1.62204	1.09605	0.72591
50150	0.13709	0.13578	0.08341	0.61558	0.59945	0.50820	2.11900	1.24032	0.59007	0.39355	0.38744	0.35499	0.44773	0.36449	0.28330	1.62088	1.09232	0.72262
50310	0.13192	0.13349	0.07945	0.61129	0.59611	0.50418	2.11686	1.23550	0.58857	0.39040	0.38444	0.35163	0.44660	0.36665	0.28194	1.62096	1.09414	0.72432
50480	0.13586	0.13711	0.08169	0.61461	0.59893	0.50800	2.12653	1.24048	0.59162	0.39171	0.38444	0.35298	0.44525	0.36455	0.27981	1.61327	1.09118	0.72211	29.26	6.3	0.00	7.35	0.01273	0.01295	0.01642	0.00795	0.00592	0.00648	0.00471	0.01273	0.01690	0.00686	0.00709	0.00892	0.01496	0.01099	0.01201	0.00223	0.00631	0.00884
50640	0.13088	0.13332	0.07766	0.61095	0.59501	0.50360	2.11425	1.23698	0.58702	0.38798	0.38052	0.34935	0.44589	0.36579	0.28307	1.61533	1.09299	0.72495
50800	0.13427	0.13551	0.08159	0.61483	0.59916	0.50738	2.12458	1.23961	0.59089	0.39115	0.38450	0.35304	0.44584	0.36609	0.27953	1.61353	1.09061	0.72195
50960	0.13206	0.13185	0.08006	0.61122	0.59505	0.50316	2.10916	1.23504	0.58580	0.38885	0.38072	0.34977	0.44450	0.36510	0.27974	1.61426	1.09189	0.72292
51130	0.13351	0.13300	0.08025	0.61261	0.59562	0.50414	2.11099	1.23736	0.58903	0.38867	0.38154	0.35091	0.44447	0.36213	0.28111	1.61207	1.08873	0.71963
51290	0.13132	0.13078	0.07601	0.60948	0.59369	0.50233	2.10638	1.23191	0.58536	0.38762	0.37938	0.34885	0.44397	0.36501	0.28088	1.61301	1.08969	0.72151
51450	0.13123	0.13431	0.07889	0.61174	0.59518	0.50412	2.11192	1.23599	0.58743	0.38975	0.38169	0.35058	0.44263	0.35972	0.27979	1.61130	1.08780	0.72012
51620	0.12968	0.13292	0.07632	0.60916	0.59254	0.50137	2.10514	1.23201	0.58456	0.38689	0.37965	0.34773	0.44383	0.36424	0.27999	1.61035	1.09091	0.72146
51780	0.13250	0.13483	0.08007	0.61140	0.59516	0.50332	2.11237	1.23565	0.58731	0.38959	0.38230	0.34982	0.44289	0.36206	0.27707	1.60945	1.08703	0.71782
51950	0.13475	0.13183	0.08113	0.61051	0.59602	0.50302	2.11791	1.23759	0.58935	0.38997	0.38327	0.35088	0.44366	0.36266	0.27822	1.61031	1.08855	0.71932
52110	0.13280	0.13439	0.07955	0.61035	0.59524	0.50347	2.10593	1.23434	0.58865	0.39176	0.38371	0.35135	0.44326	0.36281	0.27837	1.61256	1.08851	0.71953	29.26	6.0	0.00	7.36	0.01273	0.01295	0.01642	0.00795	0.00592	0.00648	0.00471	0.01273	0.01690	0.00687	0.00709	0.00892	0.01496	0.01099	0.01201	0.00223	0.00631	0.00884
52270	0.13133	0.13574	0.08165	0.61199	0.59703	0.50552	2.11076	1.23742	0.59124	0.39396	0.38619	0.35429	0.44772	0.36658	0.28262	1.61629	1.09219	0.72269
52440	0.13242	0.13189	0.07845	0.61146	0.59363	0.50205	2.10584	1.23401	0.58818	0.39083	0.38402	0.35094	0.44251	0.35880	0.27936	1.61148	1.08684	0.71896
52600	0.13242	0.13540	0.08067	0.61144	0.59716	0.50672	2.10750	1.23931	0.59188	0.39429	0.38560	0.35369	0.44650	0.36616	0.28090	1.61595	1.09224	0.72258
52760	0.13229	0.13164	0.07851	0.61044	0.59384	0.50321	2.11023	1.23507	0.58832	0.39112	0.38230	0.35121	0.44304	0.36155	0.27546	1.61393	1.08783	0.71875
52930	0.13113	0.13363	0.08140	0.61065	0.59531	0.50535	2.11251	1.23902	0.58961	0.39220	0.38393	0.35209	0.44628	0.36314	0.28078	1.61531	1.09081	0.72183
53090	0.13120	0.13266	0.07650	0.60841	0.59256	0.50167	2.11015	1.23578	0.58785	0.38927	0.38080	0.34989	0.44410	0.36264	0.27806	1.61110	1.08757	0.71917
53250	0.12946	0.13091	0.07676	0.60748	0.59044	0.50055	2.10211	1.23452	0.58611	0.38880	0.38046	0.34876	0.44196	0.36440	0.27907	1.61427	1.09163	0.72203
53420	0.13112	0.13466	0.07825	0.61047	0.59421	0.50318	2.11746	1.23653	0.58817	0.38984	0.38218	0.35030	0.44388	0.36170	0.27811	1.61118	1.08753	0.71883
53580	0.12932	0.13148	0.07675	0.60724	0.59105	0.50093	2.11659	1.23312	0.58520	0.38776	0.38080	0.34844	0.44445	0.36256	0.27943	1.61118	1.09047	0.72144
53750	0.13068	0.13368	0.07766	0.61030	0.59429	0.50377	2.11137	1.23449	0.58900	0.39026	0.38314	0.35088	0.44902	0.36576	0.28315	1.61617	1.09345	0.72365	29.32	6.0	0.00	7.33	0.01273	0.01295	0.01642	0.00795	0.00592	0.00648	0.00471	0.01273	0.01690	0.00687	0.00709	0.00892	0.01496	0.01099	0.01201	0.00223	0.00631	0.00884
53910	0.13568	0.13387	0.08036	0.61349	0.59676	0.50606	2.12201	1.24011	0.59117	0.39302	0.38577	0.35240	0.44671	0.36193	0.28000	1.61544	1.09083	0.72115
54070	0.13476	0.13446	0.08050	0.61092	0.59569	0.50625	2.11961	1.24193	0.59139	0.39286	0.38636	0.35324	0.44612	0.36533	0.28327	1.61570	1.09150	0.72232
54240	0.13332	0.13223	0.07925	0.61038	0.59479	0.50324	2.11669	1.23652	0.58817	0.39026	0.38391	0.35092	0.44828	0.36659	0.28223	1.61390	1.09296	0.72380
54400	0.13541	0.13599	0.08039	0.61271	0.59610	0.50411	2.11722	1.23943	0.58914	0.39203	0.38603	0.35225	0.44604	0.36409	0.28070	1.61282	1.09064	0.72051
54570	0.13308	0.13286	0.07750	0.60956	0.59233	0.50168	2.12784	1.23588	0.58756	0.38907	0.38252	0.34964	0.44762	0.36608	0.28231	1.61652	1.09445	0.72537
54730	0.13685	0.13807	0.08184	0.61393	0.59693	0.50606	2.12282	1.23998	0.59130	0.39199	0.38675	0.35337	0.44720	0.36537	0.28070	1.61548	1.09137	0.72200
54890	0.13551	0.13550	0.08106	0.61220	0.59739	0.50588	2.12139	1.23970	0.59226	0.39313	0.38535	0.35257	0.44607	0.36687	0.28258	1.61411	1.09192	0.72161
55060	0.13288	0.13546	0.08113	0.61068	0.59565	0.50398	2.11671	1.23790	0.58882	0.39090	0.38623	0.35190	0.44568	0.36486	0.28068	1.61402	1.08990	0.71998
55220	0.13425	0.13606	0.08031	0.61199	0.59717	0.50662	2.12133	1.23894	0.59166	0.39220	0.38665	0.35348	0.44697	0.36671	0.28197	1.61712	1.09270	0.72258
55380	0.13390	0.13399	0.07895	0.61116	0.59544	0.50502	2.11186	1.23496	0.58935	0.38933	0.38493	0.35141	0.44345	0.36483	0.27859	1.61668	1.09079	0.72160	29.26	6.0	0.00	7.35	0.01273	0.01295	0.01642	0.00795	0.00592	0.00648	0.00471	0.01273	0.01690	0.00687	0.00709	0.00892	0.01496	0.01099	0.01201	0.00223	0.00631	0.00884
55550	0.13279	0.13540	0.08167	0.61306	0.59841	0.50779	2.11628	1.23928	0.59251	0.39255	0.38787	0.35283	0.44705	0.36638	0.28318	1.61853	1.09400	0.72393
55710	0.13298	0.13513	0.08136	0.61142	0.59748	0.50544	2.11822	1.23505	0.58912	0.39089	0.38533	0.35239	0.44403	0.36257	0.27981	1.61759	1.09154	0.72275
55870	0.13365	0.13539	0.08086	0.61285	0.59781	0.50678	2.12523	1.23759	0.59106	0.39101	0.38558	0.35264	0.44583	0.36340	0.28180	1.61634	1.09148	0.72323
56040	0.13171	0.13295	0.07877	0.61219	0.59705	0.50563	2.11273	1.23575	0.59043	0.39115	0.38712	0.35315	0.44490	0.36358	0.27878	1.61535	1.09039	0.72296
56200	0.13412	0.13449	0.08207	0.61374	0.59791	0.50692	2.11749	1.24040	0.59082	0.39233	0.38674	0.35392	0.44737	0.36385	0.28184	1.61776	1.09396	0.72557
56360	0.13340	0.13383	0.07990	0.61274	0.59706	0.50514	2.11597	1.23692	0.59002	0.39024	0.38515	0.35118	0.44395	0.36463	0.27869	1.61638	1.09004	0.72204
56530	0.13332	0.13634	0.08012	0.61373	0.59949	0.50946	2.11107	1.24008	0.59174	0.39410	0.38930	0.35459	0.44788	0.36480	0.28198	1.61922	1.09406	0.72524
56690	0.13404	0.13527	0.08211	0.61330	0.59680	0.50639	2.11192	1.23891	0.59079	0.39276	0.38630	0.35263	0.44436	0.36184	0.28140	1.61643	1.09287	0.72483
56850	0.13412	0.13528	0.07982	0.61387	0.59888	0.50787	2.11777	1.23922	0.59245	0.39326	0.38723	0.35399	0.44480	0.36482	0.28125	1.61737	1.09269	0.72396
57020	0.13391	0.13385	0.07935	0.61421	0.59670	0.50600	2.11285	1.23924	0.58865	0.39283	0.38717	0.35300	0.44627	0.36598	0.28370	1.61725	1.09465	0.72616	29.26	6.0	0.00	7.34	0.01273	0.01295	0.01642	0.00795	0.00592	0.00648	0.00471	0.01273	0.01690	0.00687	0.00709	0.00892	0.01496	0.01099	0.01201	0.00223	0.00631	0.00884
57180	0.13393	0.13541	0.08159	0.61503	0.59771	0.50789	2.11881	1.24108	0.59064	0.39422	0.38835	0.35465	0.44716	0.36487	0.28195	1.61643	1.09519	0.72592
57340	0.13469	0.13444	0.07753	0.61374	0.59575	0.50411	2.11316	1.23471	0.58709	0.39042	0.38417	0.35127	0.44374	0.36134	0.28022	1.61227	1.09051	0.72230
57510	0.12980	0.13684	0.08222	0.61371	0.59914	0.50902	2.12084	1.24254	0.59387	0.39585	0.38956	0.35592	0.44967	0.36884	0.28232	1.61888	1.09661	0.72784
57670	0.13484	0.13719	0.08210	0.61707	0.59904	0.50724	2.11754	1.23784	0.59048	0.39333	0.38785	0.35369	0.44663	0.36403	0.28208	1.61510	1.09157	0.72375
57830	0.13230	0.13363	0.08009	0.61339	0.59906	0.50932	2.11791	1.24101	0.59341	0.39635	0.38921	0.35666	0.44846	0.36820	0.28482	1.61871	1.09548	0.72705
58000	0.13326	0.13346	0.07995	0.61452	0.59670	0.50558	2.11752	1.23672	0.58938	0.39262	0.38684	0.35309	0.44541	0.36227	0.27994	1.61605	1.09277	0.72374
58160	0.13114	0.13399	0.08190	0.61256	0.59791	0.50692	2.12399	1.24058	0.59243	0.39385	0.38720	0.35360	0.44888	0.36734	0.28270	1.61575	1.09494	0.72684
58320	0.13371	0.13414	0.07934	0.61539	0.59835	0.50719	2.11847	1.24107	0.59066	0.39206	0.38623	0.35198	0.44519	0.36446	0.28030	1.61476	1.09128	0.72289
58490	0.12981	0.13282	0.07712	0.61211	0.59514	0.50371	2.10897	1.23489	0.58575	0.39116	0.38585	0.35064	0.44967	0.36931	0.28791	1.61957	1.09767	0.72904
58650	0.13618	0.13650	0.08320	0.61692	0.59973	0.50730	2.11528	1.24203	0.59113	0.39399	0.39021	0.35502	0.44863	0.36702	0.28336	1.61954	1.09534	0.72651	29.26	6.1	0.00	7.44	0.01273	0.01295	0.01641	0.00795	0.00592	0.00648	0.00471	0.01273	0.01690	0.00687	0.00709	0.00892	0.01496	0.01099	0.01201	0.00223	0.00631	0.00884
58810	0.13430	0.13452	0.08074	0.61581	0.59721	0.50667	2.11871	1.23835	0.59283	0.39236	0.38829	0.35363	0.44676	0.36413	0.28005	1.61958	1.09435	0.72667
58980	0.13308	0.13424	0.08042	0.61506	0.59893	0.50584	2.11531	1.23743	0.59079	0.39218	0.38782	0.35238	0.44634	0.36273	0.27919	1.61610	1.09304	0.72383
59140	0.13440	0.13777	0.08348	0.61675	0.60082	0.50961	2.11511	1.24343	0.59128	0.39380	0.39007	0.35401	0.44681	0.36602	0.28287	1.61795	1.09367	0.72509
59300	0.13264	0.13622	0.08200	0.61475	0.59923	0.50763	2.11598	1.24405	0.59127	0.39373	0.39148	0.35543	0.44891	0.36666	0.28307	1.61833	1.09458	0.72506
59470	0.13603	0.13858	0.08339	0.61753	0.60209	0.50916	2.11328	1.23844	0.58916	0.39258	0.38843	0.35385	0.44367	0.36449	0.28014	1.61786	1.09322	0.72399
59630	0.13187	0.13309	0.07941	0.61274	0.59589	0.50426	2.11947	1.23919	0.58862	0.38998	0.38606	0.35175	0.44485	0.36366	0.28030	1.61412	1.09224	0.72395
59790	0.13341	0.13621	0.07886	0.61517	0.59909	0.50711	2.12226	1.23988	0.59068	0.39171	0.38761	0.35295	0.44707	0.36484	0.28405	1.61640	1.09373	0.72492
59960	0.13218	0.13285	0.08005	0.61439	0.59863	0.50689	2.11964	1.23788	0.59019	0.39219	0.38925	0.35296	0.44666	0.36719	0.28264	1.61438	1.09197	0.72302
60120	0.13522	0.13647	0.08105	0.61521	0.60021	0.50938	2.13130	1.24176	0.59285	0.39541	0.39176	0.35656	0.44901	0.36652	0.28398	1.62074	1.09707	0.72820
60280	0.13620	0.13593	0.08196	0.61773	0.60049	0.50815	2.12351	1.24405	0.59263	0.39406	0.39026	0.35565	0.45004	0.36618	0.28539	1.62165	1.09812	0.72972	29.26	6.0	0.00	7.41	0.01273	0.01295	0.01642	0.00795	0.00592	0.00648	0.00471	0.01273	0.01690	0.00687	0.00709	0.00892	0.01496	0.01099	0.01201	0.00223	0.00632	0.00884
60450	0.13593	0.13594	0.07880	0.61655	0.59935	0.50650	2.12284	1.23834	0.59004	0.39143	0.38780	0.35361	0.44765	0.36494	0.28131	1.61821	1.09332	0.72578
60610	0.13332	0.13315	0.07674	0.61379	0.59683	0.50472	2.11096	1.23495	0.58682	0.38971	0.38570	0.35109	0.43896	0.36434	0.27950	1.61198	1.08791	0.72018
60770	0.13209	0.13264	0.07739	0.61389	0.59764	0.50682	2.11690	1.23794	0.58971	0.39329	0.38880	0.35352	0.44614	0.36650	0.28177	1.61675	1.09302	0.72396
60940	0.13323	0.13042	0.07905	0.61205	0.59437	0.50303	2.11040	1.23177	0.58551	0.39031	0.38551	0.35135	0.44348	0.36311	0.28142	1.61838	1.09372	0.72478
61100	0.13141	0.13268	0.07957	0.61344	0.59629	0.50505	2.11904	1.23687	0.58889	0.39116	0.38612	0.35261	0.44451	0.36364	0.28062	1.61516	1.09170	0.72289
61260	0.12800	0.12981	0.07628	0.61170	0.59428	0.50238	2.11206	1.23269	0.58176	0.38983	0.38513	0.35135	0.43975	0.35851	0.27849	1.61271	1.08753	0.71974
61430	0.12862	0.13202	0.07865	0.61041	0.59715	0.50715	2.11608	1.24113	0.59072	0.39336	0.38987	0.35535	0.44807	0.36541	0.28121	1.62126	1.09425	0.72425
61590	0.13041	0.13247	0.07800	0.61375	0.59618	0.50464	2.11625	1.23274	0.58536	0.39174	0.38647	0.35337	0.44242	0.36298	0.27910	1.61318	1.09039	0.72136
61750	0.12996	0.13243	0.08085	0.61064	0.59678	0.50703	2.11783	1.23903	0.59109	0.39329	0.38875	0.35590	0.44366	0.36600	0.27774	1.61804	1.09459	0.72481
61920	0.13160	0.13243	0.07940	0.61467	0.59687	0.50567	2.11708	1.23498	0.58748	0.39109	0.38645	0.35395	0.44255	0.36285	0.27633	1.61643	1.09052	0.72068	29.32	6.0	0.00	7.41	0.01273	0.01296	0.01642	0.00795	0.00592	0.00648	0.00471	0.01273	0.01690	0.00687	0.00709	0.00892	0.01496	0.01099	0.01201	0.00223	0.00632	0.00884
62080	0.12729	0.13188	0.08075	0.61139	0.59676	0.50650	2.11238	1.23705	0.58883	0.39205	0.38714	0.35509	0.44271	0.36497	0.28126	1.61596	1.09229	0.72247
62240	0.13109	0.13214	0.07665	0.61296	0.59529	0.50476	2.10566	1.23336	0.58702	0.39085	0.38476	0.35217	0.44366	0.36256	0.27830	1.61347	1.08899	0.72051
62400	0.13170	0.12899	0.07622	0.60966	0.59329	0.50211	2.10164	1.23120	0.58286	0.38839	0.38331	0.35033	0.44538	0.36406	0.28142	1.61734	1.09518	0.72575
62570	0.13230	0.13468	0.07738	0.61568	0.59733	0.50560	2.11570	1.23685	0.58842	0.39126	0.38548	0.35285	0.44310	0.36302	0.28049	1.61459	1.09119	0.72189
62730	0.13078	0.13218	0.07669	0.61186	0.59452	0.50239	2.10600	1.23253	0.58409	0.38990	0.38385	0.35041	0.44614	0.36756	0.28381	1.61661	1.09571	0.72627
62900	0.13444	0.13475	0.07929	0.61567	0.59805	0.50650	2.11869	1.23642	0.58862	0.39329	0.38668	0.35397	0.44325	0.36647	0.28055	1.61880	1.09310	0.72248
63060	0.13312	0.13237	0.08016	0.61558	0.59882	0.50757	2.11700	1.23985	0.59081	0.39410	0.38743	0.35502	0.44816	0.36609	0.28001	1.61884	1.09396	0.72476
63220	0.13230	0.13291	0.07760	0.61454	0.59702	0.50401	2.11385	1.23536	0.58596	0.39192	0.38529	0.35146	0.44227	0.36071	0.27768	1.61235	1.08999	0.72072
63390	0.13006	0.13559	0.08039	0.61635	0.59920	0.50838	2.12113	1.23962	0.58980	0.39564	0.38772	0.35534	0.44736	0.36731	0.28362	1.61966	1.09442	0.72488
63550	0.13505	0.13418	0.07947	0.61496	0.59771	0.50567	2.11465	1.23557	0.58555	0.39294	0.38578	0.35310	0.44467	0.36349	0.27691	1.61411	1.09209	0.72189	29.32	6.0	0.00	7.46	0.01273	0.01296	0.01642	0.00795	0.00592	0.00648	0.00471	0.01273	0.01690	0.00687	0.00709	0.00892	0.01496	0.01099	0.01201	0.00223	0.00632	0.00884
63710	0.13231	0.13167	0.07971	0.61580	0.59825	0.50552	2.11774	1.23884	0.59007	0.39348	0.38642	0.35427	0.44308	0.36480	0.28064	1.61665	1.09325	0.72459
63880	0.13051	0.13206	0.07728	0.61357	0.59616	0.50363	2.10413	1.23228	0.58524	0.39164	0.38538	0.35251	0.44238	0.36157	0.27950	1.61536	1.09233	0.72357
64040	0.13052	0.13221	0.07708	0.61288	0.59560	0.50365	2.11676	1.23455	0.58532	0.39075	0.38486	0.35174	0.44641	0.36709	0.28009	1.61703	1.09519	0.72754
64200	0.13392	0.13378	0.07674	0.61687	0.59927	0.50770	2.11029	1.23773	0.58790	0.39425	0.38797	0.35483	0.44710	0.36504	0.28236	1.61759	1.09336	0.72514
64370	0.13230	0.13202	0.07722	0.61388	0.59556	0.50421	2.10312	1.23715	0.58429	0.39092	0.38491	0.35147	0.44715	0.36867	0.28334	1.61875	1.09736	0.72960
64530	0.13441	0.13479	0.07994	0.61798	0.60046	0.50850	2.11819	1.23618	0.58911	0.39466	0.38775	0.35569	0.44599	0.36540	0.28175	1.61910	1.09535	0.72568
64690	0.13319	0.13272	0.08020	0.61657	0.60049	0.50911	2.12160	1.23855	0.58943	0.39478	0.38858	0.35570	0.44730	0.36594	0.28074	1.61824	1.09598	0.72674
64860	0.13180	0.13349	0.07770	0.61498	0.59800	0.50684	2.11226	1.23670	0.58666	0.39273	0.38611	0.35380	0.44664	0.36571	0.28254	1.61966	1.09707	0.72840
65020	0.13270	0.13554	0.07909	0.61812	0.60010	0.50924	2.12002	1.24129	0.59067	0.39603	0.38913	0.35599	0.44627	0.36671	0.28173	1.61901	1.09622	0.72710
65180	0.13137	0.13457	0.07790	0.61567	0.59803	0.50710	2.11311	1.23763	0.58734	0.39229	0.38598	0.35295	0.44912	0.36600	0.28496	1.61956	1.09875	0.72751	29.26	6.0	0.00	7.33	0.01273	0.01296	0.01642	0.00795	0.00592	0.00648	0.00471	0.01273	0.01690	0.00687	0.00709	0.00892	0.01496	0.01099	0.01201	0.00223	0.00632	0.00884
65350	0.13228	0.13590	0.08103	0.61775	0.60174	0.50875	2.12156	1.24018	0.59021	0.39430	0.38829	0.35412	0.44561	0.36542	0.28214	1.61951	1.09550	0.72554
65510	0.13228	0.13283	0.07921	0.61495	0.59788	0.50570	2.11354	1.23548	0.58475	0.39179	0.38558	0.35191	0.44004	0.36028	0.27779	1.61432	1.09208	0.72315
65670	0.12937	0.13335	0.08283	0.61344	0.60059	0.50965	2.11854	1.24245	0.59462	0.39613	0.38959	0.35670	0.44757	0.36761	0.28238	1.62054	1.09846	0.72861
65840	0.13453	0.13436	0.08068	0.61780	0.59985	0.50793	2.10729	1.23756	0.59065	0.39296	0.38676	0.35338	0.44387	0.36563	0.28051	1.61861	1.09395	0.72449
66000	0.13005	0.13429	0.08262	0.61452	0.59929	0.50836	2.11829	1.23994	0.59149	0.39514	0.38784	0.35522	0.44717	0.36816	0.28154	1.62123	1.09525	0.72538
66160	0.13155	0.12925	0.07736	0.61520	0.59743	0.50597	2.11629	1.23574	0.58694	0.39212	0.38685	0.35314	0.44207	0.36415	0.27754	1.61612	1.09206	0.72096
66320	0.13296	0.13096	0.08049	0.61417	0.59696	0.50651	2.11275	1.23685	0.58893	0.39277	0.38554	0.35440	0.44435	0.36291	0.28227	1.61505	1.09470	0.72527
66490	0.13216	0.13059	0.07862	0.61468	0.59682	0.50592	2.10634	1.23417	0.58916	0.39181	0.38510	0.35338	0.44345	0.36592	0.28065	1.61638	1.09346	0.72263
66650	0.13015	0.13116	0.07696	0.61312	0.59686	0.50544	2.11311	1.23337	0.58573	0.39185	0.38582	0.35235	0.44133	0.36308	0.27709	1.61466	1.09076	0.72063
66810	0.13205	0.13591	0.08370	0.61716	0.60146	0.51039	2.11726	1.24332	0.59372	0.39600	0.39066	0.35831	0.44843	0.36852	0.28504	1.62348	1.09828	0.72814	29.26	6.2	0.00	7.36	0.01273	0.01296	0.01642	0.00795	0.00592	0.00648	0.00471	0.01273	0.01690	0.00687	0.00709	0.00892	0.01496	0.01099	0.01201	0.00223	0.00632	0.00884
66980	0.13453	0.13319	0.08034	0.61631	0.59921	0.50805	2.12455	1.23759	0.58867	0.39193	0.38698	0.35487	0.44619	0.36422	0.28073	1.61841	1.09528	0.72426
67140	0.13460	0.13575	0.08176	0.61768	0.60202	0.51152	2.11301	1.24072	0.59262	0.39561	0.38865	0.35730	0.44748	0.36803	0.28369	1.62214	1.09872	0.72746
67300	0.13333	0.13214	0.08019	0.61739	0.59904	0.50876	2.11825	1.23870	0.58901	0.39227	0.38600	0.35512	0.44219	0.36546	0.28171	1.61841	1.09354	0.72334
67460	0.12915	0.13107	0.07538	0.61208	0.59425	0.50375	2.10930	1.23381	0.58440	0.38930	0.38291	0.35188	0.44558	0.36479	0.28424	1.62051	1.09760	0.72743
67630	0.13461	0.13375	0.07959	0.61633	0.59817	0.50751	2.10660	1.23637	0.58831	0.39223	0.38499	0.35516	0.44047	0.36180	0.27992	1.61896	1.09176	0.72600
67790	0.13186	0.13088	0.07829	0.61460	0.59531	0.50649	2.11403	1.23685	0.58805	0.39033	0.38333	0.35291	0.44569	0.36488	0.28234	1.61918	1.09677	0.72679
67960	0.13535	0.13448	0.08021	0.61639	0.59786	0.50809	2.11853	1.23849	0.58613	0.39304	0.38633	0.35405	0.44363	0.36417	0.27808	1.61935	1.09517	0.72411
68120	0.13186	0.13283	0.07698	0.61408	0.59581	0.50521	2.10486	1.23307	0.58478	0.39018	0.38394	0.35225	0.44559	0.36476	0.28253	1.62206	1.09736	0.72810
68280	0.13502	0.13404	0.08059	0.61682	0.59793	0.50806	2.12362	1.23565	0.58927	0.39282	0.38674	0.35446	0.44401	0.36264	0.28034	1.61587	1.09484	0.72429
68450	0.13184	0.13489	0.08230	0.61660	0.59927	0.50893	2.11289	1.24024	0.59189	0.39548	0.38798	0.35570	0.44681	0.36671	0.28299	1.62080	1.09608	0.72577	29.20	6.1	0.00	6.68	0.01273	0.01296	0.01642	0.00795	0.00592	0.00648	0.00471	0.01273	0.01690	0.00687	0.00709	0.00892	0.01496	0.01099	0.01201	0.00223	0.00632	0.00884
68610	0.13146	0.13443	0.08011	0.61538	0.59845	0.50584	2.12310	1.23729	0.58978	0.39353	0.38601	0.35382	0.44339	0.36423	0.27950	1.61590	1.09290	0.72290
68770	0.13331	0.13603	0.08408	0.61744	0.60215	0.51041	2.11570	1.24281	0.59295	0.39658	0.38979	0.35705	0.45010	0.36875	0.28571	1.62011	1.09763	0.72741
68940	0.13234	0.13445	0.08129	0.61507	0.59807	0.50718	2.11322	1.23984	0.58952	0.39211	0.38586	0.35368	0.44562	0.36321	0.27934	1.61470	1.09356	0.72212
69100	0.13158	0.13310	0.07954	0.61293	0.59534	0.50460	2.11227	1.23507	0.58863	0.39158	0.38403	0.35169	0.44723	0.36322	0.28142	1.61452	1.09324	0.72283
69260	0.13285	0.13235	0.07646	0.61184	0.59520	0.50389	2.11202	1.23503	0.58889	0.39051	0.38359	0.35151	0.44650	0.36760	0.28329	1.61727	1.09710	0.72681
69430	0.13561	0.13424	0.08001	0.61670	0.59845	0.50789	2.12589	1.23935	0.59158	0.39319	0.38618	0.35443	0.44576	0.36488	0.28389	1.61891	1.09432	0.72380
69590	0.13269	0.13127	0.07714	0.61267	0.59514	0.50398	2.11865	1.23072	0.58686	0.38947	0.38305	0.35115	0.44488	0.36569	0.28319	1.61620	1.09492	0.72435
69750	0.13402	0.13286	0.07991	0.61446	0.59712	0.50618	2.12062	1.23860	0.58966	0.39196	0.38418	0.35327	0.44662	0.36228	0.27787	1.61594	1.09203	0.72237
69920	0.13178	0.13404	0.07846	0.61197	0.59443	0.50410	2.11497	1.23527	0.58538	0.39002	0.38396	0.35112	0.44861	0.36612	0.28170	1.61736	1.09482	0.72596
70080	0.13399	0.13442	0.08126	0.61491	0.59799	0.50700	2.12224	1.23904	0.59262	0.39216	0.38563	0.35366	0.44760	0.36556	0.28038	1.61265	1.09302	0.72334	29.20	6.3	0.00	7.33	0.01273	0.01295	0.01642	0.00795	0.00592	0.00648	0.00471	0.01273	0.01690	0.00687	0.00709	0.00892	0.01496	0.01099	0.01201	0.00223	0.00632	0.00884
70240	0.12949	0.13146	0.07948	0.61201	0.59402	0.50379	2.11386	1.23426	0.58647	0.38932	0.38402	0.35085	0.44866	0.36619	0.28399	1.61793	1.09529	0.72596
70410	0.13539	0.13524	0.08302	0.61556	0.59720	0.50675	2.12005	1.23719	0.59069	0.39139	0.38568	0.35353	0.44683	0.36478	0.28115	1.61514	1.09232	0.72172
70570	0.13159	0.13145	0.07774	0.61119	0.59421	0.50234	2.11062	1.23333	0.58414	0.38895	0.38389	0.35077	0.44617	0.36968	0.28139	1.61866	1.09653	0.72732
70740	0.13582	0.13386	0.08236	0.61621	0.59966	0.50782	2.11780	1.24155	0.59165	0.39326	0.38665	0.35430	0.44716	0.36577	0.28371	1.61501	1.09314	0.72351
70900	0.13162	0.13447	0.08036	0.61557	0.59920	0.50754	2.11749	1.24019	0.59157	0.39334	0.38762	0.35467	0.44771	0.36454	0.28330	1.61613	1.09349	0.72374
71060	0.13399	0.13313	0.07862	0.61304	0.59693	0.50519	2.11293	1.23598	0.58906	0.39051	0.38445	0.35307	0.44253	0.36328	0.28329	1.61342	1.09050	0.72033
71230	0.13247	0.13519	0.08096	0.61577	0.60016	0.50898	2.11332	1.24112	0.59374	0.39490	0.38865	0.35623	0.44714	0.36674	0.28362	1.61853	1.09600	0.72567
71390	0.13561	0.13382	0.07986	0.61464	0.59832	0.50622	2.11574	1.23570	0.59031	0.39197	0.38536	0.35364	0.44556	0.36392	0.28005	1.61411	1.09124	0.72107
71550	0.13316	0.13463	0.08122	0.61390	0.59864	0.50798	2.11574	1.23995	0.59229	0.39308	0.38685	0.35483	0.44660	0.36534	0.28415	1.61780	1.09406	0.72390
71720	0.13373	0.13310	0.07935	0.61280	0.59590	0.50499	2.11787	1.23587	0.58988	0.39093	0.38508	0.35229	0.44449	0.36338	0.28137	1.61295	1.09071	0.71993	29.26	6.2	0.00	7.41	0.01273	0.01296	0.01642	0.00795	0.00592	0.00648	0.00471	0.01273	0.01690	0.00687	0.00709	0.00892	0.01496	0.01099	0.01201	0.00223	0.00632	0.00884
71880	0.13136	0.13106	0.07638	0.61048	0.59415	0.50405	2.11919	1.23425	0.58657	0.38899	0.38341	0.35068	0.44695	0.36721	0.28368	1.61334	1.09510	0.72577
72040	0.13179	0.13324	0.07921	0.61481	0.59764	0.50673	2.11494	1.23861	0.59109	0.39126	0.38601	0.35297	0.44648	0.36412	0.28339	1.61295	1.09113	0.72220
72210	0.13103	0.13249	0.07997	0.61094	0.59426	0.50328	2.11266	1.23609	0.58603	0.38897	0.38386	0.35002	0.44831	0.36846	0.28484	1.61540	1.09619	0.72728
72370	0.13489	0.13694	0.08179	0.61580	0.59845	0.50851	2.12338	1.24258	0.59178	0.39307	0.38728	0.35413	0.44745	0.36712	0.28195	1.61510	1.09398	0.72311
72530	0.13538	0.13701	0.08406	0.61543	0.60033	0.50884	2.12617	1.24301	0.59360	0.39313	0.38785	0.35389	0.44790	0.36694	0.28124	1.61531	1.09467	0.72444
72700	0.13246	0.13676	0.08096	0.61320	0.59647	0.50612	2.10923	1.23573	0.58893	0.38953	0.38446	0.35105	0.44549	0.36243	0.28078	1.61407	1.09067	0.72134
72860	0.13292	0.13310	0.07806	0.61172	0.59519	0.50424	2.11548	1.23547	0.58770	0.38944	0.38382	0.35101	0.44241	0.36246	0.27939	1.61179	1.08945	0.71963
73030	0.13179	0.13309	0.08002	0.61113	0.59566	0.50537	2.11528	1.23663	0.58926	0.39199	0.38585	0.35327	0.44690	0.36284	0.28230	1.61394	1.09204	0.72234
73190	0.13447	0.13312	0.08028	0.61185	0.59661	0.50425	2.11877	1.23862	0.58982	0.39038	0.38552	0.35151	0.44436	0.36286	0.28227	1.61128	1.08989	0.72052
73350	0.12861	0.13296	0.07786	0.61038	0.59628	0.50550	2.11700	1.23654	0.59099	0.39198	0.38742	0.35210	0.44782	0.36805	0.28088	1.61533	1.09286	0.72177	29.32	6.1	0.00	7.38	0.01273	0.01296	0.01642	0.00795	0.00592	0.00648	0.00471	0.01273	0.01690	0.00687	0.00709	0.00892	0.01496	0.01099	0.01201	0.00223	0.00632	0.00884
73520	0.13259	0.13392	0.07744	0.61204	0.59557	0.50452	2.11652	1.23652	0.58718	0.39114	0.38550	0.35118	0.44302	0.36254	0.28049	1.61301	1.08963	0.71917
73680	0.12968	0.13385	0.08144	0.60932	0.59864	0.50654	2.12130	1.24250	0.59295	0.39311	0.38889	0.35499	0.44819	0.36606	0.28308	1.61718	1.09529	0.72468
73840	0.13460	0.13488	0.07867	0.61262	0.59742	0.50463	2.11553	1.23610	0.58880	0.39069	0.38567	0.35175	0.44546	0.36564	0.28399	1.61525	1.09435	0.72336
74010	0.13529	0.13505	0.07993	0.61275	0.59646	0.50446	2.11202	1.23438	0.58706	0.39015	0.38437	0.35183	0.44289	0.36564	0.28076	1.61404	1.09156	0.72197
74170	0.13221	0.13296	0.07846	0.61097	0.59509	0.50331	2.11635	1.23733	0.58802	0.38901	0.38414	0.34967	0.44800	0.36459	0.28429	1.61709	1.09425	0.72400
74330	0.13389	0.13432	0.07969	0.61257	0.59704	0.50576	2.12105	1.23830	0.58900	0.39067	0.38510	0.35228	0.44534	0.36396	0.28221	1.61241	1.09343	0.72197
74500	0.13102	0.13542	0.07827	0.61122	0.59443	0.50365	2.11264	1.23437	0.58779	0.38846	0.38433	0.35044	0.44750	0.36644	0.28726	1.61847	1.09578	0.72590
74660	0.13587	0.13431	0.08160	0.61477	0.59835	0.50744	2.12085	1.23899	0.59147	0.39239	0.38756	0.35432	0.44752	0.36698	0.28348	1.61623	1.09275	0.72311
74830	0.13657	0.13627	0.08213	0.61459	0.59921	0.50778	2.11745	1.23879	0.59216	0.39253	0.38786	0.35449	0.44962	0.36677	0.28328	1.61615	1.09419	0.72432
74990	0.13309	0.13547	0.07920	0.61242	0.59592	0.50417	2.11057	1.23678	0.58848	0.38924	0.38427	0.35095	0.44312	0.36259	0.27886	1.61118	1.09029	0.71983	29.20	6.0	0.00	7.34	0.01273	0.01296	0.01642	0.00795	0.00592	0.00648	0.00471	0.01273	0.01690	0.00687	0.00709	0.00892	0.01496	0.01099	0.01201	0.00223	0.00632	0.00884
75150	0.13204	0.13644	0.07957	0.61333	0.59773	0.50738	2.11704	1.23910	0.59312	0.39226	0.38594	0.35343	0.44823	0.36680	0.28244	1.61457	1.09275	0.72379
75320	0.13316	0.13199	0.07920	0.61203	0.59548	0.50465	2.11256	1.23626	0.58867	0.38998	0.38427	0.35173	0.44656	0.36315	0.28155	1.61118	1.08992	0.71994
75480	0.13470	0.13533	0.08101	0.61285	0.59767	0.50577	2.11909	1.23780	0.59217	0.39264	0.38652	0.35388	0.44705	0.36520	0.28361	1.61363	1.09329	0.72359
75640	0.13389	0.13417	0.07820	0.61136	0.59421	0.50317	2.11107	1.23600	0.59111	0.39037	0.38461	0.35171	0.44722	0.36199	0.27967	1.61105	1.09029	0.72024
75810	0.13237	0.13419	0.07998	0.61296	0.59617	0.50446	2.11650	1.23789	0.59309	0.39250	0.38631	0.35331	0.44473	0.36645	0.28195	1.61470	1.09249	0.72194
75970	0.13061	0.13298	0.07927	0.61159	0.59393	0.50194	2.12267	1.23502	0.59026	0.38969	0.38441	0.35101	0.44395	0.36116	0.28098	1.60972	1.08883	0.71914
76130	0.12873	0.13129	0.07698	0.60763	0.59227	0.50054	2.11377	1.23229	0.58648	0.38826	0.38196	0.34946	0.44869	0.36690	0.28493	1.61380	1.09431	0.72458
76300	0.13350	0.13566	0.07882	0.61298	0.59643	0.50417	2.12393	1.24058	0.59003	0.39111	0.38523	0.35170	0.44725	0.36513	0.28578	1.61410	1.09426	0.72330
76460	0.13355	0.13561	0.08191	0.61316	0.59695	0.50558	2.11940	1.23866	0.59194	0.39206	0.38721	0.35297	0.44758	0.36378	0.28111	1.61423	1.09245	0.72182
76620	0.13185	0.13414	0.07826	0.60971	0.59321	0.50212	2.11800	1.23581	0.58739	0.38863	0.38204	0.34984	0.44604	0.36402	0.28040	1.61524	1.09357	0.72339	29.26	6.0	0.00	7.36	0.01273	0.01296	0.01642	0.00795	0.00592	0.00648	0.00471	0.01273	0.01690	0.00687	0.00709	0.00892	0.01496	0.01099	0.01201	0.00223	0.00632	0.00884
76790	0.13267	0.13421	0.08117	0.61308	0.59644	0.50547	2.12337	1.23814	0.59076	0.39161	0.38444	0.35265	0.44829	0.36627	0.28402	1.61099	1.09082	0.72125
76950	0.13119	0.13302	0.07810	0.61078	0.59422	0.50328	2.12180	1.23803	0.58983	0.38972	0.38241	0.35041	0.44516	0.36694	0.28268	1.61125	1.09252	0.72271
77110	0.13374	0.13576	0.07885	0.61164	0.59650	0.50447	2.11538	1.23868	0.59090	0.39045	0.38370	0.35176	0.44578	0.36485	0.27899	1.60957	1.09045	0.72027
77280	0.13401	0.13235	0.07842	0.60895	0.59289	0.50221	2.11960	1.23551	0.58728	0.38902	0.38256	0.35014	0.44798	0.36728	0.28554	1.61460	1.09487	0.72411
77440	0.13352	0.13702	0.08106	0.61366	0.59767	0.50617	2.11960	1.24164	0.59182	0.39140	0.38519	0.35273	0.44527	0.36579	0.28275	1.61284	1.09227	0.72205
77600	0.13193	0.13232	0.07869	0.61052	0.59431	0.50309	2.11470	1.23685	0.58856	0.38924	0.38234	0.35016	0.44685	0.36679	0.28567	1.61529	1.09525	0.72507
77770	0.13419	0.13568	0.08092	0.61391	0.59696	0.50635	2.12436	1.23980	0.59107	0.39242	0.38459	0.35304	0.44686	0.36585	0.28276	1.61151	1.09195	0.72200
77930	0.13182	0.13201	0.07893	0.61044	0.59340	0.50216	2.11214	1.23661	0.58762	0.38967	0.38286	0.34970	0.44665	0.36715	0.28626	1.61395	1.09595	0.72621
78100	0.13646	0.13792	0.08230	0.61514	0.59762	0.50594	2.11496	1.24118	0.59321	0.39330	0.38611	0.35315	0.44633	0.36755	0.28655	1.61224	1.09303	0.72305
78260	0.13498	0.13435	0.08180	0.61473	0.59849	0.50605	2.11669	1.23992	0.59194	0.39406	0.38594	0.35341	0.44893	0.36762	0.28402	1.61322	1.09315	0.72347	29.26	6.1	0.00	7.46	0.01273	0.01296	0.01642	0.00795	0.00592	0.00648	0.00471	0.01273	0.01690	0.00687	0.00709	0.00892	0.01496	0.01099	0.01201	0.00223	0.00632	0.00884
78420	0.13336	0.13581	0.07947	0.61323	0.59702	0.50544	2.11303	1.23653	0.58981	0.39274	0.38515	0.35183	0.44573	0.36246	0.28347	1.61099	1.09182	0.72058
78590	0.13123	0.13677	0.08072	0.61274	0.59762	0.50616	2.12215	1.24256	0.59122	0.39336	0.38622	0.35349	0.44925	0.36643	0.28395	1.61442	1.09204	0.72296
78750	0.13307	0.13351	0.07876	0.61195	0.59588	0.50482	2.11219	1.23648	0.58778	0.39001	0.38311	0.35093	0.44204	0.36362	0.27953	1.61077	1.08873	0.71934
78910	0.13252	0.13145	0.07938	0.61122	0.59658	0.50440	2.11185	1.23981	0.59168	0.39222	0.38517	0.35258	0.44603	0.36639	0.28171	1.61099	1.09135	0.72205
79080	0.13137	0.13319	0.07759	0.61102	0.59506	0.50410	2.11362	1.23454	0.59115	0.39085	0.38357	0.35130	0.44431	0.36648	0.28048	1.61210	1.09066	0.72023
79240	0.13226	0.13438	0.08234	0.61332	0.59859	0.50706	2.11534	1.24102	0.59117	0.39392	0.38637	0.35351	0.44869	0.36612	0.28350	1.61464	1.09292	0.72338
79400	0.13296	0.13503	0.07990	0.61182	0.59623	0.50481	2.10811	1.23695	0.58841	0.39049	0.38334	0.35154	0.44592	0.36372	0.28235	1.61099	1.08988	0.72010
79570	0.13545	0.13584	0.08157	0.61426	0.59860	0.50748	2.12288	1.24184	0.59352	0.39399	0.38510	0.35494	0.45023	0.36964	0.28612	1.61507	1.09478	0.72500
79730	0.13212	0.13345	0.07948	0.61288	0.59644	0.50384	2.11984	1.23624	0.58983	0.39014	0.38205	0.35136	0.44525	0.36469	0.28148	1.61056	1.08920	0.71996
79890	0.13301	0.13391	0.08199	0.61123	0.59691	0.50630	2.11660	1.23648	0.59095	0.39169	0.38479	0.35177	0.44858	0.36838	0.28674	1.61651	1.09289	0.72319	29.26	6.1	0.00	7.35	0.01273	0.01295	0.01642	0.00795	0.00592	0.00648	0.00471	0.01273	0.01690	0.00687	0.00709	0.00892	0.01496	0.01099	0.01201	0.00223	0.00632	0.00884
80060	0.13301	0.13569	0.07773	0.61031	0.59547	0.50361	2.11075	1.23695	0.58911	0.39022	0.38370	0.35108	0.44850	0.36790	0.28408	1.61411	1.09308	0.72338
80220	0.13375	0.13387	0.07893	0.61092	0.59617	0.50483	2.11570	1.23873	0.59025	0.39163	0.38374	0.35245	0.44623	0.36612	0.28234	1.61445	1.09165	0.72122
80380	0.13217	0.13444	0.07961	0.61025	0.59394	0.50363	2.10932	1.23540	0.58669	0.38988	0.38376	0.35123	0.44460	0.36503	0.27985	1.61102	1.09042	0.72019
80550	0.13080	0.13275	0.08020	0.60899	0.59567	0.50587	2.11745	1.24098	0.59158	0.39323	0.38602	0.35301	0.44887	0.36733	0.28431	1.61595	1.09414	0.72400
80710	0.13353	0.13484	0.07935	0.61080	0.59447	0.50365	2.11511	1.23879	0.58880	0.39089	0.38238	0.35072	0.44640	0.36367	0.28225	1.61144	1.08943	0.72067
80870	0.13018	0.13224	0.07933	0.60921	0.59566	0.50594	2.11719	1.23577	0.59235	0.39330	0.38655	0.35324	0.44795	0.36774	0.28422	1.61694	1.09407	0.72385
81040	0.13296	0.13415	0.07936	0.61054	0.59472	0.50365	2.11970	1.23576	0.58906	0.39036	0.38378	0.35130	0.44686	0.36545	0.28250	1.61157	1.08989	0.72032
81200	0.13107	0.13442	0.08121	0.60916	0.59553	0.50609	2.12508	1.24327	0.59381	0.39331	0.38717	0.35443	0.45047	0.36972	0.28484	1.61845	1.09558	0.72478
81360	0.13452	0.13646	0.07930	0.61267	0.59631	0.50478	2.11292	1.23729	0.59033	0.39114	0.38407	0.35244	0.44712	0.36449	0.28494	1.61295	1.09151	0.72070
81530	0.13378	0.13621	0.08250	0.61380	0.59882	0.50685	2.11506	1.24198	0.59591	0.39473	0.38684	0.35533	0.45243	0.37046	0.28268	1.61812	1.09600	0.72431	29.26	6.2	0.00	7.38	0.01273	0.01295	0.01642	0.00795	0.00592	0.00648	0.00471	0.01273	0.01690	0.00687	0.00709	0.00892	0.01496	0.01099	0.01201	0.00223	0.00632	0.00884
81690	0.13286	0.13521	0.08052	0.61252	0.59586	0.50462	2.11503	1.23692	0.58983	0.39176	0.38445	0.35279	0.44627	0.36480	0.28177	1.61356	1.09085	0.72006
81850	0.13467	0.13409	0.08171	0.61152	0.59643	0.50518	2.11295	1.23733	0.59102	0.39248	0.38460	0.35339	0.44617	0.36799	0.28144	1.61532	1.09239	0.72127
82010	0.13166	0.13419	0.07814	0.60983	0.59402	0.50260	2.10055	1.23646	0.58698	0.39026	0.38264	0.35147	0.44509	0.36456	0.28053	1.61232	1.09102	0.71997
82180	0.13226	0.13022	0.07744	0.60832	0.59280	0.50086	2.11829	1.23644	0.58631	0.38772	0.38170	0.34942	0.44456	0.36786	0.28367	1.61373	1.09329	0.72303
82340	0.13449	0.13487	0.08006	0.61076	0.59543	0.50327	2.11016	1.23578	0.58854	0.39059	0.38334	0.35130	0.44819	0.36826	0.28445	1.61335	1.09220	0.72151
82510	0.13387	0.13337	0.07827	0.60950	0.59389	0.50243	2.10929	1.23355	0.58738	0.38922	0.38264	0.35002	0.44657	0.36903	0.28494	1.61489	1.09467	0.72481
82670	0.13617	0.13569	0.08196	0.61264	0.59715	0.50457	2.11261	1.24094	0.59109	0.39211	0.38421	0.35263	0.44975	0.36585	0.28246	1.61296	1.09130	0.71986
82830	0.13441	0.13526	0.08065	0.61170	0.59602	0.50441	2.11342	1.24021	0.58943	0.39156	0.38418	0.35250	0.44736	0.36526	0.28283	1.61064	1.08973	0.72070
83000	0.13389	0.13244	0.07949	0.60946	0.59509	0.50296	2.10887	1.23943	0.59013	0.39064	0.38348	0.35105	0.44767	0.36513	0.28384	1.61034	1.09004	0.71949
83160	0.13444	0.13692	0.08186	0.61201	0.59762	0.50539	2.12123	1.24291	0.59144	0.39263	0.38641	0.35393	0.44918	0.36683	0.28461	1.61542	1.09295	0.72146	29.26	6.2	0.00	7.40	0.01273	0.01295	0.01642	0.00795	0.00592	0.00648	0.00471	0.01273	0.01690	0.00687	0.00709	0.00892	0.01496	0.01099	0.01201	0.00223	0.00632	0.00884
83320	0.13424	0.13331	0.07845	0.61087	0.59499	0.50275	2.10902	1.23686	0.58849	0.38892	0.38302	0.35075	0.44539	0.36566	0.28229	1.61306	1.09114	0.72034
83490	0.13330	0.13376	0.07927	0.61060	0.59528	0.50326	2.11656	1.23648	0.58846	0.38988	0.38508	0.35150	0.44467	0.36508	0.28258	1.60906	1.08866	0.71867
83650	0.13321	0.13259	0.07891	0.60824	0.59287	0.50058	2.10669	1.23647	0.58702	0.38702	0.38249	0.35015	0.44572	0.36603	0.28276	1.61087	1.09086	0.72046
83820	0.13340	0.13618	0.08068	0.61084	0.59615	0.50287	2.11462	1.23731	0.59005	0.39048	0.38479	0.35154	0.44954	0.36455	0.28311	1.61211	1.08994	0.71940
83980	0.13311	0.13464	0.08087	0.60990	0.59576	0.50229	2.11448	1.23978	0.58911	0.38952	0.38410	0.35169	0.44487	0.36688	0.28085	1.61361	1.09061	0.71883
84140	0.13305	0.13366	0.07937	0.60964	0.59390	0.50184	2.11212	1.23594	0.58602	0.38829	0.38339	0.35042	0.44928	0.36677	0.28407	1.61430	1.09349	0.72295
84310	0.13591	0.13513	0.08052	0.61250	0.59740	0.50525	2.11828	1.24212	0.59263	0.39125	0.38549	0.35338	0.44797	0.36633	0.28106	1.61477	1.09197	0.72041
84470	0.13555	0.13454	0.07828	0.60953	0.59437	0.50188	2.10925	1.23707	0.58809	0.38801	0.38343	0.35039	0.44910	0.36742	0.28564	1.61731	1.09454	0.72511
84630	0.13586	0.13691	0.08181	0.61415	0.59909	0.50683	2.11490	1.24131	0.59183	0.39219	0.38679	0.35379	0.45040	0.36900	0.28240	1.61593	1.09329	0.72192
84800	0.13469	0.13257	0.08001	0.61018	0.59575	0.50450	2.11584	1.24065	0.58981	0.39065	0.38376	0.35281	0.44666	0.36813	0.28219	1.61336	1.09175	0.72071	29.20	6.2	0.00	7.39	0.01273	0.01295	0.01642	0.00795	0.00592	0.00648	0.00471	0.01273	0.01690	0.00687	0.00709	0.00892	0.01496	0.01099	0.01201	0.00223	0.00632	0.00884
84960	0.13288	0.13215	0.07850	0.60911	0.59349	0.50257	2.11027	1.23489	0.58794	0.38792	0.38328	0.35068	0.44463	0.36412	0.28017	1.61241	1.08895	0.71896
85120	0.13072	0.13309	0.07717	0.60803	0.59230	0.50070	2.10333	1.23650	0.58693	0.38737	0.38208	0.35004	0.44867	0.36936	0.28738	1.61662	1.09512	0.72519
85290	0.13626	0.13567	0.08083	0.61418	0.59717	0.50541	2.10530	1.24212	0.58941	0.39140	0.38606	0.35361	0.44872	0.36738	0.28314	1.61383	1.09159	0.72104
85450	0.13348	0.13449	0.08159	0.61174	0.59593	0.50407	2.11171	1.24207	0.59063	0.39083	0.38550	0.35288	0.44592	0.36677	0.28322	1.61245	1.09107	0.72024
85620	0.13339	0.13504	0.08146	0.60944	0.59550	0.50277	2.11311	1.23804	0.58878	0.39083	0.38560	0.35146	0.44828	0.36308	0.28181	1.61310	1.08960	0.71883
85780	0.13478	0.13630	0.08113	0.61212	0.59702	0.50539	2.11469	1.24147	0.59308	0.39205	0.38750	0.35387	0.44948	0.36791	0.28331	1.61520	1.09222	0.72230
85940	0.13374	0.13325	0.07880	0.61087	0.59564	0.50295	2.11688	1.23907	0.58957	0.38918	0.38406	0.35154	0.44533	0.36435	0.28211	1.60966	1.08845	0.71811
86110	0.13488	0.13600	0.08273	0.61148	0.59734	0.50466	2.12409	1.24302	0.59242	0.39231	0.38683	0.35388	0.44998	0.36777	0.28210	1.61430	1.09336	0.72257
86270	0.13470	0.13395	0.08153	0.61172	0.59523	0.50369	2.12096	1.23610	0.59103	0.39001	0.38406	0.35149	0.44501	0.36419	0.28036	1.61082	1.08914	0.71918
86430	0.13410	0.13567	0.08148	0.61095	0.59620	0.50451	2.11840	1.24096	0.59131	0.39177	0.38579	0.35313	0.44577	0.36856	0.28186	1.61326	1.09140	0.72018	29.26	6.1	0.00	7.36	0.01273	0.01295	0.01642	0.00795	0.00592	0.00648	0.00471	0.01273	0.01690	0.00687	0.00709	0.00892	0.01496	0.01099	0.01201	0.00223	0.00632	0.00884
86600	0.13058	0.13369	0.07916	0.60963	0.59374	0.50135	2.11213	1.23948	0.58796	0.38883	0.38399	0.35067	0.44267	0.36283	0.28103	1.60991	1.08802	0.71762
86760	0.13121	0.13158	0.07648	0.60667	0.59184	0.50094	2.10777	1.23276	0.58506	0.38639	0.38161	0.34984	0.44875	0.36891	0.28778	1.61549	1.09504	0.72355
86920	0.13432	0.13620	0.08044	0.61207	0.59687	0.50582	2.11399	1.23919	0.59008	0.39047	0.38506	0.35244	0.44774	0.36735	0.28525	1.61309	1.09003	0.72006
87090	0.13381	0.13687	0.08138	0.61196	0.59655	0.50528	2.11230	1.24018	0.59328	0.39050	0.38568	0.35375	0.44766	0.36852	0.28463	1.61352	1.09163	0.72126
87250	0.13237	0.13323	0.07859	0.61033	0.59433	0.50258	2.11686	1.23750	0.58924	0.38887	0.38290	0.35074	0.44415	0.36308	0.28041	1.61034	1.08697	0.71829
87410	0.13250	0.13414	0.08006	0.61163	0.59637	0.50481	2.12603	1.23994	0.59261	0.39023	0.38565	0.35374	0.44803	0.36616	0.28460	1.61253	1.09160	0.72122
87580	0.13005	0.13353	0.08074	0.60937	0.59478	0.50316	2.11511	1.23959	0.58910	0.38981	0.38418	0.35139	0.44591	0.36753	0.28449	1.61266	1.09166	0.72176
87740	0.13305	0.13528	0.08187	0.61109	0.59640	0.50469	2.12085	1.24189	0.59210	0.39173	0.38518	0.35348	0.44825	0.36654	0.28167	1.61313	1.09057	0.72031
87900	0.13087	0.13539	0.07950	0.60942	0.59280	0.50156	2.11860	1.23668	0.58882	0.38870	0.38216	0.34984	0.44688	0.36644	0.28505	1.61202	1.09129	0.72127
88070	0.13299	0.13304	0.07912	0.61128	0.59481	0.50350	2.11469	1.23995	0.58998	0.39012	0.38317	0.35215	0.44518	0.36699	0.28287	1.61365	1.08985	0.72003	29.26	6.2	0.00	7.35	0.01273	0.01295	0.01642	0.00795	0.00592	0.00648	0.00471	0.01273	0.01690	0.00687	0.00709	0.00892	0.01496	0.01099	0.01201	0.00223	0.00632	0.00884
88230	0.13135	0.13414	0.07922	0.60920	0.59421	0.50204	2.11618	1.23378	0.58817	0.38815	0.38280	0.35047	0.44880	0.36613	0.28462	1.61554	1.09057	0.72040
88390	0.13417	0.13549	0.08087	0.61106	0.59514	0.50299	2.10814	1.23709	0.58937	0.38997	0.38454	0.35127	0.44848	0.36339	0.28207	1.61249	1.08902	0.71908
88560	0.13289	0.13246	0.08026	0.60858	0.59302	0.50120	2.10923	1.23804	0.58776	0.38849	0.38343	0.34994	0.44864	0.36649	0.28246	1.61670	1.09232	0.72254
88720	0.13523	0.13406	0.07931	0.61185	0.59675	0.50393	2.11098	1.23828	0.58982	0.39052	0.38629	0.35344	0.44969	0.36532	0.28310	1.61468	1.09014	0.71992
88890	0.13378	0.13321	0.08159	0.61089	0.59563	0.50336	2.11961	1.23847	0.59200	0.39087	0.38581	0.35272	0.44775	0.36801	0.28404	1.61129	1.09016	0.71955
89050	0.13296	0.13278	0.07874	0.60997	0.59442	0.50302	2.11221	1.23580	0.58948	0.39057	0.38415	0.35171	0.44749	0.36384	0.28355	1.61241	1.08893	0.71909
89210	0.13269	0.13400	0.08104	0.61074	0.59618	0.50457	2.11961	1.23921	0.59059	0.39114	0.38504	0.35303	0.44837	0.36650	0.28423	1.61511	1.09164	0.72060
89380	0.13241	0.13404	0.07829	0.60990	0.59455	0.50329	2.11064	1.23734	0.58986	0.38932	0.38315	0.35114	0.44643	0.36265	0.28079	1.61086	1.08806	0.71780
89540	0.13316	0.13583	0.08136	0.61087	0.59684	0.50564	2.12094	1.24139	0.59247	0.39232	0.38732	0.35368	0.44992	0.36699	0.28246	1.61704	1.09143	0.72081
89700	0.13649	0.13333	0.07836	0.60988	0.59319	0.50280	2.11990	1.23483	0.58799	0.38859	0.38209	0.35099	0.44521	0.36267	0.28063	1.61275	1.08611	0.71685	29.26	6.0	0.00	7.37	0.01273	0.01295	0.01642	0.00795	0.00592	0.00648	0.00471	0.01273	0.01690	0.00687	0.00709	0.00892	0.01496	0.01099	0.01201	0.00223	0.00632	0.00884
89870	0.13386	0.13616	0.08147	0.61150	0.59683	0.50590	2.12629	1.24055	0.59266	0.39284	0.38556	0.35388	0.44808	0.36842	0.28604	1.61971	1.09183	0.72216
90030	0.13271	0.13460	0.08049	0.61044	0.59402	0.50266	2.11320	1.24169	0.59059	0.38961	0.38195	0.35028	0.44497	0.36575	0.27942	1.61340	1.08742	0.71751
90190	0.13320	0.13659	0.08163	0.61116	0.59519	0.50473	2.12386	1.23895	0.59289	0.39136	0.38462	0.35205	0.44546	0.36534	0.28219	1.61533	1.09077	0.72128
90360	0.13284	0.13162	0.08159	0.60996	0.59324	0.50215	2.11590	1.23883	0.58890	0.38954	0.38139	0.35015	0.44334	0.36288	0.28248	1.61284	1.08602	0.71703
90520	0.12959	0.13357	0.07730	0.60616	0.59108	0.49914	2.11548	1.23535	0.58601	0.38751	0.38031	0.34834	0.44624	0.36835	0.28477	1.61597	1.09180	0.72284
90680	0.13513	0.13510	0.08075	0.61071	0.59494	0.50334	2.12662	1.23777	0.58925	0.39037	0.38236	0.35047	0.44564	0.36537	0.27665	1.61447	1.08811	0.71788
90850	0.13233	0.13062	0.07855	0.60661	0.59129	0.49962	2.11596	1.23511	0.58621	0.38713	0.37927	0.34767	0.44934	0.36926	0.28432	1.61834	1.09304	0.72369
91010	0.13650	0.13468	0.07986	0.61220	0.59521	0.50347	2.12156	1.24059	0.59114	0.39102	0.38415	0.35158	0.44596	0.36578	0.28140	1.61572	1.08954	0.71927
91170	0.13554	0.13339	0.08029	0.61043	0.59544	0.50447	2.12139	1.24041	0.59186	0.39049	0.38462	0.35193	0.44904	0.36606	0.28301	1.61842	1.09026	0.72051
91340	0.13380	0.13405	0.07960	0.60861	0.59372	0.50050	2.12104	1.23676	0.58908	0.38971	0.38248	0.35001	0.44579	0.36586	0.28440	1.61632	1.09060	0.72097	29.26	6.0	0.00	7.36	0.01273	0.01295	0.01642	0.00795	0.00592	0.00648	0.00471	0.01273	0.01690	0.00687	0.00709	0.00892	0.01496	0.01099	0.01201	0.00223	0.00632	0.00884
91500	0.13182	0.13564	0.08217	0.61125	0.59513	0.50287	2.11445	1.23941	0.59150	0.39099	0.38515	0.35218	0.44537	0.36779	0.28184	1.61568	1.09034	0.71941
91660	0.13095	0.13271	0.07891	0.60799	0.59201	0.50005	2.11614	1.23603	0.58732	0.38720	0.38118	0.34900	0.44477	0.36064	0.27846	1.61126	1.08554	0.71543
91830	0.12988	0.13078	0.08009	0.60651	0.59447	0.50403	2.12191	1.24189	0.59283	0.39212	0.38500	0.35279	0.44778	0.36637	0.28447	1.61890	1.09166	0.72193
91990	0.13478	0.13295	0.07904	0.60907	0.59331	0.50159	2.11206	1.23694	0.58839	0.38925	0.38256	0.34998	0.44279	0.36546	0.28064	1.61379	1.08675	0.71683
92150	0.12995	0.13201	0.08110	0.60703	0.59365	0.50290	2.11794	1.24071	0.59220	0.39083	0.38543	0.35227	0.44793	0.36671	0.28182	1.61748	1.09065	0.72017
92320	0.13287	0.13485	0.07815	0.60805	0.59359	0.50032	2.11664	1.23524	0.58940	0.38809	0.38237	0.34939	0.44363	0.36482	0.27995	1.61362	1.08723	0.71668
92480	0.12984	0.13282	0.08147	0.60651	0.59430	0.50330	2.11470	1.24097	0.59162	0.39097	0.38573	0.35266	0.44816	0.36594	0.28576	1.61662	1.09129	0.72125
92640	0.13356	0.13567	0.07821	0.60932	0.59324	0.50153	2.11003	1.23513	0.58926	0.38790	0.38270	0.34963	0.44454	0.36372	0.28141	1.61229	1.08803	0.71724
92810	0.13498	0.13438	0.08235	0.61136	0.59595	0.50499	2.12044	1.24070	0.59225	0.39141	0.38569	0.35298	0.44666	0.36810	0.28425	1.61782	1.09217	0.72210
92970	0.13442	0.13354	0.07940	0.61042	0.59323	0.50196	2.10624	1.23783	0.58858	0.38923	0.38268	0.35070	0.44568	0.36391	0.28000	1.61306	1.08695	0.71750	29.20	6.0	0.00	7.47	0.01273	0.01295	0.01642	0.00795	0.00592	0.00648	0.00471	0.01273	0.01690	0.00687	0.00709	0.00892	0.01496	0.01099	0.01201	0.00223	0.00632	0.00884
93130	0.13313	0.13520	0.08448	0.61178	0.59600	0.50515	2.12498	1.24033	0.59338	0.39339	0.38674	0.35360	0.44904	0.36659	0.28720	1.61830	1.09279	0.72128
93300	0.13501	0.13491	0.07977	0.60972	0.59291	0.50173	2.11828	1.23892	0.58732	0.39027	0.38264	0.34997	0.44365	0.36278	0.28231	1.61353	1.08802	0.71619
93460	0.13297	0.13467	0.08112	0.61108	0.59470	0.50392	2.12154	1.24125	0.59331	0.39165	0.38584	0.35318	0.44793	0.36685	0.28154	1.61821	1.09128	0.72009
93620	0.13112	0.13280	0.07980	0.60954	0.59257	0.50041	2.11805	1.23642	0.58868	0.38844	0.38323	0.35006	0.44349	0.36255	0.28043	1.61310	1.08661	0.71543
93790	0.13288	0.13560	0.07951	0.61052	0.59393	0.50302	2.11169	1.23725	0.59171	0.39017	0.38611	0.35217	0.44807	0.36456	0.28342	1.61624	1.09037	0.71857
93950	0.13223	0.13220	0.07969	0.60848	0.59352	0.50061	2.11324	1.23882	0.58826	0.38922	0.38390	0.35025	0.44644	0.36275	0.28166	1.61349	1.08775	0.71818
94110	0.13135	0.13301	0.07835	0.60640	0.58960	0.49863	2.11200	1.23630	0.58630	0.38717	0.38210	0.34844	0.44672	0.36778	0.28522	1.61847	1.09300	0.72254
94280	0.13545	0.13640	0.08010	0.61205	0.59608	0.50292	2.12453	1.24040	0.59154	0.39111	0.38565	0.35155	0.44546	0.36444	0.28244	1.61443	1.08997	0.71909
94440	0.13285	0.13478	0.07967	0.61042	0.59504	0.50275	2.11929	1.23853	0.59141	0.39150	0.38628	0.35228	0.44861	0.36674	0.28508	1.61439	1.09057	0.71994
94600	0.13276	0.13342	0.07990	0.60868	0.59302	0.50204	2.12140	1.23789	0.58966	0.38837	0.38188	0.35043	0.44429	0.36293	0.27904	1.60987	1.08728	0.71731	29.26	6.0	0.00	7.36	0.01273	0.01295	0.01642	0.00795	0.00592	0.00648	0.00471	0.01273	0.01690	0.00687	0.00709	0.00892	0.01496	0.01099	0.01201	0.00223	0.00631	0.00884
94770	0.13344	0.13439	0.08045	0.61011	0.59608	0.50510	2.12045	1.24092	0.59204	0.38970	0.38547	0.35313	0.44761	0.36568	0.28322	1.61421	1.09149	0.72152
94930	0.13381	0.13349	0.07895	0.60958	0.59330	0.50184	2.11963	1.23580	0.58777	0.38785	0.38164	0.34992	0.44419	0.36302	0.28115	1.60802	1.08585	0.71714
95090	0.13549	0.13529	0.08017	0.60956	0.59569	0.50463	2.11831	1.24376	0.59291	0.38964	0.38574	0.35225	0.44698	0.36640	0.28241	1.61352	1.09065	0.72142
95260	0.13514	0.13343	0.07890	0.60867	0.59380	0.50173	2.12123	1.24003	0.58975	0.38763	0.38281	0.34989	0.44597	0.36652	0.28267	1.61228	1.09048	0.72160
95420	0.13470	0.13576	0.07928	0.61111	0.59605	0.50454	2.12025	1.24105	0.59207	0.39040	0.38479	0.35278	0.44711	0.36738	0.28454	1.60966	1.09071	0.72077
95580	0.13271	0.13294	0.07889	0.60929	0.59355	0.50075	2.11496	1.23607	0.58753	0.38754	0.38218	0.35022	0.44476	0.36024	0.27934	1.60918	1.08709	0.71685
95750	0.13164	0.13438	0.08075	0.60769	0.59559	0.50428	2.12560	1.24104	0.59451	0.39163	0.38666	0.35476	0.44922	0.36872	0.28500	1.61528	1.09237	0.72254
95910	0.13343	0.13679	0.08134	0.61074	0.59472	0.50301	2.11420	1.23759	0.58842	0.38950	0.38448	0.35156	0.44659	0.36467	0.28166	1.61009	1.08745	0.71857
96070	0.13224	0.13369	0.07976	0.60823	0.59537	0.50283	2.11912	1.24189	0.59048	0.39047	0.38654	0.35284	0.44805	0.36505	0.28301	1.61344	1.08977	0.71968
96240	0.13219	0.13208	0.07850	0.60932	0.59511	0.50212	2.11416	1.23807	0.58903	0.38884	0.38398	0.35125	0.44704	0.36451	0.28145	1.61265	1.08878	0.71861	29.26	6.3	0.00	7.33	0.01273	0.01295	0.01642	0.00795	0.00592	0.00648	0.00471	0.01273	0.01690	0.00687	0.00709	0.00892	0.01496	0.01099	0.01201	0.00223	0.00632	0.00884
96400	0.13169	0.13265	0.07828	0.60898	0.59300	0.50104	2.11432	1.23403	0.58791	0.38719	0.38275	0.35093	0.44682	0.36780	0.28418	1.61565	1.09348	0.72357
96560	0.13681	0.13590	0.08174	0.61444	0.59860	0.50698	2.11613	1.24232	0.59321	0.39202	0.38681	0.35429	0.44788	0.36731	0.28279	1.61621	1.09271	0.72121
96720	0.13240	0.13374	0.07759	0.61076	0.59507	0.50226	2.10994	1.23617	0.58796	0.38857	0.38402	0.35106	0.44584	0.36625	0.28368	1.61591	1.09344	0.72362
96890	0.13470	0.13546	0.07928	0.61350	0.59797	0.50487	2.12406	1.23817	0.59151	0.39125	0.38614	0.35416	0.44749	0.36739	0.27955	1.61355	1.09038	0.72031
97050	0.13168	0.13193	0.07869	0.60971	0.59376	0.50198	2.10988	1.23600	0.58585	0.38754	0.38304	0.35141	0.44714	0.36562	0.28424	1.61415	1.09107	0.72162
97210	0.13374	0.13349	0.07896	0.61193	0.59603	0.50401	2.11337	1.23947	0.58765	0.39019	0.38425	0.35332	0.44481	0.36276	0.28353	1.61316	1.08949	0.71994
97380	0.13219	0.13199	0.07887	0.60922	0.59300	0.50288	2.11081	1.23576	0.58674	0.38814	0.38294	0.35155	0.44764	0.36560	0.28103	1.61299	1.09274	0.72275
97540	0.13315	0.13383	0.08080	0.61211	0.59549	0.50525	2.11261	1.23890	0.58915	0.38985	0.38449	0.35292	0.44505	0.36421	0.28140	1.61282	1.09061	0.72091
97710	0.13312	0.13372	0.07847	0.61089	0.59424	0.50387	2.11463	1.23538	0.58725	0.38863	0.38320	0.35112	0.44923	0.36747	0.28625	1.61625	1.09460	0.72518
97870	0.13652	0.13455	0.08219	0.61543	0.59816	0.50717	2.11749	1.24150	0.59178	0.39046	0.38474	0.35408	0.44923	0.36514	0.28415	1.61420	1.08990	0.72144	29.26	6.0	0.00	7.50	0.01273	0.01295	0.01642	0.00795	0.00592	0.00648	0.00471	0.01273	0.01690	0.00687	0.00709	0.00892	0.01496	0.01099	0.01201	0.00223	0.00631	0.00884
98030	0.13363	0.13501	0.08166	0.61368	0.59734	0.50742	2.11625	1.24218	0.59217	0.39152	0.38514	0.35509	0.44746	0.36936	0.28222	1.61708	1.09195	0.72240
98200	0.13226	0.13284	0.07931	0.61060	0.59371	0.50365	2.11766	1.23663	0.58947	0.38989	0.38317	0.35294	0.44436	0.36369	0.28104	1.61223	1.08877	0.71989
98360	0.13511	0.13635	0.08119	0.61399	0.59748	0.50757	2.12236	1.24199	0.59468	0.39253	0.38701	0.35559	0.44797	0.36619	0.28421	1.61541	1.09306	0.72414
98520	0.13286	0.13247	0.07826	0.61241	0.59552	0.50448	2.10736	1.23867	0.58994	0.38960	0.38398	0.35215	0.44480	0.36477	0.28305	1.61244	1.08832	0.71905
98690	0.13192	0.13485	0.08143	0.61326	0.59871	0.50714	2.11898	1.24427	0.59345	0.39383	0.38615	0.35597	0.44772	0.36728	0.28517	1.61807	1.09314	0.72320
98850	0.13184	0.13267	0.08023	0.61194	0.59545	0.50432	2.11321	1.23662	0.58929	0.39003	0.38290	0.35314	0.44327	0.36414	0.27675	1.61107	1.08944	0.71980
99010	0.13182	0.13319	0.07594	0.60829	0.59191	0.50219	2.11535	1.23544	0.58643	0.38869	0.38165	0.35123	0.44622	0.36627	0.28534	1.61635	1.09408	0.72598
99180	0.13597	0.13752	0.07925	0.61422	0.59685	0.50617	2.10739	1.24192	0.59286	0.39251	0.38519	0.35487	0.44592	0.36713	0.28140	1.61820	1.09210	0.72314
99340	0.13087	0.13562	0.08162	0.61262	0.59550	0.50579	2.11718	1.23879	0.59126	0.39076	0.38304	0.35406	0.44709	0.36547	0.28166	1.61635	1.09033	0.72129
99500	0.13347	0.13005	0.07862	0.61052	0.59350	0.50277	2.12342	1.23681	0.58805	0.38939	0.38203	0.35135	0.44313	0.36199	0.27802	1.60893	1.08758	0.71893	29.26	6.3	0.00	7.39	0.01273	0.01295	0.01642	0.00795	0.00592	0.00648	0.00471	0.01273	0.01690	0.00687	0.00709	0.00892	0.01496	0.01099	0.01201	0.00223	0.00632	0.00884
99670	0.12991	0.13220	0.08089	0.60918	0.59554	0.50682	2.12091	1.24318	0.59465	0.39409	0.38580	0.35601	0.44822	0.36722	0.28557	1.61641	1.09561	0.72557
99830	0.13368	0.13484	0.08027	0.61295	0.59539	0.50588	2.11745	1.23893	0.59086	0.39172	0.38297	0.35270	0.44558	0.36341	0.28000	1.61276	1.08976	0.72148
99990	0.13076	0.13253	0.08178	0.60958	0.59571	0.50615	2.12420	1.24392	0.59555	0.39413	0.38476	0.35531	0.44719	0.36583	0.28348	1.61559	1.09387	0.72463
100160	0.13429	0.13370	0.07962	0.61217	0.59430	0.50380	2.12240	1.23886	0.59097	0.39143	0.38306	0.35255	0.44486	0.36199	0.28004	1.61190	1.08962	0.72045
100320	0.13158	0.13409	0.08027	0.60958	0.59572	0.50623	2.11824	1.24206	0.59479	0.39330	0.38571	0.35449	0.44545	0.36503	0.28170	1.61675	1.09242	0.72335
100480	0.13297	0.13394	0.08080	0.61128	0.59414	0.50348	2.11593	1.24060	0.59141	0.39063	0.38239	0.35126	0.44462	0.36271	0.27872	1.61134	1.08874	0.72012
100650	0.13300	0.13490	0.08005	0.61193	0.59587	0.50501	2.11719	1.24033	0.59144	0.39211	0.38453	0.35366	0.44759	0.36508	0.28216	1.61550	1.09255	0.72328
100810	0.13393	0.13444	0.07899	0.61067	0.59361	0.50416	2.11638	1.23879	0.58929	0.39055	0.38200	0.35111	0.44266	0.36163	0.28046	1.61095	1.08857	0.71890
100970	0.13204	0.13373	0.08045	0.61135	0.59519	0.50422	2.11736	1.24127	0.59108	0.39122	0.38424	0.35299	0.44672	0.36378	0.27984	1.61443	1.09098	0.72187
101140	0.12962	0.13440	0.07947	0.61015	0.59425	0.50389	2.11733	1.23865	0.58969	0.38998	0.38277	0.35196	0.44492	0.36272	0.28116	1.60789	1.08993	0.72021	29.26	6.0	0.00	7.36	0.01273	0.01295	0.01642	0.00795	0.00592	0.00648	0.00471	0.01273	0.01690	0.00687	0.00709	0.00892	0.01496	0.01099	0.01201	0.00223	0.00632	0.00884
101300	0.13324	0.13629	0.08004	0.61171	0.59649	0.50642	2.12595	1.24157	0.59348	0.39318	0.38534	0.35372	0.44616	0.36524	0.28349	1.61480	1.09194	0.72228
101460	0.13300	0.13349	0.07997	0.60988	0.59424	0.50318	2.11883	1.24011	0.58871	0.39018	0.38272	0.35253	0.44493	0.36223	0.28155	1.61059	1.09092	0.72010
101630	0.13472	0.13368	0.08079	0.61181	0.59665	0.50513	2.11784	1.24315	0.59416	0.39253	0.38543	0.35429	0.44893	0.36503	0.28359	1.61626	1.09377	0.72336
101790	0.13293	0.13442	0.07945	0.61073	0.59417	0.50299	2.11429	1.23985	0.58871	0.39019	0.38259	0.35239	0.44618	0.36154	0.28249	1.61046	1.08912	0.71950
101950	0.13296	0.13604	0.08157	0.61102	0.59601	0.50509	2.12187	1.23928	0.59116	0.39207	0.38403	0.35295	0.44720	0.36577	0.28227	1.61394	1.09254	0.72191
102120	0.13276	0.13386	0.07984	0.61144	0.59555	0.50480	2.11939	1.23787	0.59116	0.39062	0.38320	0.35330	0.44396	0.36336	0.28268	1.61257	1.09072	0.72129
102280	0.13110	0.13356	0.07682	0.60888	0.59215	0.50137	2.10704	1.23404	0.58604	0.38854	0.38093	0.35047	0.44706	0.36555	0.28778	1.61437	1.09588	0.72651
102440	0.13501	0.13535	0.08039	0.61430	0.59753	0.50607	2.11891	1.23955	0.59200	0.39109	0.38430	0.35349	0.44631	0.36512	0.28122	1.61287	1.09293	0.72310
102610	0.13415	0.13623	0.08191	0.61381	0.59842	0.50743	2.12158	1.24027	0.59350	0.39337	0.38632	0.35484	0.44726	0.36707	0.28460	1.61678	1.09418	0.72490
102770	0.13259	0.13351	0.07998	0.61266	0.59607	0.50567	2.11355	1.23890	0.58815	0.39033	0.38256	0.35185	0.44307	0.36189	0.28317	1.60969	1.09216	0.72111	29.26	6.0	0.00	7.44	0.01273	0.01295	0.01642	0.00795	0.00592	0.00648	0.00471	0.01273	0.01690	0.00687	0.00709	0.00892	0.01496	0.01099	0.01201	0.00223	0.00632	0.00884
102930	0.13215	0.13662	0.08214	0.61244	0.59712	0.50661	2.10998	1.23935	0.59141	0.39251	0.38571	0.35362	0.44589	0.36684	0.28197	1.61944	1.09555	0.72437
103100	0.13243	0.13371	0.07870	0.61143	0.59536	0.50519	2.11535	1.23576	0.58716	0.39043	0.38232	0.35166	0.44459	0.36551	0.28223	1.61527	1.09525	0.72487
103260	0.13508	0.13517	0.08185	0.61314	0.59786	0.50584	2.12087	1.24111	0.58957	0.39176	0.38336	0.35367	0.44757	0.36742	0.28207	1.61463	1.09395	0.72322
103420	0.13078	0.13269	0.08116	0.61125	0.59452	0.50401	2.11037	1.23816	0.58611	0.38946	0.38126	0.35057	0.44211	0.36393	0.27735	1.60990	1.08963	0.71799
103590	0.13021	0.13346	0.08236	0.60938	0.59676	0.50679	2.12025	1.24064	0.59434	0.39399	0.38626	0.35474	0.44811	0.36621	0.28453	1.61721	1.09590	0.72565
103750	0.13423	0.13715	0.07933	0.61315	0.59688	0.50437	2.11563	1.23855	0.58837	0.39057	0.38270	0.35221	0.44430	0.36372	0.28006	1.61489	1.09162	0.72190
103910	0.13229	0.13421	0.08107	0.61087	0.59793	0.50798	2.12081	1.23930	0.59439	0.39295	0.38758	0.35539	0.44992	0.36641	0.28418	1.61837	1.09712	0.72575
104080	0.13312	0.13656	0.07987	0.61320	0.59726	0.50491	2.11794	1.23881	0.59031	0.38998	0.38440	0.35225	0.44345	0.36465	0.27947	1.61489	1.09212	0.72223
104240	0.13056	0.13239	0.08236	0.61055	0.59690	0.50727	2.12608	1.24126	0.59298	0.39224	0.38666	0.35459	0.44505	0.36763	0.28139	1.61639	1.09521	0.72482
104400	0.13204	0.13336	0.08086	0.61267	0.59655	0.50573	2.11707	1.23783	0.58984	0.39074	0.38316	0.35272	0.44317	0.36409	0.28016	1.61205	1.09223	0.72086	29.26	6.3	0.00	7.36	0.01273	0.01295	0.01642	0.00795	0.00592	0.00648	0.00471	0.01273	0.01690	0.00687	0.00709	0.00892	0.01496	0.01099	0.01201	0.00223	0.00632	0.00884
104560	0.12950	0.13177	0.07725	0.60922	0.59287	0.50181	2.11791	1.23196	0.58665	0.38814	0.38119	0.35032	0.44676	0.36724	0.28477	1.61704	1.09785	0.72715
104730	0.13364	0.13605	0.08082	0.61512	0.59869	0.50739	2.11470	1.24072	0.59147	0.39290	0.38591	0.35405	0.44855	0.36575	0.28468	1.61687	1.09505	0.72484
104890	0.13084	0.13343	0.07787	0.61253	0.59466	0.50385	2.11729	1.23561	0.58780	0.39076	0.38244	0.35081	0.44855	0.36719	0.28730	1.61549	1.09783	0.72724
105060	0.13472	0.13557	0.07954	0.61569	0.59848	0.50759	2.11876	1.23801	0.59035	0.39126	0.38441	0.35328	0.44667	0.36404	0.28113	1.61356	1.09354	0.72255
105220	0.13145	0.13372	0.08047	0.61315	0.59729	0.50699	2.12174	1.23802	0.58984	0.39278	0.38535	0.35330	0.44747	0.36407	0.28205	1.61351	1.09437	0.72369
105380	0.13350	0.13205	0.08062	0.61184	0.59629	0.50568	2.10548	1.23614	0.59020	0.39135	0.38510	0.35284	0.44672	0.36423	0.28092	1.61218	1.09325	0.72215
105550	0.13482	0.13681	0.08045	0.61379	0.59841	0.50744	2.12191	1.24067	0.59231	0.39326	0.38570	0.35411	0.44609	0.36652	0.28151	1.61480	1.09525	0.72468
105710	0.13328	0.13446	0.08032	0.61287	0.59605	0.50572	2.11423	1.23799	0.59035	0.39146	0.38461	0.35316	0.44614	0.36417	0.28308	1.61042	1.09363	0.72300
105870	0.13482	0.13608	0.08121	0.61421	0.59907	0.50769	2.12408	1.23959	0.59300	0.39319	0.38530	0.35486	0.44907	0.36606	0.28407	1.61639	1.09640	0.72609
106040	0.13177	0.13477	0.08046	0.61348	0.59723	0.50576	2.11196	1.23875	0.58973	0.39175	0.38359	0.35235	0.44612	0.36596	0.28129	1.61372	1.09253	0.72338	29.26	6.0	0.00	7.41	0.01273	0.01295	0.01642	0.00795	0.00592	0.00648	0.00471	0.01273	0.01690	0.00687	0.00709	0.00892	0.01496	0.01099	0.01201	0.00223	0.00632	0.00884
106200	0.13396	0.13607	0.08230	0.61566	0.60025	0.50926	2.11514	1.24474	0.59343	0.39444	0.38676	0.35507	0.45160	0.36607	0.28739	1.62017	1.09594	0.72612
106360	0.13394	0.13649	0.07835	0.61471	0.59786	0.50460	2.11542	1.23931	0.59000	0.39118	0.38321	0.35178	0.44502	0.36377	0.27876	1.61574	1.09083	0.72150
106530	0.13422	0.13635	0.08160	0.61454	0.60039	0.50785	2.12285	1.24142	0.59035	0.39357	0.38709	0.35460	0.44910	0.36597	0.28371	1.61746	1.09443	0.72541
106690	0.13263	0.13342	0.07797	0.61329	0.59657	0.50369	2.10625	1.23814	0.58719	0.39061	0.38369	0.35203	0.44262	0.36403	0.27790	1.61261	1.09128	0.72148
106850	0.12845	0.13137	0.07797	0.60968	0.59410	0.50251	2.10218	1.23482	0.58641	0.38837	0.38190	0.35046	0.44757	0.36641	0.28349	1.61811	1.09603	0.72666
107020	0.13441	0.13276	0.08100	0.61515	0.59874	0.50444	2.10729	1.23862	0.59030	0.39115	0.38499	0.35306	0.44661	0.36654	0.28220	1.61798	1.09378	0.72308
107180	0.13175	0.13514	0.08074	0.61271	0.59828	0.50549	2.11582	1.24062	0.59034	0.39205	0.38510	0.35363	0.44759	0.36525	0.28213	1.61669	1.09337	0.72366
107340	0.13283	0.13279	0.07940	0.61271	0.59748	0.50457	2.11584	1.23756	0.58892	0.39035	0.38479	0.35186	0.44528	0.36702	0.28346	1.61368	1.09385	0.72420
107510	0.13414	0.13385	0.08033	0.61452	0.59806	0.50618	2.11230	1.23826	0.58984	0.39182	0.38509	0.35303	0.44811	0.36309	0.28343	1.61454	1.09397	0.72416
107670	0.13151	0.13546	0.07997	0.61290	0.59698	0.50483	2.10970	1.23603	0.58740	0.39081	0.38333	0.35194	0.44804	0.36541	0.28194	1.61818	1.09536	0.72582	29.32	6.1	0.00	7.38	0.01273	0.01295	0.01642	0.00795	0.00592	0.00648	0.00471	0.01273	0.01690	0.00687	0.00709	0.00892	0.01496	0.01099	0.01201	0.00223	0.00632	0.00884
107830	0.13404	0.13340	0.08102	0.61519	0.59928	0.50747	2.11738	1.23926	0.59021	0.39345	0.38529	0.35336	0.44631	0.36507	0.28180	1.61466	1.09360	0.72416
108000	0.13234	0.13458	0.07966	0.61268	0.59692	0.50455	2.11507	1.23789	0.58754	0.39200	0.38351	0.35117	0.44860	0.36827	0.28686	1.61964	1.09754	0.72772
108160	0.13573	0.13710	0.08206	0.61717	0.60137	0.50871	2.12673	1.24014	0.59259	0.39423	0.38655	0.35471	0.44791	0.36622	0.28360	1.61986	1.09622	0.72623
108320	0.13500	0.13773	0.08177	0.61573	0.59912	0.50730	2.11718	1.24235	0.59118	0.39485	0.38524	0.35408	0.44547	0.36503	0.28080	1.61754	1.09539	0.72520
108490	0.13177	0.13303	0.07988	0.61333	0.59763	0.50546	2.11304	1.23926	0.58887	0.39297	0.38304	0.35220	0.44548	0.36490	0.28159	1.61560	1.09219	0.72235
108650	0.13187	0.13282	0.07788	0.61165	0.59467	0.50215	2.11203	1.23268	0.58585	0.39053	0.38142	0.34978	0.44900	0.36704	0.28550	1.62012	1.09778	0.72944
108820	0.13446	0.13584	0.08199	0.61663	0.60019	0.50795	2.11527	1.24182	0.59040	0.39503	0.38678	0.35468	0.44786	0.36683	0.28140	1.61573	1.09464	0.72472
108980	0.13456	0.13587	0.08127	0.61464	0.59934	0.50818	2.11679	1.23927	0.59001	0.39540	0.38513	0.35441	0.44814	0.36722	0.28475	1.61590	1.09444	0.72546
109140	0.13060	0.13517	0.07949	0.61317	0.59756	0.50579	2.11321	1.23796	0.58976	0.39260	0.38402	0.35297	0.44384	0.36518	0.28031	1.61251	1.09203	0.72107
109310	0.13349	0.13518	0.08154	0.61379	0.59928	0.50668	2.11493	1.23942	0.59361	0.39492	0.38607	0.35599	0.44747	0.36586	0.28215	1.61598	1.09492	0.72460	29.20	6.2	0.00	7.32	0.01273	0.01295	0.01642	0.00795	0.00592	0.00648	0.00471	0.01273	0.01690	0.00687	0.00709	0.00892	0.01496	0.01099	0.01201	0.00223	0.00632	0.00884
109470	0.13376	0.13208	0.07986	0.61240	0.59602	0.50339	2.11721	1.23696	0.58848	0.39231	0.38377	0.35239	0.44456	0.36227	0.27979	1.61224	1.09149	0.72093
109630	0.13033	0.13175	0.07735	0.60932	0.59248	0.50135	2.11209	1.23355	0.58626	0.39021	0.38183	0.35075	0.44608	0.36606	0.28388	1.61813	1.09686	0.72695
109800	0.13488	0.13625	0.08099	0.61482	0.59831	0.50695	2.11330	1.23853	0.59129	0.39400	0.38752	0.35469	0.44683	0.36505	0.28470	1.61671	1.09425	0.72323
109960	0.13341	0.13758	0.08214	0.61370	0.59829	0.50632	2.11256	1.24124	0.59117	0.39375	0.38566	0.35425	0.44792	0.36386	0.28200	1.61800	1.09397	0.72376
110120	0.13335	0.13425	0.08070	0.61253	0.59539	0.50584	2.11383	1.24083	0.59055	0.39203	0.38362	0.35306	0.44329	0.36579	0.28326	1.61344	1.09160	0.72182
110290	0.13370	0.13480	0.08180	0.61305	0.59691	0.50638	2.11408	1.24024	0.59304	0.39441	0.38534	0.35390	0.44603	0.36723	0.28431	1.61679	1.09293	0.72359
110450	0.13317	0.13427	0.07919	0.61073	0.59539	0.50354	2.10835	1.23600	0.58931	0.39147	0.38263	0.35183	0.44301	0.36315	0.28036	1.61465	1.09005	0.71990
110610	0.13391	0.13624	0.08069	0.61226	0.59614	0.50560	2.11873	1.23996	0.59053	0.39280	0.38491	0.35366	0.44605	0.36726	0.28324	1.61568	1.09259	0.72230
110780	0.13351	0.13383	0.08039	0.61035	0.59570	0.50410	2.11068	1.23719	0.58868	0.39151	0.38343	0.35247	0.44780	0.36924	0.28441	1.61636	1.09479	0.72447
110940	0.13593	0.13657	0.08118	0.61364	0.59726	0.50656	2.12070	1.24268	0.59234	0.39422	0.38509	0.35434	0.44835	0.36735	0.28204	1.61822	1.09328	0.72206	29.26	6.1	0.00	7.33	0.01273	0.01295	0.01642	0.00795	0.00592	0.00648	0.00471	0.01273	0.01690	0.00687	0.00709	0.00892	0.01496	0.01099	0.01201	0.00223	0.00632	0.00884
111100	0.13185	0.13471	0.07999	0.61053	0.59344	0.50256	2.11183	1.23606	0.58897	0.39047	0.38262	0.35143	0.44388	0.36599	0.28412	1.61680	1.09302	0.72317
111270	0.13292	0.13507	0.08057	0.61244	0.59561	0.50424	2.11752	1.23966	0.59063	0.39275	0.38297	0.35328	0.44334	0.36381	0.28169	1.61671	1.09175	0.71988
111430	0.13221	0.13255	0.07819	0.60895	0.59300	0.50143	2.11690	1.23790	0.58947	0.38933	0.38258	0.35066	0.44631	0.36729	0.28488	1.61564	1.09206	0.72198
111590	0.13386	0.13559	0.08115	0.61193	0.59591	0.50433	2.11704	1.23893	0.59016	0.39163	0.38457	0.35206	0.44694	0.36423	0.28014	1.61577	1.09101	0.72043
111760	0.13261	0.13524	0.07705	0.61031	0.59404	0.50271	2.10871	1.23792	0.58885	0.39033	0.38324	0.35144	0.44798	0.36680	0.28142	1.61916	1.09295	0.72252
111920	0.13379	0.13601	0.08183	0.61205	0.59636	0.50397	2.11408	1.24071	0.59208	0.39232	0.38492	0.35367	0.44716	0.36494	0.28078	1.61586	1.09202	0.72091
112080	0.13129	0.13164	0.07771	0.60862	0.59208	0.50111	2.11077	1.23469	0.58866	0.38958	0.38176	0.35091	0.44550	0.36671	0.28513	1.62002	1.09489	0.72393
112250	0.13428	0.13503	0.08027	0.61334	0.59622	0.50466	2.11603	1.24230	0.58976	0.39192	0.38538	0.35275	0.44609	0.36389	0.28037	1.61796	1.09136	0.72086
112410	0.13226	0.13352	0.07875	0.60869	0.59357	0.50144	2.11560	1.23417	0.58663	0.38900	0.38119	0.35020	0.44752	0.36608	0.28367	1.61951	1.09557	0.72640
112580	0.13382	0.13542	0.08194	0.61417	0.59883	0.50688	2.12391	1.24379	0.59133	0.39365	0.38457	0.35333	0.44739	0.36611	0.28389	1.61731	1.09318	0.72283	29.26	6.0	0.00	7.33	0.01273	0.01295	0.01642	0.00795	0.00592	0.00648	0.00471	0.01273	0.01690	0.00687	0.00709	0.00892	0.01496	0.01099	0.01201	0.00223	0.00632	0.00884
112740	0.13240	0.13755	0.08380	0.61450	0.59829	0.50779	2.12382	1.24203	0.59448	0.39380	0.38535	0.35455	0.44759	0.36419	0.28446	1.61795	1.09407	0.72410
112900	0.13270	0.13430	0.07986	0.61157	0.59504	0.50437	2.11847	1.23948	0.59123	0.39158	0.38265	0.35243	0.44400	0.36213	0.27971	1.61387	1.08947	0.72070
113070	0.13196	0.13590	0.08049	0.61271	0.59826	0.50767	2.12044	1.24230	0.59514	0.39461	0.38425	0.35555	0.44783	0.36783	0.28153	1.62040	1.09464	0.72446
113230	0.13408	0.13443	0.08076	0.61196	0.59480	0.50356	2.11617	1.23840	0.58849	0.39100	0.38194	0.35169	0.44250	0.36142	0.28265	1.61280	1.09056	0.72018
113390	0.13136	0.13638	0.08132	0.61174	0.59644	0.50488	2.11338	1.24032	0.59149	0.39340	0.38359	0.35370	0.44665	0.36425	0.28306	1.61567	1.09205	0.72157
113560	0.13238	0.13380	0.07814	0.61018	0.59347	0.50347	2.12208	1.24019	0.58981	0.39187	0.38031	0.35245	0.44357	0.36285	0.28028	1.61301	1.08911	0.71976
113720	0.13016	0.13217	0.07682	0.60824	0.59176	0.50066	2.11417	1.23843	0.58616	0.39042	0.38007	0.34959	0.44864	0.36679	0.28468	1.61735	1.09521	0.72523
113880	0.13526	0.13506	0.08186	0.61275	0.59638	0.50551	2.11383	1.23923	0.59108	0.39355	0.38279	0.35276	0.44776	0.36495	0.27863	1.61589	1.09158	0.72141
114050	0.13312	0.13614	0.08168	0.61282	0.59658	0.50605	2.11681	1.24251	0.59524	0.39440	0.38438	0.35397	0.44723	0.36559	0.28287	1.61786	1.09257	0.72274
114210	0.13242	0.13412	0.08052	0.61119	0.59524	0.50365	2.11155	1.23939	0.59012	0.39123	0.38047	0.35220	0.44586	0.36121	0.28378	1.61432	1.08974	0.71971	29.26	6.0	0.00	7.36	0.01273	0.01295	0.01642	0.00795	0.00592	0.00648	0.00471	0.01273	0.01690	0.00687	0.00709	0.00892	0.01496	0.01099	0.01201	0.00223	0.00632	0.00884
114370	0.13290	0.13472	0.08073	0.61243	0.59656	0.50607	2.11642	1.23763	0.59137	0.39301	0.38262	0.35353	0.44816	0.36609	0.28227	1.61638	1.09228	0.72270
114540	0.13214	0.13417	0.07888	0.61000	0.59383	0.50264	2.11299	1.23824	0.58997	0.39011	0.37979	0.35059	0.44814	0.36636	0.28228	1.61617	1.09218	0.72271
114700	0.13415	0.13469	0.08063	0.61124	0.59551	0.50512	2.12472	1.24010	0.59239	0.39233	0.38145	0.35253	0.44628	0.36366	0.28171	1.61608	1.09136	0.72089
114860	0.13151	0.13448	0.07869	0.60811	0.59167	0.50078	2.11681	1.23579	0.58891	0.38899	0.37776	0.34933	0.44365	0.36072	0.27797	1.60968	1.08755	0.71658
115030	0.13003	0.13387	0.08205	0.60733	0.59380	0.50507	2.12701	1.24237	0.59398	0.39317	0.38200	0.35348	0.44889	0.36968	0.28387	1.61844	1.09359	0.72294
115190	0.13333	0.13547	0.08029	0.61073	0.59387	0.50290	2.12126	1.23954	0.59091	0.38946	0.37990	0.35013	0.44399	0.36451	0.27935	1.61565	1.08930	0.71823
115350	0.13141	0.13272	0.08097	0.60730	0.59438	0.50360	2.12236	1.23961	0.59386	0.39141	0.38106	0.35136	0.44555	0.36634	0.28290	1.61698	1.09160	0.72119
115520	0.13203	0.13343	0.08041	0.60896	0.59191	0.50132	2.11147	1.23732	0.58812	0.38788	0.37811	0.34832	0.44576	0.36031	0.27833	1.61118	1.08763	0.71670
115680	0.12902	0.13435	0.08067	0.60829	0.59326	0.50284	2.12194	1.23839	0.59315	0.39025	0.38115	0.34990	0.44795	0.36693	0.28287	1.61582	1.09208	0.72133
115840	0.13360	0.13540	0.08148	0.60879	0.59447	0.50205	2.12025	1.23692	0.58970	0.38846	0.37893	0.34873	0.44450	0.36172	0.28161	1.61475	1.08962	0.71868	29.26	6.0	0.00	7.36	0.01273	0.01295	0.01642	0.00795	0.00592	0.00648	0.00471	0.01273	0.01690	0.00687	0.00709	0.00892	0.01496	0.01099	0.01201	0.00223	0.00632	0.00884
116010	0.13201	0.13722	0.08122	0.61086	0.59569	0.50389	2.11839	1.24160	0.59137	0.39003	0.38087	0.35043	0.44593	0.36724	0.28280	1.61827	1.09340	0.72192
116170	0.13050	0.13533	0.07914	0.60836	0.59380	0.50171	2.11133	1.23645	0.58823	0.38833	0.37949	0.34864	0.44462	0.36180	0.28084	1.61557	1.08919	0.71886
116330	0.13361	0.13589	0.08037	0.60979	0.59600	0.50252	2.12335	1.24085	0.59119	0.39011	0.38132	0.35126	0.44687	0.36551	0.28014	1.62128	1.09291	0.72121
116500	0.13277	0.13434	0.07975	0.60855	0.59316	0.50112	2.11538	1.23671	0.58627	0.38779	0.37916	0.34910	0.44371	0.36214	0.27982	1.61471	1.08936	0.71817
116660	0.13281	0.13460	0.08170	0.61057	0.59661	0.50357	2.11380	1.24348	0.59212	0.38997	0.38189	0.35038	0.44840	0.36566	0.28305	1.61767	1.09343	0.72116
116820	0.13300	0.13583	0.08037	0.60889	0.59396	0.50139	2.11369	1.23972	0.59006	0.38756	0.37923	0.34898	0.44563	0.36330	0.28025	1.61634	1.08982	0.71883
116990	0.13491	0.13629	0.08211	0.60984	0.59577	0.50334	2.11479	1.24223	0.59192	0.39029	0.38147	0.35049	0.44799	0.36805	0.28161	1.61948	1.09262	0.72114
117150	0.13162	0.13380	0.08074	0.60795	0.59334	0.50117	2.11107	1.23627	0.58859	0.38727	0.37865	0.34845	0.44442	0.36239	0.27884	1.61759	1.08910	0.71848
117310	0.13130	0.13201	0.07822	0.60468	0.59035	0.49941	2.10610	1.23367	0.58393	0.38555	0.37601	0.34601	0.44764	0.36682	0.28565	1.62089	1.09488	0.72402
117480	0.13526	0.13454	0.07957	0.61150	0.59663	0.50288	2.11670	1.23772	0.59036	0.38972	0.38089	0.35009	0.44838	0.36355	0.27963	1.61976	1.09171	0.72139	29.26	6.0	0.00	7.35	0.01273	0.01295	0.01642	0.00795	0.00592	0.00648	0.00471	0.01273	0.01690	0.00687	0.00709	0.00892	0.01496	0.01099	0.01201	0.00223	0.00632	0.00884
117640	0.13293	0.13505	0.08090	0.61090	0.59720	0.50397	2.11451	1.24281	0.59126	0.38957	0.38184	0.35069	0.44601	0.36609	0.28176	1.61942	1.09188	0.72145
117800	0.13236	0.13496	0.08087	0.60870	0.59457	0.50132	2.11532	1.23629	0.59003	0.38798	0.37994	0.34872	0.44527	0.36192	0.27931	1.61891	1.09027	0.71887
117970	0.13547	0.13466	0.08241	0.61133	0.59866	0.50577	2.12247	1.24260	0.59304	0.39198	0.38328	0.35220	0.44795	0.36827	0.28392	1.62153	1.09422	0.72334
118130	0.13388	0.13462	0.07981	0.61073	0.59546	0.50244	2.11695	1.23793	0.59026	0.38906	0.38100	0.34913	0.44498	0.36593	0.28021	1.61723	1.09030	0.71920
118290	0.13531	0.13553	0.08168	0.61157	0.59861	0.50521	2.12915	1.24319	0.59541	0.39117	0.38309	0.35132	0.44880	0.36817	0.28548	1.62286	1.09350	0.72334
118460	0.13356	0.13367	0.07984	0.61018	0.59546	0.50122	2.11726	1.23857	0.58936	0.38743	0.37998	0.34851	0.44762	0.36803	0.28526	1.62243	1.09317	0.72261
118620	0.13604	0.13424	0.07970	0.61069	0.59623	0.50338	2.12382	1.23999	0.59250	0.38990	0.38193	0.35049	0.44726	0.36747	0.28029	1.62058	1.09162	0.72153
118780	0.13235	0.13230	0.08033	0.60854	0.59370	0.49982	2.11037	1.23712	0.58714	0.38689	0.38020	0.34739	0.44236	0.36125	0.27793	1.61521	1.08726	0.71705
118940	0.13019	0.13070	0.07770	0.60470	0.59066	0.49859	2.11411	1.23489	0.58426	0.38462	0.37783	0.34674	0.44686	0.36469	0.28251	1.61689	1.09375	0.72334
119110	0.13628	0.13730	0.08112	0.61155	0.59692	0.50240	2.11983	1.24142	0.59382	0.38969	0.38266	0.35068	0.44816	0.36627	0.28195	1.62121	1.09298	0.72161	29.26	6.3	0.00	5.70	0.01273	0.01295	0.01642	0.00795	0.00592	0.00648	0.00471	0.01273	0.01690	0.00687	0.00709	0.00892	0.01496	0.01099	0.01201	0.00223	0.00632	0.00884
119270	0.13000	0.13450	0.08041	0.60767	0.59353	0.50019	2.11411	1.23851	0.58945	0.38773	0.38018	0.34811	0.44559	0.36253	0.28293	1.61966	1.09290	0.72189
119430	0.13242	0.13386	0.07949	0.60980	0.59538	0.50138	2.11921	1.23836	0.59080	0.38807	0.38020	0.34953	0.44417	0.36530	0.28017	1.61859	1.09045	0.71930
119600	0.13183	0.13326	0.07921	0.60788	0.59373	0.50010	2.11794	1.23589	0.58818	0.38639	0.37984	0.34825	0.44495	0.36281	0.27909	1.61739	1.08891	0.71740
119760	0.13174	0.13377	0.07977	0.60633	0.59500	0.50246	2.11645	1.24412	0.59244	0.39006	0.38297	0.35097	0.44597	0.36579	0.28429	1.62113	1.09339	0.72173
119920	0.13343	0.13634	0.07837	0.60842	0.59381	0.50142	2.11296	1.23627	0.58750	0.38777	0.38093	0.34870	0.44595	0.36201	0.27815	1.62057	1.09024	0.71910
120090	0.13425	0.13560	0.08061	0.61126	0.59760	0.50443	2.12174	1.24042	0.59255	0.39032	0.38331	0.35170	0.44964	0.36830	0.28459	1.61979	1.09352	0.72255
120250	0.13312	0.13282	0.08010	0.60876	0.59486	0.50037	2.11510	1.23541	0.58678	0.38748	0.38054	0.34949	0.44640	0.36210	0.27880	1.61601	1.08932	0.71778
120410	0.13437	0.13672	0.08185	0.60939	0.59674	0.50345	2.12129	1.23800	0.59094	0.39012	0.38230	0.35149	0.44544	0.36433	0.28209	1.62130	1.09184	0.72200
120580	0.13253	0.13231	0.08001	0.60887	0.59542	0.50172	2.10863	1.23485	0.59037	0.38875	0.38175	0.34933	0.44748	0.36486	0.28368	1.61893	1.09051	0.71942
120740	0.13238	0.13546	0.08103	0.60971	0.59586	0.50312	2.11715	1.24042	0.59140	0.38934	0.38215	0.35076	0.44755	0.36606	0.28273	1.62235	1.09319	0.72147	29.20	6.1	0.00	7.43	0.01273	0.01295	0.01642	0.00795	0.00592	0.00648	0.00471	0.01273	0.01690	0.00687	0.00709	0.00892	0.01496	0.01099	0.01201	0.00223	0.00632	0.00884
120900	0.13247	0.13376	0.07719	0.60778	0.59411	0.50069	2.11017	1.23509	0.58703	0.38800	0.38073	0.34852	0.44347	0.36420	0.28036	1.61810	1.08992	0.71888
121070	0.13318	0.13206	0.07978	0.60885	0.59502	0.50227	2.11870	1.23796	0.59045	0.38968	0.38199	0.35038	0.44524	0.36676	0.28108	1.61986	1.09300	0.72143
121230	0.13271	0.13428	0.07908	0.60894	0.59483	0.50106	2.11127	1.23753	0.58939	0.38887	0.38146	0.35013	0.44611	0.36525	0.28169	1.61694	1.09138	0.71980
121390	0.13197	0.13384	0.08074	0.61010	0.59608	0.50251	2.11687	1.23835	0.59077	0.38981	0.38178	0.35053	0.44770	0.36418	0.28244	1.61943	1.09259	0.72121
121560	0.13283	0.13364	0.07930	0.60841	0.59436	0.50145	2.11375	1.23763	0.58841	0.38828	0.38095	0.34946	0.44527	0.36316	0.28036	1.61754	1.08945	0.71882
121720	0.13313	0.13464	0.08032	0.60965	0.59548	0.50330	2.12256	1.24025	0.59074	0.39026	0.38329	0.35135	0.44928	0.36477	0.28185	1.62068	1.09329	0.72173
121880	0.13223	0.13529	0.07943	0.60910	0.59495	0.50169	2.11546	1.23429	0.59062	0.38921	0.38180	0.35006	0.44772	0.36437	0.28190	1.61754	1.09145	0.72010
122050	0.13593	0.13480	0.08239	0.61085	0.59645	0.50405	2.11732	1.23959	0.59119	0.39061	0.38360	0.35178	0.44820	0.36691	0.28211	1.62080	1.09395	0.72233
122210	0.13296	0.13448	0.07976	0.60951	0.59333	0.50085	2.11327	1.23487	0.58930	0.38779	0.38055	0.35011	0.44718	0.36614	0.28076	1.61797	1.09105	0.71974
122370	0.13110	0.13705	0.08100	0.60986	0.59560	0.50323	2.12261	1.24186	0.59049	0.39026	0.38210	0.35223	0.44687	0.36838	0.28410	1.61842	1.09296	0.72174	29.26	6.1	0.00	7.36	0.01273	0.01295	0.01642	0.00795	0.00592	0.00648	0.00471	0.01273	0.01690	0.00687	0.00709	0.00892	0.01496	0.01099	0.01201	0.00223	0.00632	0.00884
122540	0.13150	0.13350	0.07960	0.60842	0.59303	0.50084	2.12118	1.23552	0.58806	0.38900	0.38187	0.35028	0.44640	0.36869	0.28458	1.61996	1.09454	0.72375
122700	0.13421	0.13584	0.08277	0.61135	0.59625	0.50449	2.11195	1.24089	0.59472	0.39177	0.38416	0.35221	0.44872	0.36969	0.28512	1.61928	1.09369	0.72181
122860	0.13271	0.13545	0.07995	0.60876	0.59269	0.50089	2.11856	1.23511	0.58981	0.38817	0.38111	0.34995	0.44770	0.36654	0.28404	1.61850	1.09318	0.72233
123030	0.13476	0.13585	0.07876	0.61012	0.59478	0.50179	2.11169	1.23630	0.59049	0.38853	0.38124	0.35061	0.44721	0.36623	0.28273	1.61541	1.09128	0.72075
123190	0.13116	0.13360	0.07933	0.60913	0.59300	0.50081	2.11915	1.23496	0.58913	0.38852	0.37961	0.35018	0.44592	0.36513	0.27995	1.61305	1.08933	0.71932
123350	0.12962	0.13162	0.08158	0.60761	0.59497	0.50503	2.12239	1.24551	0.59550	0.39298	0.38459	0.35428	0.45009	0.36796	0.28574	1.62013	1.09594	0.72415
123520	0.13286	0.13617	0.08072	0.61129	0.59544	0.50270	2.11800	1.23790	0.59033	0.39075	0.38248	0.35149	0.44758	0.36912	0.28301	1.61970	1.09303	0.72236
123680	0.13304	0.13378	0.07956	0.61048	0.59412	0.50195	2.11591	1.24097	0.59036	0.38951	0.38229	0.35099	0.44904	0.36794	0.28196	1.61605	1.09092	0.72088
123840	0.13181	0.13163	0.07821	0.60772	0.59267	0.50026	2.11307	1.23610	0.58867	0.38806	0.38072	0.34949	0.44470	0.36278	0.27836	1.61374	1.08861	0.71746
124010	0.13451	0.13688	0.08479	0.61209	0.59787	0.50554	2.13014	1.24454	0.59657	0.39202	0.38500	0.35437	0.45255	0.36982	0.28584	1.62057	1.09538	0.72455	29.26	6.2	0.00	7.34	0.01273	0.01295	0.01642	0.00795	0.00592	0.00648	0.00471	0.01273	0.01690	0.00687	0.00709	0.00892	0.01496	0.01099	0.01201	0.00223	0.00632	0.00884
124170	0.13414	0.13445	0.08166	0.61080	0.59615	0.50243	2.12168	1.24047	0.59126	0.39009	0.38206	0.35061	0.44629	0.36335	0.27998	1.61631	1.09075	0.72005
124330	0.13343	0.13538	0.08174	0.61224	0.59652	0.50450	2.12194	1.24560	0.59396	0.39197	0.38486	0.35412	0.45025	0.37004	0.28229	1.62040	1.09414	0.72302
124490	0.13281	0.13497	0.07814	0.61006	0.59359	0.50166	2.11924	1.23764	0.58941	0.38845	0.38040	0.34991	0.44461	0.36402	0.27746	1.61408	1.08899	0.71844
124660	0.12915	0.13256	0.07577	0.60558	0.59027	0.49834	2.11763	1.23178	0.58588	0.38583	0.37858	0.34768	0.44830	0.36859	0.28583	1.61769	1.09481	0.72438
124820	0.13292	0.13561	0.07971	0.61199	0.59538	0.50295	2.11954	1.23915	0.59241	0.38917	0.38295	0.35161	0.44700	0.36638	0.28297	1.61580	1.09220	0.72052
124980	0.12995	0.13451	0.07789	0.60730	0.59185	0.49961	2.11760	1.23502	0.58788	0.38645	0.37971	0.34800	0.44986	0.36742	0.28150	1.61696	1.09470	0.72438
125150	0.13304	0.13603	0.08153	0.61109	0.59446	0.50243	2.11490	1.24096	0.59153	0.38904	0.38280	0.35077	0.44685	0.36645	0.28166	1.61717	1.09184	0.71983
125310	0.13169	0.13263	0.07819	0.60731	0.59183	0.49974	2.11594	1.23445	0.58582	0.38607	0.37926	0.34737	0.44564	0.36818	0.28236	1.61885	1.09453	0.72396
125480	0.13203	0.13480	0.08034	0.61079	0.59510	0.50285	2.11462	1.23966	0.59096	0.38953	0.38281	0.35070	0.44728	0.36352	0.28107	1.61760	1.09102	0.72081
125640	0.13145	0.13409	0.07862	0.60923	0.59421	0.50295	2.11324	1.23980	0.58789	0.38810	0.38232	0.34997	0.44702	0.36488	0.28260	1.61592	1.09214	0.72123	29.20	6.1	0.00	7.50	0.01273	0.01295	0.01642	0.00795	0.00592	0.00648	0.00471	0.01273	0.01690	0.00686	0.00709	0.00892	0.01496	0.01099	0.01201	0.00223	0.00632	0.00884
125800	0.13050	0.13469	0.07990	0.60940	0.59407	0.50242	2.12030	1.24000	0.59054	0.38795	0.38156	0.35035	0.44639	0.36342	0.27854	1.61648	1.09194	0.72102
125970	0.13380	0.13443	0.08403	0.61206	0.59724	0.50554	2.11538	1.24483	0.59331	0.39061	0.38569	0.35188	0.44943	0.36604	0.28526	1.61807	1.09563	0.72381
126130	0.13323	0.13345	0.08044	0.60992	0.59480	0.50178	2.12678	1.23745	0.59067	0.38804	0.38116	0.34933	0.44274	0.36289	0.28044	1.61279	1.09061	0.71881
126290	0.13349	0.13642	0.08231	0.61096	0.59687	0.50505	2.12202	1.24337	0.59330	0.39065	0.38467	0.35307	0.44991	0.36763	0.28503	1.62078	1.09497	0.72331
126460	0.13247	0.13515	0.08123	0.61072	0.59505	0.50285	2.11574	1.23908	0.59015	0.38766	0.38204	0.35060	0.44388	0.36727	0.28255	1.61940	1.09405	0.72294
126620	0.13160	0.13342	0.07964	0.61153	0.59619	0.50442	2.11797	1.24136	0.59114	0.38871	0.38275	0.35164	0.44632	0.36806	0.28224	1.61601	1.09337	0.72081
126780	0.13196	0.13378	0.07893	0.60923	0.59382	0.50213	2.10992	1.23771	0.58763	0.38695	0.38092	0.34990	0.44295	0.36386	0.27884	1.61459	1.08990	0.71799
126940	0.12808	0.13168	0.07810	0.60586	0.59063	0.49943	2.11057	1.23355	0.58539	0.38551	0.37892	0.34708	0.44750	0.36740	0.28315	1.61837	1.09626	0.72465
127110	0.13519	0.13506	0.08215	0.61281	0.59660	0.50518	2.11445	1.24228	0.59161	0.39055	0.38396	0.35211	0.44819	0.36696	0.28345	1.61682	1.09347	0.72211
127270	0.13228	0.13229	0.07854	0.60951	0.59321	0.50124	2.10860	1.23834	0.58853	0.38643	0.38069	0.34935	0.44457	0.36857	0.28402	1.61585	1.09485	0.72375	29.26	6.2	0.00	7.38	0.01273	0.01295	0.01642	0.00795	0.00592	0.00648	0.00471	0.01273	0.01690	0.00687	0.00709	0.00892	0.01496	0.01099	0.01201	0.00223	0.00632	0.00884
127430	0.13211	0.13350	0.07867	0.61171	0.59595	0.50411	2.12011	1.23676	0.59131	0.38830	0.38335	0.35139	0.44607	0.36622	0.28009	1.61679	1.09315	0.72189
127600	0.13076	0.13373	0.07699	0.60847	0.59248	0.50055	2.10461	1.23616	0.58755	0.38664	0.38137	0.34901	0.44200	0.36163	0.27633	1.61044	1.08801	0.71769
127760	0.13009	0.13267	0.08111	0.60741	0.59510	0.50470	2.12329	1.23954	0.59387	0.39000	0.38507	0.35219	0.44821	0.36535	0.28187	1.61782	1.09505	0.72358
127920	0.13196	0.13555	0.07928	0.61101	0.59434	0.50189	2.11597	1.23683	0.58923	0.38734	0.38129	0.34915	0.44518	0.36337	0.27799	1.60992	1.08984	0.71914
128090	0.13325	0.13453	0.08189	0.61125	0.59628	0.50459	2.11921	1.24071	0.59397	0.38968	0.38360	0.35121	0.44935	0.36610	0.28009	1.61563	1.09339	0.72203
128250	0.13225	0.13078	0.07843	0.61016	0.59349	0.50134	2.11507	1.23697	0.58852	0.38808	0.38048	0.34963	0.44322	0.36260	0.27914	1.61125	1.08948	0.71859
128410	0.12947	0.13276	0.07775	0.60627	0.59081	0.49879	2.10840	1.23376	0.58303	0.38592	0.37922	0.34658	0.44413	0.36561	0.28526	1.61550	1.09522	0.72433
128580	0.13411	0.13702	0.08293	0.61224	0.59442	0.50352	2.11597	1.23831	0.59076	0.38983	0.38280	0.35090	0.44712	0.36414	0.28029	1.61160	1.09151	0.72069
128740	0.13276	0.13288	0.08171	0.61074	0.59391	0.50317	2.11577	1.23711	0.59013	0.39020	0.38381	0.35144	0.44682	0.36505	0.28313	1.61443	1.09253	0.72028
128900	0.13240	0.13366	0.07992	0.60925	0.59357	0.50234	2.10887	1.23803	0.58967	0.38794	0.38270	0.34939	0.44260	0.36406	0.28194	1.60928	1.09003	0.71981	29.26	6.3	0.00	7.37	0.01273	0.01295	0.01642	0.00795	0.00592	0.00648	0.00471	0.01273	0.01690	0.00686	0.00709	0.00892	0.01496	0.01099	0.01201	0.00223	0.00632	0.00884
129070	0.13261	0.13244	0.07884	0.60642	0.58994	0.49915	2.11154	1.23182	0.58398	0.38537	0.37940	0.34735	0.44666	0.36497	0.28464	1.61431	1.09450	0.72466
129230	0.13574	0.13507	0.08115	0.61197	0.59511	0.50398	2.11362	1.23869	0.59092	0.38954	0.38288	0.35019	0.44623	0.36656	0.28248	1.61203	1.09120	0.72089
129390	0.13472	0.13390	0.08105	0.61057	0.59461	0.50362	2.11072	1.24090	0.59000	0.38910	0.38278	0.35135	0.44873	0.36642	0.28147	1.61237	1.09126	0.72104
129560	0.13225	0.13660	0.08041	0.60841	0.59301	0.50216	2.11956	1.23676	0.58784	0.38780	0.38136	0.34959	0.44459	0.36312	0.27988	1.60975	1.09068	0.72045
129720	0.13252	0.13455	0.08037	0.61026	0.59476	0.50353	2.12240	1.23831	0.58985	0.38944	0.38256	0.35098	0.44655	0.36402	0.28191	1.61332	1.09298	0.72166
129880	0.13486	0.13376	0.08080	0.60920	0.59359	0.50285	2.11722	1.23981	0.59040	0.38727	0.38186	0.35051	0.44574	0.36581	0.28098	1.61079	1.09068	0.71996
130050	0.13307	0.13544	0.08328	0.61103	0.59498	0.50458	2.11565	1.24251	0.59181	0.38992	0.38380	0.35211	0.44794	0.36623	0.28241	1.61633	1.09407	0.72270
130210	0.13473	0.13443	0.08074	0.60988	0.59384	0.50224	2.11596	1.23890	0.58868	0.38798	0.38105	0.34920	0.44590	0.36361	0.28081	1.61036	1.09027	0.71907
130370	0.13540	0.13496	0.08281	0.61150	0.59552	0.50484	2.12471	1.24176	0.59297	0.38947	0.38310	0.35110	0.44780	0.36734	0.28220	1.61482	1.09284	0.72201
130540	0.13288	0.13579	0.08002	0.60912	0.59379	0.50222	2.11912	1.23981	0.58859	0.38668	0.38052	0.34885	0.44695	0.36725	0.28233	1.61334	1.09235	0.72241	29.26	6.0	0.00	7.37	0.01273	0.01295	0.01642	0.00795	0.00592	0.00648	0.00471	0.01273	0.01690	0.00686	0.00709	0.00892	0.01496	0.01099	0.01201	0.00223	0.00632	0.00884
130700	0.13462	0.13522	0.08167	0.61081	0.59515	0.50422	2.11862	1.24193	0.59186	0.38941	0.38201	0.34968	0.44496	0.36534	0.28105	1.61257	1.09208	0.72151
130860	0.13252	0.13301	0.07953	0.60821	0.59155	0.50053	2.11268	1.23536	0.58849	0.38634	0.37899	0.34799	0.44360	0.36261	0.27696	1.60742	1.08731	0.71603
131030	0.12853	0.13380	0.08225	0.60703	0.59462	0.50447	2.11642	1.24387	0.59354	0.39160	0.38404	0.35215	0.45023	0.36693	0.28444	1.61339	1.09382	0.72331
131190	0.13443	0.13587	0.07896	0.61027	0.59369	0.50241	2.11313	1.23843	0.59056	0.38705	0.38129	0.34948	0.44435	0.36370	0.28060	1.61059	1.09002	0.71853
131350	0.12965	0.13285	0.07998	0.60847	0.59422	0.50370	2.11558	1.23848	0.59157	0.38885	0.38218	0.35089	0.44615	0.36733	0.28265	1.61218	1.09271	0.72154
131520	0.13189	0.13341	0.07980	0.60904	0.59339	0.50223	2.11048	1.23557	0.58980	0.38646	0.38050	0.34938	0.44553	0.36495	0.27985	1.61038	1.08873	0.71772
131680	0.13252	0.13473	0.08108	0.60652	0.59339	0.50280	2.11504	1.24125	0.59210	0.38844	0.38229	0.35121	0.44679	0.36600	0.28154	1.61360	1.09153	0.72168
131840	0.13335	0.13490	0.08048	0.60877	0.59312	0.50212	2.12033	1.23531	0.58882	0.38599	0.38064	0.34838	0.44472	0.36537	0.27769	1.60900	1.08849	0.71803
132010	0.13221	0.13586	0.08119	0.60892	0.59376	0.50298	2.11338	1.23862	0.59194	0.38848	0.38163	0.34954	0.44616	0.36683	0.28253	1.61253	1.09105	0.72044
132170	0.13341	0.13103	0.07895	0.60894	0.59164	0.50084	2.11487	1.23478	0.58732	0.38728	0.38048	0.34819	0.44632	0.36432	0.28266	1.60985	1.08810	0.71799	29.20	6.0	0.00	7.47	0.01273	0.01295	0.01642	0.00795	0.00592	0.00648	0.00471	0.01273	0.01690	0.00687	0.00709	0.00892	0.01496	0.01099	0.01201	0.00223	0.00632	0.00884
132330	0.13404	0.13270	0.08281	0.61004	0.59321	0.50260	2.11518	1.23963	0.59070	0.38939	0.38170	0.34993	0.44710	0.36723	0.28418	1.61432	1.09106	0.72018
132500	0.13410	0.13629	0.08128	0.60909	0.59296	0.50199	2.11665	1.24131	0.58964	0.38729	0.38053	0.34840	0.44642	0.36512	0.28189	1.61281	1.08983	0.71839
132660	0.13410	0.13646	0.08212	0.61150	0.59487	0.50379	2.12405	1.24450	0.59449	0.38967	0.38365	0.35104	0.44921	0.36696	0.28553	1.61320	1.09178	0.72157
132820	0.13477	0.13387	0.07843	0.60970	0.59174	0.50043	2.11200	1.23725	0.59080	0.38710	0.37999	0.34796	0.44580	0.36402	0.28181	1.60942	1.08713	0.71692
132990	0.13443	0.13792	0.08159	0.61190	0.59596	0.50462	2.12447	1.24288	0.59320	0.39161	0.38344	0.35140	0.45115	0.36876	0.28447	1.61702	1.09466	0.72329
133150	0.13533	0.13438	0.08185	0.61117	0.59332	0.50160	2.11006	1.23892	0.59203	0.38850	0.38098	0.34797	0.44570	0.36494	0.28229	1.61213	1.08895	0.71774
133310	0.13349	0.13697	0.08211	0.61055	0.59432	0.50319	2.12185	1.24197	0.59196	0.38915	0.38211	0.35027	0.44736	0.36539	0.28367	1.61350	1.09136	0.72071
133470	0.13205	0.13552	0.08063	0.60863	0.59255	0.49963	2.11718	1.23518	0.58977	0.38509	0.37927	0.34699	0.44392	0.36506	0.28078	1.60882	1.08795	0.71701
133640	0.13061	0.13337	0.07795	0.60607	0.58939	0.49865	2.11293	1.23473	0.58659	0.38497	0.37917	0.34595	0.44592	0.36667	0.28472	1.61127	1.09093	0.72082
133800	0.13142	0.13415	0.08119	0.60871	0.59188	0.50044	2.11784	1.24068	0.58967	0.38700	0.38223	0.34954	0.44571	0.36580	0.28131	1.60800	1.08901	0.71781	29.26	6.2	0.00	7.35	0.01273	0.01295	0.01642	0.00795	0.00592	0.00648	0.00471	0.01273	0.01690	0.00687	0.00709	0.00892	0.01496	0.01099	0.01201	0.00223	0.00631	0.00884
133970	0.13212	0.13202	0.07836	0.60671	0.59011	0.49858	2.11311	1.23599	0.58695	0.38521	0.37912	0.34648	0.44579	0.36547	0.28312	1.61062	1.09125	0.72118
134130	0.13264	0.13399	0.08159	0.60905	0.59195	0.50120	2.12043	1.23866	0.59079	0.38699	0.38115	0.34912	0.44648	0.36479	0.28303	1.61216	1.08893	0.71887
134290	0.13342	0.13506	0.07899	0.60722	0.59058	0.49926	2.11314	1.23618	0.58728	0.38572	0.37932	0.34710	0.44743	0.36817	0.28488	1.61375	1.09334	0.72255
134460	0.13540	0.13749	0.08020	0.61048	0.59369	0.50168	2.11933	1.24131	0.59011	0.38843	0.38214	0.34971	0.44874	0.36990	0.28576	1.61195	1.09279	0.72211
134620	0.13359	0.13636	0.08317	0.61134	0.59501	0.50387	2.12049	1.24031	0.59270	0.38906	0.38310	0.35070	0.44759	0.36698	0.28213	1.61251	1.09147	0.72064
134780	0.13349	0.13470	0.07940	0.60889	0.59255	0.49965	2.11371	1.23634	0.58958	0.38726	0.38010	0.34846	0.44685	0.36984	0.28546	1.61328	1.09280	0.72374
134950	0.13711	0.13667	0.08110	0.61278	0.59625	0.50398	2.11607	1.24330	0.59337	0.38967	0.38393	0.35084	0.44821	0.36764	0.28351	1.61173	1.09156	0.72099
135110	0.13120	0.13491	0.07983	0.60860	0.59204	0.50018	2.11390	1.23567	0.58901	0.38628	0.37983	0.34836	0.44786	0.36801	0.28531	1.61259	1.09205	0.72200
135270	0.13503	0.13536	0.08216	0.61088	0.59398	0.50163	2.11629	1.23848	0.59078	0.38805	0.38136	0.34944	0.44724	0.36696	0.28144	1.61040	1.09164	0.71990
135440	0.13316	0.13238	0.07941	0.60699	0.59067	0.49904	2.12128	1.23365	0.58604	0.38483	0.37915	0.34657	0.44682	0.36624	0.28271	1.60997	1.09093	0.71999	29.26	6.1	0.00	7.32	0.01273	0.01295	0.01642	0.00795	0.00592	0.00648	0.00471	0.01273	0.01690	0.00686	0.00709	0.00892	0.01496	0.01099	0.01201	0.00223	0.00631	0.00884
135600	0.13139	0.13403	0.07775	0.60903	0.59254	0.50079	2.11300	1.23811	0.59083	0.38754	0.38165	0.34819	0.44574	0.36601	0.28097	1.60903	1.08912	0.71897
135760	0.12920	0.13219	0.07946	0.60733	0.59019	0.49880	2.10949	1.23649	0.58795	0.38619	0.37965	0.34754	0.44948	0.36688	0.28645	1.61139	1.09100	0.72042
135930	0.13438	0.13296	0.08004	0.60883	0.59232	0.50065	2.11522	1.23750	0.59054	0.38776	0.38272	0.34860	0.44524	0.36939	0.28179	1.61191	1.08994	0.71982
136090	0.13373	0.13372	0.07940	0.60802	0.59129	0.49835	2.10923	1.23447	0.58771	0.38551	0.38059	0.34694	0.44715	0.36758	0.28567	1.61216	1.09194	0.72194
136260	0.13532	0.13695	0.08147	0.61037	0.59330	0.50174	2.11548	1.23823	0.59163	0.38758	0.38132	0.34954	0.44775	0.36465	0.28010	1.60985	1.08891	0.71818
136420	0.13250	0.13531	0.08147	0.61032	0.59482	0.50283	2.11326	1.24073	0.59213	0.38884	0.38238	0.34977	0.44669	0.36859	0.28232	1.61212	1.08980	0.71997
136580	0.13495	0.13337	0.08186	0.60917	0.59357	0.50027	2.11261	1.23940	0.59116	0.38631	0.38262	0.34934	0.44745	0.36489	0.28210	1.60838	1.08821	0.71818
136750	0.13697	0.13701	0.08314	0.61200	0.59693	0.50512	2.12057	1.24498	0.59532	0.39111	0.38551	0.35281	0.45082	0.37044	0.28444	1.61522	1.09434	0.72276
136910	0.13429	0.13507	0.08140	0.61125	0.59325	0.50199	2.10929	1.23768	0.59031	0.38764	0.38116	0.34947	0.44634	0.36774	0.28028	1.61015	1.08872	0.71875
137070	0.13293	0.13536	0.08087	0.61072	0.59558	0.50427	2.12598	1.24333	0.59406	0.38929	0.38305	0.35203	0.44952	0.36846	0.28407	1.61044	1.09199	0.72203	29.26	6.2	0.00	7.36	0.01273	0.01295	0.01642	0.00795	0.00592	0.00648	0.00471	0.01273	0.01690	0.00686	0.00709	0.00892	0.01495	0.01099	0.01201	0.00222	0.00631	0.00884
137240	0.13161	0.13465	0.08042	0.60921	0.59326	0.50141	2.11967	1.23823	0.58954	0.38731	0.38024	0.34886	0.44495	0.36457	0.28115	1.60773	1.08784	0.71745
137400	0.13017	0.13330	0.07767	0.60490	0.58963	0.49835	2.11067	1.23360	0.58737	0.38428	0.37832	0.34704	0.44413	0.36608	0.28420	1.60894	1.09100	0.72118
137560	0.13459	0.13418	0.08077	0.60821	0.59205	0.50135	2.12164	1.23924	0.59022	0.38687	0.38102	0.34913	0.44649	0.36452	0.28132	1.60958	1.08890	0.71816
137730	0.13211	0.13400	0.07844	0.60637	0.59026	0.49862	2.10937	1.23427	0.58612	0.38488	0.37942	0.34640	0.44776	0.36680	0.28477	1.61053	1.09166	0.72018
137890	0.13452	0.13399	0.08110	0.60882	0.59226	0.50113	2.11745	1.23877	0.58954	0.38696	0.38107	0.34921	0.44596	0.36603	0.28098	1.60769	1.09009	0.71897
138050	0.13350	0.13346	0.07959	0.60656	0.59083	0.49950	2.11188	1.23658	0.58776	0.38476	0.37928	0.34673	0.44661	0.36625	0.28564	1.61100	1.09227	0.72299
138220	0.13510	0.13525	0.08052	0.60962	0.59361	0.50221	2.11770	1.24284	0.59117	0.38798	0.38195	0.34971	0.44809	0.36976	0.28611	1.60971	1.09264	0.72182
138380	0.13597	0.13787	0.08383	0.61065	0.59562	0.50403	2.12181	1.24378	0.59225	0.38986	0.38360	0.35100	0.44860	0.36782	0.28241	1.60915	1.09081	0.72137
138540	0.13336	0.13579	0.08098	0.60821	0.59204	0.50071	2.11190	1.23579	0.58866	0.38650	0.38126	0.34838	0.44849	0.36940	0.28471	1.61182	1.09277	0.72322
138710	0.13677	0.13488	0.08243	0.61142	0.59640	0.50461	2.11864	1.24183	0.59209	0.38987	0.38354	0.35119	0.44737	0.36884	0.28154	1.61067	1.09221	0.72031	29.26	6.3	0.00	6.44	0.01273	0.01295	0.01642	0.00795	0.00592	0.00648	0.00471	0.01273	0.01690	0.00686	0.00709	0.00892	0.01496	0.01099	0.01201	0.00223	0.00631	0.00884
138870	0.13324	0.13273	0.07952	0.60943	0.59215	0.50060	2.11625	1.24005	0.58805	0.38580	0.38132	0.34860	0.44631	0.36687	0.28374	1.61033	1.09336	0.72222
139030	0.13348	0.13603	0.08079	0.61049	0.59471	0.50335	2.11611	1.23911	0.59137	0.38795	0.38269	0.34977	0.44695	0.36652	0.28158	1.61119	1.09045	0.71962
139200	0.13144	0.13412	0.08023	0.60797	0.59239	0.50039	2.11921	1.23687	0.58767	0.38537	0.38004	0.34755	0.44484	0.36313	0.28061	1.60719	1.08762	0.71617
139360	0.13175	0.13420	0.08301	0.60734	0.59436	0.50517	2.12963	1.24208	0.59446	0.38913	0.38578	0.35223	0.45092	0.36977	0.28257	1.61080	1.09353	0.72206
139520	0.13231	0.13386	0.07953	0.61041	0.59390	0.50303	2.11437	1.23934	0.59073	0.38627	0.38210	0.34957	0.44535	0.36732	0.28196	1.60754	1.09026	0.71798
139690	0.13437	0.13772	0.08271	0.61100	0.59539	0.50606	2.12977	1.24223	0.59492	0.38952	0.38437	0.35182	0.44864	0.36817	0.28178	1.61312	1.09306	0.72065
139850	0.13206	0.13374	0.07917	0.60907	0.59319	0.50192	2.11963	1.23800	0.59068	0.38706	0.38217	0.34950	0.44443	0.36572	0.27968	1.60664	1.08902	0.71759
140010	0.13026	0.13003	0.07698	0.60584	0.59001	0.49985	2.11026	1.23633	0.58662	0.38389	0.37921	0.34727	0.44699	0.36774	0.28390	1.61089	1.09388	0.72287
140170	0.13477	0.13431	0.08027	0.61110	0.59542	0.50404	2.11400	1.24052	0.59077	0.38793	0.38295	0.35021	0.44624	0.36670	0.28023	1.60926	1.09061	0.71919
140340	0.13331	0.13372	0.08046	0.60799	0.59211	0.49993	2.11437	1.23611	0.58728	0.38478	0.37953	0.34798	0.44791	0.36697	0.28769	1.61421	1.09592	0.72439	29.26	6.1	0.00	7.41	0.01273	0.01295	0.01642	0.00795	0.00592	0.00648	0.00471	0.01273	0.01690	0.00686	0.00709	0.00892	0.01496	0.01099	0.01201	0.00223	0.00632	0.00884
140500	0.13527	0.13770	0.08219	0.61239	0.59572	0.50385	2.12135	1.23990	0.59133	0.38788	0.38219	0.35086	0.44728	0.36651	0.28166	1.61275	1.09176	0.71940
140670	0.13304	0.13441	0.08135	0.61101	0.59411	0.50299	2.11743	1.23814	0.59184	0.38808	0.38302	0.35056	0.44812	0.36756	0.28162	1.61069	1.09285	0.72018
140830	0.13332	0.13385	0.07903	0.60917	0.59325	0.50146	2.11493	1.23618	0.58987	0.38735	0.38052	0.34844	0.44463	0.36531	0.28194	1.61005	1.08904	0.71798
140990	0.13288	0.13708	0.08313	0.61086	0.59590	0.50445	2.12208	1.23862	0.59303	0.38895	0.38353	0.35139	0.44602	0.37038	0.28363	1.61413	1.09238	0.72101
141160	0.13145	0.13490	0.08063	0.60907	0.59368	0.50248	2.11524	1.24008	0.59009	0.38772	0.38219	0.34927	0.44551	0.36061	0.28273	1.61095	1.08978	0.71920
141320	0.13575	0.13836	0.08174	0.61139	0.59639	0.50438	2.12402	1.24430	0.59365	0.39060	0.38573	0.35196	0.45165	0.36973	0.28389	1.61464	1.09390	0.72235
141480	0.13516	0.13416	0.08006	0.61075	0.59386	0.50263	2.11650	1.23715	0.58901	0.38798	0.38200	0.35043	0.44681	0.36244	0.28147	1.60854	1.08964	0.71828
141650	0.13426	0.13571	0.08230	0.61081	0.59562	0.50449	2.12030	1.24344	0.59269	0.38931	0.38360	0.35221	0.44903	0.36728	0.28272	1.61228	1.09292	0.72170
141810	0.13365	0.13504	0.08131	0.60995	0.59343	0.50214	2.11938	1.23754	0.59175	0.38758	0.38149	0.35012	0.44599	0.36149	0.28169	1.61108	1.08977	0.71798
141970	0.13332	0.13134	0.07785	0.60613	0.59051	0.49955	2.11725	1.23771	0.58812	0.38513	0.37893	0.34832	0.44821	0.36670	0.28467	1.60935	1.09345	0.72226	29.26	6.1	0.00	7.38	0.01273	0.01295	0.01642	0.00795	0.00592	0.00648	0.00471	0.01273	0.01690	0.00686	0.00709	0.00892	0.01496	0.01099	0.01201	0.00222	0.00632	0.00884
142140	0.13575	0.13570	0.08059	0.60948	0.59431	0.50281	2.12319	1.24046	0.59013	0.38807	0.38163	0.35046	0.44572	0.36640	0.28211	1.60948	1.09217	0.72086
142300	0.13428	0.13426	0.08160	0.60936	0.59519	0.50363	2.12043	1.24058	0.59083	0.38890	0.38254	0.35097	0.44785	0.36514	0.28071	1.61021	1.09309	0.72020
142460	0.13426	0.13438	0.08089	0.60834	0.59292	0.50255	2.12100	1.23902	0.59073	0.38693	0.38092	0.34940	0.44650	0.36994	0.28256	1.60841	1.09230	0.72134
142630	0.13496	0.13566	0.08150	0.60984	0.59428	0.50368	2.12556	1.23807	0.59093	0.38842	0.38183	0.35034	0.44769	0.36406	0.28092	1.61051	1.09210	0.72032
142790	0.13483	0.13386	0.08079	0.60889	0.59335	0.50207	2.11272	1.23544	0.58987	0.38748	0.37981	0.34943	0.44931	0.36553	0.28581	1.60893	1.09397	0.72282
142950	0.13520	0.13826	0.08285	0.61170	0.59626	0.50472	2.11976	1.24212	0.59145	0.38905	0.38269	0.35152	0.44511	0.36566	0.28520	1.60871	1.09262	0.71996
143120	0.13351	0.13420	0.08180	0.60924	0.59428	0.50395	2.11480	1.24246	0.59292	0.39001	0.38242	0.35196	0.44694	0.36713	0.28218	1.61009	1.09265	0.71975
143280	0.13309	0.13414	0.08073	0.60931	0.59344	0.50235	2.11323	1.23907	0.59038	0.38895	0.38146	0.35033	0.44685	0.36564	0.28229	1.60678	1.09020	0.71786
143450	0.13509	0.13661	0.08274	0.61099	0.59651	0.50472	2.12432	1.24203	0.59452	0.39143	0.38443	0.35289	0.44954	0.36458	0.28417	1.61099	1.09305	0.72117
143610	0.13449	0.13330	0.08091	0.61037	0.59527	0.50408	2.11746	1.24064	0.58908	0.39141	0.38344	0.35172	0.44524	0.36398	0.28043	1.60440	1.08802	0.71706	29.26	6.0	0.00	7.36	0.01273	0.01295	0.01642	0.00795	0.00592	0.00648	0.00471	0.01273	0.01690	0.00687	0.00709	0.00892	0.01496	0.01099	0.01201	0.00222	0.00631	0.00884
143770	0.13389	0.13727	0.08319	0.61079	0.59870	0.50708	2.12087	1.24412	0.59572	0.39382	0.38680	0.35449	0.44987	0.36785	0.28377	1.61226	1.09406	0.72171
143940	0.13477	0.13554	0.08145	0.61022	0.59600	0.50515	2.11679	1.23838	0.59142	0.39117	0.38506	0.35142	0.44677	0.36499	0.28094	1.60633	1.08936	0.71742
144100	0.13430	0.13763	0.08482	0.61134	0.59804	0.50770	2.12014	1.24504	0.59464	0.39408	0.38598	0.35419	0.45003	0.36902	0.28256	1.61144	1.09401	0.72159
144260	0.13407	0.13350	0.08094	0.60974	0.59459	0.50394	2.11625	1.23682	0.58936	0.39039	0.38201	0.35103	0.44395	0.36393	0.28080	1.60568	1.08907	0.71672
144420	0.13185	0.13306	0.08121	0.60807	0.59534	0.50398	2.12050	1.23561	0.59047	0.39005	0.38324	0.35147	0.44495	0.36333	0.27729	1.60826	1.09108	0.71792
144590	0.13448	0.13255	0.08061	0.60697	0.59425	0.50324	2.10483	1.24062	0.59325	0.38828	0.37920	0.34918	0.44438	0.36358	0.27764	1.60246	1.08373	0.71559
144750	0.12513	0.12901	0.07599	0.60675	0.59291	0.50140	2.10421	1.23470	0.58607	0.38720	0.37813	0.34725	0.44291	0.36178	0.27810	1.60113	1.08349	0.71347
144910	0.13205	0.13148	0.08098	0.60710	0.59420	0.50365	2.11361	1.23785	0.58814	0.39036	0.38229	0.35036	0.44431	0.36322	0.27858	1.60573	1.08874	0.71700
145080	0.13252	0.13189	0.07865	0.60627	0.59274	0.50255	2.11420	1.23689	0.58904	0.38899	0.38120	0.34944	0.44406	0.36045	0.27904	1.60375	1.08738	0.71532
145240	0.13447	0.13470	0.08329	0.60586	0.59069	0.50012	2.11953	1.24237	0.59402	0.38955	0.38180	0.35190	0.44886	0.36587	0.28349	1.62192	1.09768	0.72356	29.26	6.2	0.00	7.33	0.01273	0.01295	0.01642	0.00795	0.00592	0.00648	0.00471	0.01273	0.01690	0.00687	0.00709	0.00892	0.01496	0.01099	0.01201	0.00223	0.00632	0.00884
145400	0.13278	0.13329	0.07870	0.60378	0.58745	0.49680	2.11309	1.23916	0.58881	0.38640	0.37873	0.34895	0.44531	0.36439	0.28064	1.62334	1.09765	0.72387
145570	0.13326	0.13505	0.07889	0.60463	0.58883	0.49710	2.11933	1.23547	0.59073	0.38735	0.37862	0.34951	0.44505	0.36257	0.27955	1.61754	1.09581	0.72097
145730	0.13243	0.13433	0.07858	0.60336	0.58804	0.49614	2.11655	1.23727	0.58966	0.38728	0.37725	0.34880	0.44707	0.36588	0.28338	1.62042	1.09666	0.72347
145900	0.13489	0.13404	0.08081	0.60502	0.58811	0.49742	2.11244	1.24030	0.59100	0.38808	0.37940	0.35054	0.44540	0.36197	0.27841	1.61767	1.09322	0.72023
146060	0.13132	0.13132	0.07632	0.60100	0.58545	0.49415	2.11998	1.23611	0.58692	0.38544	0.37645	0.34697	0.44575	0.36272	0.28175	1.61982	1.09526	0.72188
146220	0.13148	0.13220	0.07806	0.60462	0.58741	0.49652	2.11584	1.23627	0.58890	0.38778	0.37817	0.34969	0.44860	0.36576	0.28225	1.62364	1.09904	0.72509
146390	0.13438	0.13584	0.08001	0.60793	0.59099	0.49895	2.11953	1.24151	0.59048	0.38973	0.38130	0.35139	0.44744	0.36303	0.28376	1.62270	1.09731	0.72361
146550	0.13216	0.13766	0.08266	0.60540	0.59187	0.50075	2.12620	1.24336	0.59530	0.39202	0.38330	0.35332	0.44957	0.36536	0.28412	1.62678	1.09970	0.72552
146720	0.13327	0.13502	0.08156	0.60496	0.59027	0.49733	2.11961	1.24191	0.59041	0.38805	0.38035	0.34994	0.44947	0.36788	0.28571	1.62330	1.10025	0.72694
146880	0.13728	0.13723	0.08162	0.60986	0.59328	0.50058	2.11877	1.24083	0.59298	0.38848	0.38095	0.35159	0.44552	0.36642	0.28267	1.62579	1.09750	0.72185	29.26	6.3	0.00	7.32	0.01273	0.01295	0.01642	0.00795	0.00592	0.00648	0.00471	0.01273	0.01690	0.00687	0.00709	0.00892	0.01496	0.01099	0.01201	0.00223	0.00632	0.00884
147040	0.13299	0.13412	0.07707	0.60664	0.58976	0.49760	2.11387	1.23836	0.58772	0.38624	0.37877	0.34919	0.44810	0.36294	0.28289	1.62372	1.09989	0.72453
147210	0.13562	0.13635	0.08193	0.60781	0.59065	0.49880	2.12373	1.24209	0.59271	0.38741	0.37910	0.35019	0.44619	0.36675	0.28234	1.62196	1.09530	0.72020
147370	0.13385	0.13138	0.07875	0.60304	0.58682	0.49511	2.11945	1.23598	0.58761	0.38317	0.37557	0.34738	0.44762	0.36458	0.28257	1.62123	1.09740	0.72261
