WetView ver 7.1	07-16-2018	23:53:37
AC9 Absorption and Attenuation Meter
00000266		; Serial number
2	; structure version number
Reserved
0.000000	0.000000		; Depth calibration
19200			; Baud rate
0.100000			; Path length (meters)
31			; number of temperature calibration bins
				12.59339	13.44920	14.48425	15.49668	16.50852	17.49564	18.50545	19.52458	20.50176	21.48889	22.47318	23.48707	24.50962	25.49370	26.49784	27.51372	28.50746	29.47237	30.47938	31.50214	32.50470	33.49235	34.50337	35.50914	36.50618	37.52058	38.51018	39.51308	40.49994	41.49866	42.47204	; temperature bins
a650	Blue	20.34952		-0.00383	-0.00415	-0.00430	-0.00391	-0.00363	-0.00317	-0.00269	-0.00237	-0.00179	-0.00130	-0.00099	-0.00071	-0.00015	0.00000	0.00004	-0.00001	0.00015	0.00036	0.00058	0.00101	0.00161	0.00132	0.00160	0.00169	0.00242	0.00273	0.00336	0.00365	0.00427	0.00566	0.00670		; offset and temperature correction info
a676	Green	20.51193		-0.00398	-0.00384	-0.00360	-0.00306	-0.00302	-0.00255	-0.00235	-0.00212	-0.00163	-0.00136	-0.00118	-0.00089	-0.00029	0.00000	0.00068	0.00082	0.00099	0.00137	0.00145	0.00212	0.00260	0.00252	0.00321	0.00354	0.00457	0.00535	0.00617	0.00648	0.00742	0.00887	0.01002		; offset and temperature correction info
a715	Brown	20.23230		-0.00421	-0.00394	-0.00391	-0.00291	-0.00264	-0.00192	-0.00204	-0.00179	-0.00188	-0.00239	-0.00180	-0.00187	-0.00099	0.00000	0.00084	0.00162	0.00188	0.00224	0.00321	0.00381	0.00466	0.00528	0.00588	0.00696	0.00859	0.01041	0.01148	0.01282	0.01333	0.01456	0.01617		; offset and temperature correction info
c510	Red	20.40042		-0.00261	-0.00247	-0.00258	-0.00225	-0.00203	-0.00197	-0.00199	-0.00203	-0.00154	-0.00103	-0.00069	-0.00019	-0.00007	0.00000	0.00011	-0.00021	-0.00042	-0.00056	-0.00040	0.00011	0.00036	0.00050	0.00077	0.00079	0.00050	0.00042	0.00043	0.00092	0.00147	0.00200	0.00232		; offset and temperature correction info
c532	Magenta	20.40760		-0.00248	-0.00265	-0.00278	-0.00279	-0.00296	-0.00292	-0.00238	-0.00206	-0.00129	-0.00096	-0.00092	-0.00052	-0.00009	0.00000	0.00007	-0.00049	-0.00136	-0.00107	-0.00079	-0.00065	-0.00074	-0.00105	-0.00152	-0.00192	-0.00236	-0.00269	-0.00252	-0.00233	-0.00172	-0.00128	-0.00067		; offset and temperature correction info
c555	Black	20.50654		-0.00053	-0.00063	-0.00106	-0.00094	-0.00068	-0.00055	-0.00053	-0.00039	-0.00028	-0.00025	-0.00011	-0.00035	-0.00007	0.00000	-0.00037	-0.00055	-0.00036	-0.00014	0.00019	0.00044	0.00032	0.00040	0.00050	0.00028	0.00014	0.00013	0.00030	0.00073	0.00117	0.00176	0.00241		; offset and temperature correction info
a412	LtBlue	17.15231		-0.01972	-0.01823	-0.01612	-0.01381	-0.01272	-0.01080	-0.00959	-0.00866	-0.00710	-0.00532	-0.00354	-0.00148	-0.00028	0.00000	0.00176	0.00297	0.00394	0.00440	0.00453	0.00487	0.00804	0.00856	0.01065	0.01248	0.01388	0.01439	0.01659	0.01881	0.02256	0.02450	0.02719		; offset and temperature correction info
a440	LtGreen	18.00171		-0.00729	-0.00642	-0.00581	-0.00502	-0.00426	-0.00349	-0.00244	-0.00218	-0.00179	-0.00101	-0.00046	-0.00006	0.00036	0.00000	0.00040	0.00045	0.00030	-0.00015	-0.00024	-0.00035	0.00012	-0.00013	-0.00033	-0.00089	-0.00142	-0.00189	-0.00231	-0.00205	-0.00140	-0.00140	-0.00146		; offset and temperature correction info
a488	Yellow	18.86491		-0.00113	-0.00102	-0.00106	-0.00064	-0.00027	-0.00020	-0.00030	-0.00037	-0.00047	-0.00059	-0.00052	-0.00012	0.00008	0.00000	0.00025	0.00012	-0.00013	-0.00043	-0.00065	-0.00076	-0.00025	0.00010	0.00090	0.00111	0.00113	0.00104	0.00073	0.00068	0.00120	0.00186	0.00258		; offset and temperature correction info
c650	Blue	20.46075		-0.00145	-0.00097	-0.00092	-0.00139	-0.00185	-0.00196	-0.00237	-0.00266	-0.00238	-0.00163	-0.00083	-0.00041	-0.00010	0.00000	0.00005	-0.00001	0.00015	0.00034	0.00029	0.00065	0.00101	0.00164	0.00126	0.00156	0.00175	0.00270	0.00287	0.00371	0.00407	0.00473	0.00534		; offset and temperature correction info
c676	Green	20.10118		-0.00170	-0.00144	-0.00149	-0.00177	-0.00188	-0.00194	-0.00198	-0.00196	-0.00177	-0.00156	-0.00140	-0.00091	-0.00033	0.00000	0.00050	0.00092	0.00110	0.00141	0.00167	0.00199	0.00216	0.00265	0.00269	0.00289	0.00315	0.00374	0.00367	0.00408	0.00486	0.00561	0.00646		; offset and temperature correction info
c715	Brown	19.91219		-0.01201	-0.01097	-0.00859	-0.00680	-0.00651	-0.00592	-0.00535	-0.00440	-0.00387	-0.00303	-0.00222	-0.00153	-0.00028	0.00000	0.00093	0.00149	0.00247	0.00322	0.00330	0.00427	0.00373	0.00464	0.00536	0.00551	0.00643	0.00733	0.00779	0.00884	0.00899	0.01021	0.01120		; offset and temperature correction info
a510	Red	19.21192		0.00201	0.00193	0.00158	0.00098	0.00089	0.00049	0.00011	-0.00016	-0.00016	-0.00005	0.00028	0.00025	0.00006	0.00000	0.00035	-0.00022	-0.00023	-0.00080	-0.00144	-0.00154	-0.00153	-0.00204	-0.00220	-0.00219	-0.00190	-0.00128	-0.00069	-0.00018	0.00068	0.00152	0.00241		; offset and temperature correction info
a532	Magenta	19.41084		-0.00097	-0.00072	-0.00060	-0.00081	-0.00062	-0.00071	-0.00040	0.00020	0.00028	0.00043	0.00000	-0.00035	0.00007	0.00000	-0.00011	-0.00059	-0.00080	-0.00098	-0.00137	-0.00162	-0.00163	-0.00130	-0.00073	-0.00018	0.00090	0.00185	0.00175	0.00247	0.00291	0.00327	0.00349		; offset and temperature correction info
a555	Black	19.69776		0.00171	0.00183	0.00183	0.00186	0.00191	0.00170	0.00115	0.00131	0.00097	0.00073	0.00060	0.00013	0.00015	0.00000	0.00014	-0.00029	-0.00066	-0.00082	-0.00116	-0.00139	-0.00134	-0.00167	-0.00119	-0.00093	-0.00048	0.00053	0.00111	0.00095	0.00178	0.00206	0.00273		; offset and temperature correction info
c412	LtBlue	19.91180		-0.02051	-0.01853	-0.01589	-0.01311	-0.01059	-0.00877	-0.00705	-0.00581	-0.00413	-0.00231	-0.00098	-0.00066	-0.00011	0.00000	-0.00013	-0.00085	-0.00170	-0.00170	-0.00302	-0.00330	-0.00429	-0.00551	-0.00626	-0.00775	-0.00978	-0.01181	-0.01113	-0.01108	-0.01116	-0.01192	-0.01291		; offset and temperature correction info
c440	LtGreen	20.06241		-0.01064	-0.00992	-0.00892	-0.00766	-0.00639	-0.00531	-0.00478	-0.00384	-0.00287	-0.00187	-0.00102	-0.00063	-0.00023	0.00000	-0.00007	-0.00053	-0.00090	-0.00119	-0.00169	-0.00197	-0.00226	-0.00257	-0.00260	-0.00289	-0.00394	-0.00470	-0.00481	-0.00493	-0.00520	-0.00580	-0.00620		; offset and temperature correction info
c488	Yellow	20.35984		-0.01125	-0.01082	-0.00966	-0.00833	-0.00726	-0.00661	-0.00579	-0.00500	-0.00389	-0.00278	-0.00167	-0.00113	-0.00041	0.00000	0.00055	0.00121	0.00187	0.00226	0.00222	0.00251	0.00281	0.00359	0.00414	0.00427	0.00401	0.00404	0.00486	0.00563	0.00638	0.00684	0.00718		; offset and temperature correction info
0.003500	0.004000	0.015000	0.020000	0.015000	0.020000	2500.000000	2000.000000	1000.000000	; maxANoise	maxCNoise	maxADifference	maxCDifference	minACounts	minCCounts	minRCounts	maxTempSdev	maxDepthSdev
0			; auxilliary capabilities
1			; acquisition binsize
0	0.19782	0.54508	0.18690	0.45975	0.51728	0.46398	0.87599	0.57213	0.37196	0.45351	0.45677	0.45389	0.36495	0.36088	0.34691	0.29728	0.38882	0.48403	23.93	6.1	0.00	7.13	0.01284	0.01301	0.01677	0.00806	0.00600	0.00656	0.00475	0.01283	0.01706	0.00696	0.00715	0.00916	0.01507	0.01108	0.01210	0.00227	0.00641	0.00899
170	0.19253	0.52972	0.18239	0.46130	0.51758	0.46532	0.85590	0.57030	0.36947	0.45449	0.45675	0.45497	0.35566	0.35515	0.34620	0.29780	0.38850	0.48481
330	0.18702	0.52263	0.17515	0.46115	0.51709	0.46529	0.83413	0.56747	0.36581	0.45519	0.45605	0.45463	0.35002	0.35205	0.34545	0.30098	0.39182	0.48846
500	0.18805	0.52265	0.17598	0.46559	0.52089	0.46920	0.82710	0.56569	0.36910	0.45833	0.45951	0.45706	0.34698	0.34594	0.33561	0.30139	0.39058	0.48785
660	0.18417	0.52026	0.17373	0.46349	0.52031	0.46958	0.81566	0.56384	0.36354	0.45813	0.45837	0.45689	0.34391	0.34261	0.33468	0.30039	0.39089	0.48782
820	0.18040	0.51303	0.16728	0.46338	0.51669	0.46691	0.79933	0.56023	0.35973	0.45660	0.45696	0.45484	0.33692	0.33428	0.33004	0.29654	0.38715	0.48447
990	0.18270	0.51494	0.16800	0.46461	0.51924	0.46997	0.79677	0.56005	0.36536	0.45993	0.45975	0.45719	0.34039	0.33467	0.32802	0.30102	0.39226	0.48837
1150	0.18006	0.51341	0.16575	0.46373	0.51773	0.46721	0.78437	0.55348	0.35827	0.45645	0.45630	0.45442	0.33624	0.33235	0.32457	0.29736	0.38841	0.48539
1310	0.17883	0.51301	0.16601	0.46405	0.51891	0.46818	0.78432	0.55218	0.36215	0.45847	0.45728	0.45618	0.33565	0.33158	0.32447	0.29810	0.39082	0.48691
1480	0.17657	0.51475	0.16702	0.46358	0.51716	0.46771	0.78210	0.54900	0.35741	0.45789	0.45741	0.45548	0.33857	0.33013	0.32257	0.29891	0.38990	0.48636
1640	0.17576	0.51353	0.16726	0.46184	0.51652	0.46645	0.77802	0.55070	0.35766	0.45765	0.45554	0.45408	0.34058	0.33241	0.32554	0.29836	0.38836	0.48596	23.93	6.1	0.00	7.21	0.01284	0.01301	0.01677	0.00806	0.00600	0.00656	0.00476	0.01283	0.01706	0.00696	0.00715	0.00916	0.01507	0.01108	0.01210	0.00227	0.00641	0.00898
1800	0.17528	0.51021	0.16563	0.46140	0.51595	0.46564	0.78156	0.55037	0.35783	0.45668	0.45562	0.45342	0.33729	0.32829	0.32265	0.29747	0.38620	0.48432
1970	0.17628	0.51060	0.16681	0.46247	0.51645	0.46619	0.77880	0.55098	0.35825	0.45816	0.45630	0.45472	0.33711	0.33112	0.32721	0.29814	0.38889	0.48695
2130	0.17479	0.50750	0.16655	0.46100	0.51553	0.46446	0.77432	0.55273	0.35655	0.45651	0.45527	0.45342	0.33331	0.32888	0.32514	0.29795	0.38849	0.48414
2290	0.17694	0.50986	0.16659	0.46217	0.51625	0.46670	0.77493	0.55472	0.35807	0.45725	0.45737	0.45493	0.33716	0.33337	0.32772	0.30158	0.39187	0.48689
2460	0.17643	0.50492	0.16302	0.46092	0.51447	0.46455	0.77471	0.55344	0.35744	0.45651	0.45569	0.45319	0.33334	0.32563	0.32406	0.29973	0.38926	0.48511
2620	0.17829	0.50755	0.16452	0.46326	0.51683	0.46632	0.77317	0.55578	0.36285	0.45758	0.45733	0.45455	0.33650	0.32890	0.32215	0.30413	0.39301	0.48739
2780	0.17544	0.51348	0.16738	0.46188	0.51477	0.46522	0.77164	0.54914	0.35482	0.45541	0.45562	0.45318	0.33726	0.33282	0.32547	0.30150	0.39127	0.48564
2950	0.17498	0.50495	0.16322	0.46351	0.51668	0.46763	0.77198	0.55742	0.35998	0.45821	0.45728	0.45548	0.33576	0.33000	0.33059	0.30469	0.39447	0.48917
3110	0.17533	0.50786	0.16316	0.46257	0.51571	0.46509	0.77792	0.55440	0.35913	0.45576	0.45511	0.45258	0.33186	0.32601	0.32001	0.30010	0.39054	0.48597
3270	0.17565	0.50923	0.16610	0.46026	0.51432	0.46320	0.76748	0.55191	0.36071	0.45556	0.45385	0.45247	0.33531	0.32973	0.32447	0.30068	0.38963	0.48457	23.93	6.1	0.00	7.12	0.01284	0.01301	0.01677	0.00806	0.00600	0.00656	0.00476	0.01283	0.01706	0.00696	0.00715	0.00916	0.01507	0.01109	0.01210	0.00227	0.00641	0.00898
3440	0.17578	0.50923	0.16639	0.45980	0.51452	0.46303	0.76813	0.55121	0.35795	0.45492	0.45382	0.45207	0.33890	0.33160	0.32641	0.30183	0.39128	0.48630
3600	0.17612	0.50872	0.16610	0.46163	0.51636	0.46379	0.77883	0.55486	0.35721	0.45597	0.45421	0.45341	0.33447	0.33095	0.32538	0.30187	0.39017	0.48563
3760	0.17498	0.50540	0.16333	0.45956	0.51346	0.46191	0.76825	0.55334	0.35728	0.45462	0.45314	0.45157	0.33365	0.32763	0.32079	0.29683	0.38818	0.48221
3930	0.17270	0.50854	0.16583	0.45871	0.51713	0.46562	0.77371	0.55563	0.36247	0.45864	0.45721	0.45531	0.34156	0.33295	0.32632	0.30590	0.39514	0.48940
4090	0.17952	0.51006	0.16791	0.46264	0.51698	0.46462	0.77303	0.55138	0.35936	0.45509	0.45519	0.45392	0.33845	0.33055	0.32680	0.30394	0.39154	0.48544
4250	0.17408	0.50980	0.16878	0.46065	0.51875	0.46683	0.77515	0.55866	0.36296	0.45816	0.45786	0.45539	0.34098	0.33496	0.32870	0.30923	0.39523	0.48901
4420	0.17450	0.50667	0.16507	0.46310	0.51729	0.46440	0.77235	0.55194	0.36121	0.45495	0.45548	0.45305	0.33516	0.32972	0.32474	0.30442	0.39173	0.48578
4580	0.17588	0.50931	0.16517	0.46104	0.51773	0.46519	0.77368	0.55638	0.36076	0.45628	0.45664	0.45429	0.33866	0.33083	0.32829	0.30783	0.39419	0.48763
4740	0.17651	0.51033	0.16532	0.46193	0.51691	0.46393	0.76969	0.55035	0.35841	0.45388	0.45521	0.45182	0.33835	0.33127	0.32377	0.30490	0.39254	0.48583
4910	0.17256	0.50595	0.16474	0.45706	0.51124	0.45883	0.77018	0.55035	0.35495	0.44973	0.45167	0.44759	0.33895	0.33605	0.33184	0.30642	0.39454	0.48882	23.99	6.1	0.00	7.10	0.01284	0.01301	0.01677	0.00806	0.00600	0.00656	0.00476	0.01283	0.01706	0.00696	0.00715	0.00916	0.01507	0.01108	0.01210	0.00227	0.00641	0.00898
5070	0.17614	0.50926	0.16776	0.46280	0.51764	0.46344	0.77200	0.55834	0.36232	0.45341	0.45683	0.45279	0.33844	0.32965	0.32597	0.30602	0.39249	0.48559
5230	0.17869	0.51068	0.16609	0.46223	0.51658	0.46366	0.77522	0.55685	0.36340	0.45386	0.45690	0.45179	0.34079	0.33295	0.32574	0.30435	0.39221	0.48610
5400	0.17676	0.51301	0.16981	0.46184	0.51553	0.46310	0.76526	0.55218	0.36078	0.45291	0.45555	0.45164	0.34072	0.33281	0.32648	0.30453	0.39247	0.48547
5560	0.17798	0.50927	0.16888	0.46333	0.51869	0.46546	0.77690	0.55636	0.36126	0.45397	0.45664	0.45283	0.34113	0.33524	0.32940	0.30750	0.39469	0.48800
5720	0.17588	0.50704	0.16560	0.46277	0.51658	0.46381	0.76996	0.55699	0.36159	0.45359	0.45630	0.45226	0.33894	0.33030	0.32907	0.30609	0.39326	0.48681
5890	0.17868	0.51074	0.16755	0.46544	0.51910	0.46727	0.77771	0.55843	0.36517	0.45576	0.45784	0.45444	0.34393	0.33552	0.32918	0.31076	0.39698	0.48966
6050	0.17915	0.51039	0.16719	0.46470	0.51725	0.46466	0.77366	0.55288	0.36049	0.45383	0.45523	0.45256	0.34064	0.33426	0.32760	0.30479	0.39308	0.48670
6210	0.17696	0.51130	0.16925	0.46527	0.51978	0.46775	0.77822	0.55777	0.36424	0.45658	0.45776	0.45487	0.34380	0.33563	0.33192	0.30965	0.39645	0.48999
6380	0.17614	0.50789	0.16726	0.46402	0.51855	0.46618	0.77432	0.55691	0.36135	0.45475	0.45390	0.45406	0.33938	0.33470	0.32879	0.30672	0.39325	0.48778
6540	0.17771	0.51067	0.16848	0.46328	0.51737	0.46711	0.78263	0.55821	0.36312	0.45558	0.45561	0.45562	0.34141	0.33559	0.32785	0.30879	0.39304	0.48720	23.93	6.2	0.00	7.17	0.01284	0.01300	0.01677	0.00806	0.00600	0.00656	0.00476	0.01283	0.01706	0.00696	0.00715	0.00916	0.01507	0.01108	0.01210	0.00226	0.00641	0.00898
6700	0.17735	0.50886	0.16522	0.46271	0.51597	0.46420	0.76635	0.55429	0.35918	0.45327	0.45323	0.45297	0.33846	0.33271	0.32548	0.30305	0.38887	0.48479
6870	0.17794	0.51093	0.16714	0.46225	0.51678	0.46524	0.77008	0.55552	0.36219	0.45584	0.45541	0.45467	0.34296	0.33343	0.32893	0.30561	0.39151	0.48730
7030	0.17633	0.50988	0.16718	0.46156	0.51440	0.46377	0.77086	0.55641	0.36154	0.45393	0.45366	0.45256	0.33934	0.33437	0.32788	0.30616	0.39065	0.48576
7190	0.17551	0.51077	0.16529	0.45976	0.51364	0.46192	0.77183	0.55207	0.35837	0.45317	0.45195	0.45088	0.34370	0.33673	0.33147	0.30746	0.39427	0.48995
7360	0.17987	0.51159	0.16839	0.46447	0.51579	0.46600	0.77207	0.55633	0.36240	0.45561	0.45422	0.45295	0.34351	0.33847	0.33054	0.30853	0.39338	0.48829
7520	0.17862	0.51140	0.16980	0.46420	0.51693	0.46620	0.77587	0.56003	0.36205	0.45736	0.45521	0.45380	0.34268	0.33558	0.32990	0.30831	0.39229	0.48801
7680	0.17813	0.51026	0.16641	0.46268	0.51350	0.46377	0.77373	0.55689	0.36111	0.45478	0.45367	0.45165	0.34305	0.33605	0.33024	0.30935	0.39531	0.49058
7850	0.18035	0.51452	0.16943	0.46540	0.51665	0.46670	0.77738	0.56108	0.36598	0.45786	0.45616	0.45370	0.34464	0.33699	0.32766	0.31042	0.39345	0.48835
8010	0.17893	0.51077	0.16814	0.46172	0.51418	0.46316	0.77548	0.55470	0.36126	0.45397	0.45360	0.45123	0.34600	0.33980	0.33284	0.31161	0.39623	0.49127
8170	0.17724	0.51215	0.16994	0.46217	0.51531	0.46404	0.78275	0.55803	0.36222	0.45455	0.45405	0.45185	0.34277	0.33661	0.33173	0.30641	0.39023	0.48620	23.99	6.3	0.00	7.15	0.01284	0.01300	0.01677	0.00805	0.00599	0.00656	0.00475	0.01282	0.01705	0.00696	0.00715	0.00916	0.01507	0.01108	0.01209	0.00226	0.00640	0.00897
8340	0.17544	0.50751	0.16557	0.45874	0.51161	0.46139	0.77753	0.55565	0.36161	0.45182	0.45108	0.44934	0.34250	0.33465	0.33382	0.30815	0.39270	0.48849
8500	0.18078	0.51325	0.16901	0.46285	0.51577	0.46454	0.77629	0.55952	0.36668	0.45465	0.45470	0.45202	0.34265	0.33596	0.32833	0.30674	0.39036	0.48629
8660	0.17761	0.51259	0.16741	0.45951	0.51285	0.46190	0.77215	0.55447	0.36194	0.45145	0.45233	0.44970	0.34503	0.33908	0.32933	0.30570	0.39313	0.48833
8830	0.17891	0.51350	0.16812	0.46114	0.51496	0.46333	0.77929	0.55755	0.36336	0.45382	0.45292	0.45185	0.34088	0.33601	0.33199	0.30626	0.38947	0.48537
8990	0.17764	0.50929	0.16774	0.45815	0.51116	0.46112	0.77022	0.55507	0.36096	0.45185	0.45106	0.44950	0.34412	0.33704	0.33534	0.30711	0.39231	0.48821
9160	0.18034	0.51256	0.16989	0.46148	0.51517	0.46431	0.77373	0.55895	0.36476	0.45378	0.45445	0.45250	0.34409	0.33535	0.32820	0.30482	0.39031	0.48521
9320	0.17839	0.51231	0.17067	0.46100	0.51483	0.46400	0.77509	0.56074	0.36385	0.45386	0.45402	0.45190	0.34496	0.33768	0.33097	0.30563	0.39029	0.48602
9480	0.17850	0.51432	0.16893	0.46048	0.51405	0.46397	0.77129	0.55561	0.36457	0.45345	0.45315	0.45163	0.34592	0.33523	0.33057	0.30615	0.38879	0.48496
9650	0.17984	0.51365	0.17182	0.46253	0.51688	0.46671	0.78287	0.56226	0.36571	0.45583	0.45646	0.45445	0.34627	0.33976	0.33130	0.30811	0.39326	0.48833
9810	0.18005	0.51242	0.16837	0.45849	0.51199	0.46169	0.77450	0.55907	0.36402	0.45116	0.45125	0.44980	0.34119	0.33697	0.33053	0.30253	0.38877	0.48511	23.87	6.1	0.00	7.09	0.01283	0.01300	0.01677	0.00805	0.00599	0.00656	0.00475	0.01282	0.01705	0.00695	0.00715	0.00916	0.01506	0.01108	0.01209	0.00226	0.00640	0.00897
9970	0.17857	0.51359	0.16953	0.45822	0.51176	0.46189	0.77416	0.55888	0.36280	0.45138	0.45210	0.44938	0.34259	0.33523	0.33184	0.30275	0.38785	0.48436
10140	0.17944	0.51119	0.16836	0.45712	0.51097	0.45925	0.77238	0.55500	0.35989	0.44980	0.45007	0.44734	0.34192	0.33744	0.33187	0.30501	0.39022	0.48600
10300	0.18096	0.51251	0.17051	0.45905	0.51258	0.46220	0.78159	0.55896	0.36406	0.45125	0.45197	0.44952	0.34181	0.33496	0.32941	0.30301	0.38785	0.48241
10470	0.18087	0.51570	0.17089	0.45972	0.51463	0.46394	0.77611	0.56059	0.36617	0.45288	0.45407	0.45117	0.34737	0.33911	0.33120	0.30527	0.39077	0.48525
10630	0.17784	0.51675	0.17088	0.45865	0.51201	0.46301	0.77472	0.55721	0.36409	0.45094	0.45191	0.44965	0.34470	0.33704	0.33248	0.30564	0.38952	0.48459
10800	0.17878	0.51425	0.17020	0.45886	0.51346	0.46235	0.78601	0.55977	0.36299	0.45133	0.45286	0.45033	0.34382	0.33847	0.33378	0.30379	0.38784	0.48257
10960	0.17786	0.50919	0.16815	0.45673	0.50976	0.45896	0.77377	0.55671	0.36013	0.44818	0.45068	0.44801	0.34179	0.33260	0.33112	0.30301	0.38970	0.48572
11130	0.18208	0.51702	0.17150	0.45972	0.51401	0.46326	0.78296	0.56235	0.36699	0.45209	0.45450	0.45125	0.34748	0.33566	0.33405	0.30564	0.39010	0.48668
11290	0.18232	0.51714	0.17147	0.46099	0.51424	0.46322	0.77876	0.55830	0.36670	0.45195	0.45396	0.45143	0.34478	0.33530	0.33036	0.30531	0.39104	0.48674
11460	0.18177	0.51535	0.17107	0.45837	0.51335	0.46188	0.77465	0.56088	0.36445	0.45038	0.45379	0.45027	0.34336	0.33490	0.32962	0.30136	0.38593	0.48226	23.99	6.0	0.00	7.14	0.01283	0.01300	0.01677	0.00805	0.00599	0.00655	0.00475	0.01282	0.01705	0.00695	0.00715	0.00915	0.01506	0.01108	0.01209	0.00226	0.00640	0.00897
11620	0.17800	0.51434	0.17191	0.45752	0.51325	0.46339	0.78514	0.56328	0.36530	0.45145	0.45578	0.45094	0.34488	0.33387	0.33143	0.30114	0.38764	0.48368
11790	0.18123	0.51390	0.16946	0.45722	0.51101	0.46069	0.76639	0.55736	0.36047	0.44982	0.45316	0.44916	0.34542	0.33510	0.33287	0.30247	0.38967	0.48602
11950	0.18079	0.51500	0.17004	0.45981	0.51351	0.46332	0.77283	0.55925	0.36514	0.45143	0.45433	0.45113	0.34419	0.33532	0.33034	0.29921	0.38601	0.48305
12110	0.18144	0.51354	0.16854	0.46002	0.51365	0.46370	0.77839	0.56171	0.36590	0.45219	0.45503	0.45198	0.34268	0.33720	0.32889	0.30125	0.38720	0.48441
12280	0.17854	0.51486	0.16976	0.45788	0.51112	0.46087	0.77568	0.55782	0.36364	0.44990	0.45359	0.45008	0.34387	0.33726	0.33304	0.30084	0.38853	0.48583
12440	0.17816	0.51486	0.17090	0.45949	0.51327	0.46383	0.78456	0.55989	0.36522	0.45217	0.45576	0.45169	0.34642	0.33580	0.32988	0.29899	0.38721	0.48381
12610	0.17692	0.51200	0.16950	0.45876	0.51264	0.46346	0.77819	0.56279	0.36362	0.45259	0.45469	0.45180	0.34338	0.33561	0.33337	0.29969	0.38726	0.48424
12770	0.17962	0.51307	0.17078	0.46025	0.51381	0.46376	0.77712	0.56409	0.36425	0.45286	0.45422	0.45219	0.34482	0.33815	0.33149	0.29854	0.38666	0.48353
12930	0.18214	0.51679	0.17105	0.46188	0.51557	0.46750	0.78480	0.56600	0.37009	0.45681	0.45663	0.45449	0.34857	0.33881	0.33388	0.30381	0.39021	0.48674
13100	0.18195	0.51328	0.16802	0.45914	0.51201	0.46222	0.77524	0.55803	0.36323	0.45206	0.45267	0.45199	0.34532	0.33579	0.32895	0.29932	0.38683	0.48317	23.99	6.1	0.00	7.26	0.01283	0.01300	0.01677	0.00805	0.00599	0.00655	0.00475	0.01282	0.01704	0.00695	0.00714	0.00915	0.01506	0.01107	0.01209	0.00226	0.00640	0.00897
13260	0.17795	0.51129	0.17014	0.45819	0.51204	0.46146	0.77675	0.55751	0.36314	0.45213	0.45193	0.45118	0.34241	0.33513	0.33073	0.29788	0.38450	0.48041
13430	0.17616	0.50976	0.16652	0.45502	0.50854	0.45855	0.77158	0.55771	0.35987	0.45057	0.45050	0.44914	0.34314	0.33639	0.33586	0.30073	0.38659	0.48431
13590	0.18127	0.51182	0.16812	0.45834	0.51215	0.46230	0.77536	0.56050	0.36384	0.45315	0.45294	0.45130	0.34109	0.33455	0.32924	0.29932	0.38462	0.48133
13750	0.17844	0.51092	0.16813	0.45639	0.50934	0.45929	0.77728	0.55665	0.36133	0.45097	0.45135	0.44896	0.34427	0.33357	0.32913	0.29840	0.38548	0.48248
13920	0.17690	0.51375	0.16844	0.45867	0.51215	0.46214	0.78238	0.56126	0.36404	0.45329	0.45444	0.45146	0.34514	0.33697	0.33107	0.30203	0.38746	0.48262
14080	0.17972	0.51128	0.16923	0.45742	0.51226	0.46247	0.77892	0.55918	0.36243	0.45301	0.45459	0.45127	0.34564	0.33739	0.33342	0.29955	0.38803	0.48329
14250	0.18091	0.51240	0.16925	0.45854	0.51303	0.46292	0.78102	0.56427	0.36571	0.45428	0.45519	0.45140	0.34136	0.33648	0.33069	0.30025	0.38622	0.48227
14410	0.18125	0.51471	0.17050	0.45776	0.51343	0.46303	0.78626	0.56296	0.36697	0.45445	0.45509	0.45127	0.34386	0.33644	0.32978	0.30136	0.38717	0.48335
14580	0.18055	0.51216	0.17021	0.45781	0.51122	0.46133	0.77824	0.55813	0.36381	0.45262	0.45309	0.44979	0.34535	0.33831	0.33417	0.30266	0.38867	0.48492
14740	0.17842	0.51431	0.17158	0.45716	0.51163	0.46064	0.78158	0.56234	0.36470	0.45247	0.45296	0.44958	0.34290	0.33536	0.32941	0.29478	0.38368	0.48026	23.93	6.0	0.00	7.12	0.01283	0.01300	0.01676	0.00804	0.00599	0.00655	0.00475	0.01281	0.01704	0.00695	0.00714	0.00915	0.01505	0.01107	0.01209	0.00226	0.00640	0.00896
14910	0.17840	0.51483	0.17205	0.45689	0.51168	0.46184	0.77802	0.55827	0.36339	0.45341	0.45353	0.45023	0.35140	0.34197	0.33060	0.29819	0.38623	0.48099
15070	0.17468	0.50510	0.17268	0.45424	0.51035	0.45952	0.77726	0.55444	0.36003	0.45145	0.45074	0.44802	0.34064	0.34714	0.33986	0.29675	0.38488	0.48175
15230	0.17392	0.51060	0.16424	0.45571	0.51102	0.46053	0.78100	0.56517	0.36018	0.45145	0.45030	0.44916	0.33890	0.33689	0.32962	0.29604	0.38460	0.48027
15400	0.17801	0.50898	0.16871	0.45430	0.50953	0.45806	0.77299	0.55768	0.35910	0.44992	0.44906	0.44712	0.34460	0.33895	0.33669	0.29964	0.38957	0.48398
15560	0.17834	0.51099	0.16921	0.45811	0.51266	0.46158	0.77870	0.56186	0.36556	0.45237	0.45163	0.45023	0.34170	0.33401	0.33209	0.29612	0.38492	0.48097
15730	0.18210	0.51234	0.16922	0.45860	0.51403	0.46309	0.77338	0.56582	0.36934	0.45426	0.45388	0.45198	0.34473	0.33834	0.33179	0.30112	0.38785	0.48286
15890	0.18072	0.51314	0.16932	0.45653	0.51122	0.45978	0.78524	0.55872	0.36444	0.45140	0.45015	0.44961	0.34254	0.33528	0.33011	0.29556	0.38351	0.47914
16050	0.18114	0.51526	0.17144	0.45780	0.51345	0.46365	0.78022	0.56231	0.36834	0.45373	0.45274	0.45195	0.34593	0.33878	0.33145	0.30168	0.38877	0.48319
16220	0.18315	0.51392	0.16972	0.45723	0.51091	0.46043	0.77468	0.55912	0.36550	0.45043	0.44946	0.44935	0.34380	0.33603	0.32657	0.29801	0.38403	0.47995
16380	0.17948	0.51278	0.17120	0.45633	0.51085	0.46129	0.77813	0.56033	0.36485	0.45078	0.44994	0.44941	0.34367	0.33598	0.32844	0.29750	0.38497	0.48024	23.93	6.1	0.00	7.27	0.01283	0.01299	0.01676	0.00804	0.00599	0.00655	0.00475	0.01281	0.01704	0.00695	0.00714	0.00915	0.01505	0.01107	0.01208	0.00226	0.00639	0.00896
16540	0.17685	0.51101	0.16810	0.45492	0.50953	0.45833	0.76918	0.55870	0.36251	0.44778	0.44659	0.44689	0.33923	0.33429	0.32768	0.29442	0.38117	0.47679
16700	0.17697	0.50874	0.16587	0.45190	0.50678	0.45647	0.77235	0.55413	0.36125	0.44632	0.44570	0.44459	0.34128	0.33534	0.33196	0.29642	0.38550	0.48076
16870	0.18065	0.51248	0.16866	0.45519	0.50970	0.45885	0.77220	0.55833	0.36253	0.44880	0.44777	0.44668	0.34068	0.33379	0.32622	0.29709	0.38402	0.47889
17030	0.17801	0.51323	0.16634	0.45338	0.50814	0.45683	0.77684	0.55640	0.36201	0.44729	0.44682	0.44494	0.34414	0.33696	0.33297	0.29879	0.38669	0.48156
17200	0.17931	0.51353	0.16971	0.45661	0.51064	0.45885	0.78350	0.56143	0.36231	0.44864	0.44859	0.44666	0.34599	0.33777	0.33138	0.29753	0.38719	0.48082
17360	0.17871	0.51401	0.17080	0.45687	0.51195	0.46104	0.77959	0.56338	0.36693	0.45081	0.45070	0.44861	0.34340	0.33618	0.33001	0.29831	0.38593	0.48006
17520	0.17906	0.51263	0.16961	0.45510	0.50983	0.45795	0.77862	0.55679	0.36196	0.44756	0.44836	0.44595	0.34492	0.33693	0.33263	0.30072	0.38918	0.48326
17690	0.18136	0.51566	0.17237	0.45870	0.51303	0.46235	0.78770	0.56195	0.36671	0.45006	0.45109	0.44889	0.34469	0.33774	0.33489	0.30024	0.38778	0.48183
17850	0.17909	0.51178	0.16754	0.45550	0.51021	0.45875	0.78580	0.56011	0.36169	0.44790	0.44798	0.44573	0.34443	0.33741	0.33315	0.30035	0.38827	0.48354
18010	0.18284	0.51457	0.16948	0.45669	0.51272	0.46059	0.78230	0.56228	0.36637	0.44841	0.45013	0.44706	0.34396	0.33262	0.33000	0.29755	0.38457	0.47985	23.87	6.3	0.00	7.18	0.01283	0.01299	0.01676	0.00804	0.00599	0.00655	0.00475	0.01281	0.01703	0.00695	0.00714	0.00915	0.01505	0.01107	0.01208	0.00226	0.00639	0.00896
18180	0.17832	0.51121	0.16651	0.45323	0.51026	0.45628	0.77591	0.55994	0.36168	0.44618	0.44794	0.44496	0.34349	0.33571	0.33221	0.29725	0.38490	0.48118
18340	0.18048	0.51364	0.16840	0.45585	0.51190	0.45897	0.78431	0.56230	0.36649	0.44831	0.45015	0.44630	0.34190	0.33571	0.32871	0.29440	0.38302	0.47817
18500	0.17853	0.51268	0.16666	0.45241	0.50857	0.45518	0.77864	0.55648	0.36128	0.44512	0.44817	0.44351	0.34230	0.33682	0.33000	0.29488	0.38414	0.47942
18670	0.17879	0.51308	0.17015	0.45428	0.51109	0.45753	0.77481	0.55757	0.36197	0.44686	0.45022	0.44465	0.34332	0.33467	0.32939	0.29366	0.38232	0.47869
18830	0.17923	0.51009	0.16879	0.45368	0.51081	0.45724	0.77649	0.55809	0.36474	0.44677	0.44973	0.44471	0.34072	0.33715	0.33014	0.29510	0.38512	0.47992
18990	0.18201	0.51378	0.16959	0.45461	0.51263	0.45880	0.78250	0.56084	0.36216	0.44737	0.45058	0.44602	0.34224	0.33499	0.33040	0.29547	0.38328	0.47839
19160	0.17918	0.51253	0.16869	0.45383	0.50989	0.45614	0.77713	0.55726	0.36156	0.44553	0.44992	0.44434	0.34299	0.33989	0.33349	0.29763	0.38646	0.48216
19320	0.18071	0.51526	0.17000	0.45765	0.51305	0.45985	0.78309	0.56384	0.36536	0.44941	0.45234	0.44636	0.34352	0.33559	0.32845	0.29573	0.38343	0.47880
19490	0.18283	0.51395	0.17164	0.45806	0.51465	0.46185	0.77981	0.56455	0.36730	0.45125	0.45417	0.44800	0.34564	0.33795	0.32971	0.29610	0.38598	0.48152
19650	0.17925	0.51348	0.16921	0.45425	0.51042	0.45692	0.77634	0.55783	0.36171	0.44679	0.44972	0.44484	0.34078	0.33404	0.33014	0.29120	0.38042	0.47710	23.93	5.9	0.00	7.09	0.01283	0.01299	0.01676	0.00804	0.00599	0.00655	0.00475	0.01281	0.01703	0.00695	0.00714	0.00915	0.01505	0.01107	0.01208	0.00226	0.00639	0.00896
19810	0.18186	0.51596	0.16945	0.45675	0.51528	0.46096	0.78347	0.56294	0.36937	0.45048	0.45319	0.44798	0.34560	0.33922	0.33279	0.29628	0.38654	0.48097
19980	0.18018	0.51467	0.16902	0.45625	0.51308	0.45876	0.77724	0.56009	0.36436	0.44700	0.45122	0.44541	0.34112	0.33467	0.33044	0.29613	0.38336	0.47903
20140	0.17878	0.51189	0.16797	0.45364	0.51155	0.45840	0.77402	0.55618	0.36177	0.44626	0.45067	0.44488	0.33921	0.33407	0.32835	0.29390	0.38126	0.47743
20300	0.17928	0.51236	0.16895	0.45371	0.51153	0.45675	0.77704	0.55681	0.36329	0.44684	0.45060	0.44536	0.34068	0.33360	0.32960	0.29298	0.38206	0.47680
20470	0.18138	0.51551	0.17049	0.45699	0.51616	0.46088	0.77680	0.56383	0.36814	0.45018	0.45436	0.44870	0.34512	0.33940	0.33315	0.30051	0.38823	0.48151
20630	0.18157	0.51456	0.16812	0.45678	0.51487	0.45870	0.77682	0.56283	0.36432	0.44791	0.45256	0.44602	0.34006	0.33374	0.32983	0.29453	0.38326	0.47794
20790	0.17987	0.51267	0.17165	0.45719	0.51624	0.46045	0.78039	0.56239	0.36763	0.44910	0.45404	0.44778	0.34430	0.33646	0.33137	0.29936	0.38722	0.48150
20960	0.17944	0.51339	0.16809	0.45562	0.51412	0.45858	0.78273	0.56110	0.36499	0.44786	0.45227	0.44601	0.34367	0.33561	0.33084	0.29769	0.38657	0.47997
21120	0.17889	0.51253	0.16955	0.45622	0.51539	0.45988	0.77758	0.56124	0.36433	0.44835	0.45323	0.44707	0.34381	0.33526	0.32826	0.29847	0.38580	0.47937
21280	0.17578	0.50952	0.16656	0.45383	0.51250	0.45569	0.77804	0.55773	0.36113	0.44564	0.44948	0.44481	0.33940	0.33498	0.32720	0.29298	0.38171	0.47526	23.93	6.2	0.00	7.14	0.01282	0.01299	0.01676	0.00804	0.00599	0.00655	0.00475	0.01280	0.01703	0.00695	0.00714	0.00915	0.01505	0.01107	0.01208	0.00226	0.00639	0.00896
21440	0.17548	0.51106	0.16824	0.45192	0.51344	0.45832	0.77630	0.56045	0.36465	0.44753	0.45218	0.44644	0.34086	0.33662	0.33054	0.29796	0.38417	0.47803
21610	0.17963	0.50881	0.16743	0.45513	0.51439	0.45725	0.77111	0.55861	0.36264	0.44774	0.45234	0.44534	0.33904	0.33202	0.32895	0.29425	0.38244	0.47699
21770	0.17748	0.51085	0.16729	0.45408	0.51407	0.45922	0.77484	0.55905	0.36353	0.44842	0.45171	0.44702	0.33867	0.33548	0.32711	0.29454	0.38390	0.47867
21940	0.17930	0.51083	0.16763	0.45588	0.51509	0.46029	0.77535	0.56022	0.36373	0.44818	0.45300	0.44595	0.34095	0.33463	0.32839	0.29540	0.38340	0.47755
22100	0.17769	0.51123	0.16970	0.45474	0.51646	0.46247	0.77362	0.56092	0.36711	0.45001	0.45535	0.44843	0.34663	0.33743	0.33009	0.29944	0.38764	0.48193
22260	0.18123	0.51381	0.16859	0.45821	0.51581	0.45980	0.77760	0.55864	0.36431	0.44828	0.45220	0.44606	0.34577	0.33679	0.33111	0.29922	0.38799	0.48213
22430	0.17953	0.51469	0.16838	0.45796	0.51550	0.46026	0.77921	0.56135	0.36351	0.44871	0.45338	0.44703	0.34326	0.33456	0.32908	0.29621	0.38525	0.47987
22590	0.17713	0.51020	0.16653	0.45584	0.51370	0.45748	0.77611	0.55644	0.36035	0.44717	0.45175	0.44450	0.34356	0.33954	0.33318	0.30015	0.38819	0.48368
22760	0.18171	0.51368	0.17033	0.45856	0.51678	0.46107	0.77779	0.56039	0.36390	0.44958	0.45461	0.44770	0.34101	0.33486	0.32926	0.29636	0.38472	0.48073
22920	0.17845	0.51504	0.16839	0.45791	0.51545	0.46104	0.78415	0.56248	0.36367	0.44993	0.45417	0.44733	0.34362	0.33597	0.32924	0.29680	0.38460	0.48063	23.93	6.1	0.00	7.28	0.01282	0.01299	0.01676	0.00804	0.00598	0.00655	0.00475	0.01280	0.01703	0.00695	0.00714	0.00915	0.01504	0.01107	0.01208	0.00226	0.00639	0.00896
23080	0.17540	0.51448	0.16803	0.45702	0.51292	0.45961	0.77531	0.55835	0.36006	0.44835	0.45164	0.44589	0.34078	0.33523	0.32814	0.29394	0.38202	0.47801
23250	0.18053	0.51507	0.17068	0.45950	0.51776	0.46338	0.78249	0.56472	0.36606	0.45043	0.45631	0.44961	0.34514	0.33876	0.32954	0.29936	0.38699	0.48293
23410	0.18018	0.51360	0.16776	0.45841	0.51536	0.45985	0.77472	0.56109	0.36409	0.44899	0.45212	0.44707	0.34404	0.33564	0.32971	0.29688	0.38545	0.48105
23570	0.18011	0.51073	0.16696	0.45747	0.51386	0.46042	0.77977	0.55790	0.36312	0.44804	0.45198	0.44620	0.34132	0.33496	0.32797	0.29305	0.38279	0.47928
23740	0.17607	0.50968	0.16584	0.45561	0.51223	0.45877	0.77108	0.55591	0.36124	0.44753	0.45066	0.44539	0.34147	0.33711	0.32913	0.29695	0.38438	0.48103
23900	0.18029	0.51284	0.16847	0.45767	0.51368	0.46080	0.77806	0.55900	0.36361	0.44880	0.45207	0.44731	0.34112	0.33253	0.32840	0.29662	0.38442	0.48061
24070	0.17740	0.51220	0.16560	0.45646	0.51223	0.45797	0.77828	0.55590	0.36113	0.44781	0.44951	0.44607	0.34439	0.33681	0.33270	0.29628	0.38787	0.48491
24230	0.17819	0.51203	0.17029	0.45929	0.51547	0.46162	0.78708	0.56257	0.36374	0.45026	0.45265	0.44835	0.34369	0.33425	0.33084	0.29610	0.38570	0.48122
24390	0.17895	0.51502	0.16977	0.45933	0.51628	0.46264	0.77980	0.56471	0.36700	0.45178	0.45342	0.44986	0.34313	0.33664	0.33045	0.29769	0.38657	0.48284
24560	0.17748	0.51140	0.16707	0.45644	0.51349	0.45836	0.77314	0.55548	0.36125	0.44884	0.44959	0.44570	0.34212	0.33326	0.32841	0.29413	0.38487	0.48022	23.87	6.1	0.00	7.27	0.01282	0.01299	0.01676	0.00804	0.00598	0.00655	0.00475	0.01280	0.01702	0.00695	0.00714	0.00915	0.01504	0.01106	0.01208	0.00226	0.00639	0.00895
24720	0.17651	0.51264	0.16706	0.45628	0.51342	0.45975	0.77751	0.55884	0.36021	0.44944	0.45052	0.44636	0.34219	0.33718	0.33001	0.29621	0.38636	0.48155
24890	0.17985	0.51236	0.16830	0.45682	0.51411	0.45983	0.77419	0.55911	0.36272	0.45032	0.45069	0.44778	0.34317	0.33624	0.33006	0.29454	0.38483	0.48099
25050	0.17822	0.51019	0.16652	0.45624	0.51312	0.45826	0.77734	0.55780	0.35956	0.44943	0.44910	0.44664	0.34561	0.33875	0.33463	0.29948	0.38964	0.48570
25220	0.18203	0.51550	0.16892	0.46077	0.51733	0.46368	0.77849	0.56287	0.36538	0.45276	0.45303	0.45004	0.34512	0.33783	0.33198	0.29944	0.38697	0.48366
25380	0.18078	0.51395	0.16855	0.45906	0.51714	0.46314	0.78321	0.56114	0.36625	0.45273	0.45210	0.45032	0.34436	0.33813	0.33307	0.29940	0.38812	0.48265
25540	0.17913	0.51252	0.16551	0.45840	0.51350	0.46038	0.76987	0.55755	0.36391	0.45097	0.44860	0.44698	0.33961	0.33359	0.32874	0.29424	0.38408	0.47904
25710	0.17926	0.51102	0.16908	0.45921	0.51484	0.46284	0.77260	0.56178	0.36741	0.45233	0.45021	0.44958	0.34353	0.33662	0.33198	0.29766	0.38726	0.48220
25870	0.17828	0.51326	0.16715	0.45826	0.51258	0.46068	0.77729	0.55933	0.36533	0.44972	0.44853	0.44647	0.34240	0.33368	0.32852	0.29283	0.38341	0.47893
26030	0.17731	0.50970	0.16471	0.45447	0.50942	0.45748	0.77209	0.55464	0.35887	0.44762	0.44620	0.44428	0.34331	0.33722	0.33144	0.29669	0.38869	0.48404
26200	0.17911	0.51317	0.16634	0.45920	0.51302	0.46078	0.77729	0.55843	0.36300	0.45113	0.44883	0.44626	0.34161	0.33432	0.32693	0.29262	0.38335	0.47918	23.87	6.1	0.00	7.13	0.01282	0.01299	0.01675	0.00804	0.00598	0.00654	0.00474	0.01280	0.01702	0.00695	0.00714	0.00914	0.01504	0.01106	0.01208	0.00226	0.00639	0.00895
26360	0.17791	0.51189	0.16838	0.45778	0.51257	0.45978	0.78413	0.55930	0.36432	0.45173	0.44864	0.44627	0.34204	0.33503	0.32849	0.29348	0.38406	0.48011
26520	0.17917	0.51028	0.16788	0.45702	0.51085	0.45893	0.77319	0.55805	0.36338	0.45079	0.44889	0.44473	0.34229	0.33462	0.32745	0.29333	0.38376	0.47901
26690	0.17851	0.51198	0.16851	0.45871	0.51363	0.46152	0.78513	0.56239	0.36544	0.45321	0.45139	0.44743	0.34384	0.33821	0.33155	0.29648	0.38754	0.48233
26850	0.18016	0.51092	0.16804	0.45706	0.51109	0.45850	0.77414	0.55797	0.36161	0.45008	0.44865	0.44466	0.34008	0.33199	0.32671	0.29277	0.38379	0.47816
27010	0.18019	0.51404	0.17000	0.45976	0.51489	0.46296	0.77790	0.56540	0.36693	0.45349	0.45150	0.44783	0.34466	0.33764	0.33183	0.29931	0.38919	0.48359
27180	0.17952	0.51115	0.16870	0.45975	0.51189	0.45973	0.77646	0.55912	0.36539	0.45125	0.44869	0.44506	0.34303	0.33747	0.33149	0.30009	0.38692	0.48161
27340	0.17855	0.51245	0.16648	0.45730	0.51081	0.45850	0.78179	0.55791	0.36304	0.45031	0.44806	0.44423	0.34166	0.33405	0.32794	0.29548	0.38503	0.48006
27500	0.17618	0.51348	0.16716	0.45614	0.50971	0.45709	0.77898	0.56053	0.36109	0.44893	0.44710	0.44324	0.34227	0.33537	0.32707	0.29793	0.38694	0.48152
27670	0.17843	0.51512	0.16800	0.45723	0.51143	0.45942	0.77609	0.56012	0.36440	0.45067	0.44909	0.44434	0.34212	0.33354	0.32986	0.29559	0.38670	0.48069
27830	0.17600	0.51027	0.16569	0.45418	0.50793	0.45749	0.77222	0.55711	0.36134	0.44865	0.44658	0.44265	0.34158	0.33478	0.33075	0.29919	0.38703	0.48165	23.93	6.1	0.00	7.17	0.01282	0.01298	0.01675	0.00804	0.00598	0.00654	0.00474	0.01280	0.01702	0.00695	0.00714	0.00914	0.01504	0.01106	0.01207	0.00226	0.00639	0.00895
28000	0.17825	0.51085	0.16891	0.45711	0.51074	0.45908	0.77420	0.56065	0.36586	0.45046	0.44780	0.44381	0.34175	0.33275	0.33090	0.29885	0.38794	0.48131
28160	0.17809	0.51281	0.16775	0.45803	0.51188	0.45981	0.77632	0.56006	0.36492	0.45017	0.44904	0.44503	0.34312	0.33563	0.33024	0.29893	0.38705	0.48034
28320	0.17782	0.51168	0.16836	0.45616	0.51142	0.45856	0.77718	0.55928	0.36494	0.44962	0.44772	0.44503	0.34137	0.33595	0.32835	0.29573	0.38694	0.48025
28490	0.17806	0.51014	0.16719	0.45632	0.51056	0.45808	0.77928	0.55831	0.36278	0.44861	0.44792	0.44359	0.33861	0.33439	0.32941	0.29640	0.38480	0.47854
28650	0.17660	0.50976	0.16863	0.45538	0.51224	0.45938	0.78250	0.56108	0.36454	0.44967	0.44901	0.44506	0.34173	0.33655	0.33069	0.29737	0.38827	0.48144
28820	0.17940	0.51291	0.16534	0.45696	0.51089	0.45688	0.76997	0.55928	0.36231	0.44780	0.44682	0.44312	0.34464	0.33391	0.32890	0.29718	0.38851	0.48041
28980	0.17707	0.51314	0.16861	0.45774	0.51184	0.45792	0.77854	0.55743	0.36358	0.44773	0.44841	0.44328	0.34451	0.33445	0.32914	0.29752	0.38857	0.48063
29150	0.17827	0.51057	0.16692	0.45603	0.51072	0.45676	0.76775	0.55769	0.36132	0.44671	0.44750	0.44252	0.34449	0.33927	0.33338	0.30045	0.39110	0.48437
29310	0.18152	0.51301	0.16825	0.45962	0.51461	0.46035	0.77879	0.55991	0.36422	0.44898	0.44992	0.44448	0.34337	0.33406	0.33156	0.29714	0.38901	0.48065
29470	0.17840	0.51173	0.16719	0.45669	0.51218	0.45823	0.77424	0.56132	0.36502	0.44705	0.44762	0.44382	0.34093	0.33331	0.33025	0.29504	0.38628	0.47968	23.87	6.1	0.00	7.21	0.01282	0.01298	0.01675	0.00803	0.00598	0.00654	0.00474	0.01280	0.01702	0.00694	0.00713	0.00914	0.01504	0.01106	0.01207	0.00226	0.00639	0.00895
29640	0.17884	0.51150	0.16720	0.45498	0.50970	0.45633	0.77402	0.56087	0.36121	0.44507	0.44705	0.44210	0.34216	0.33117	0.32809	0.29464	0.38356	0.47768
29800	0.17839	0.51410	0.16947	0.45834	0.51400	0.46077	0.78781	0.56497	0.36658	0.44896	0.45035	0.44577	0.34355	0.33690	0.33040	0.29802	0.38891	0.48210
29960	0.17886	0.51255	0.16819	0.45720	0.51128	0.45839	0.77612	0.55908	0.36370	0.44599	0.44721	0.44376	0.34084	0.33568	0.33082	0.29556	0.38608	0.47982
30130	0.17659	0.51111	0.16587	0.45571	0.51004	0.45701	0.77661	0.55899	0.36256	0.44587	0.44625	0.44253	0.34191	0.33141	0.32897	0.29393	0.38444	0.47810
30290	0.17740	0.51144	0.16592	0.45417	0.50849	0.45564	0.77835	0.55983	0.36231	0.44556	0.44577	0.44248	0.33899	0.33251	0.32541	0.29174	0.38150	0.47566
30450	0.17827	0.51480	0.16895	0.45716	0.51273	0.46083	0.78527	0.56559	0.36664	0.44944	0.44959	0.44569	0.34365	0.33633	0.33080	0.29861	0.38877	0.48263
30620	0.17882	0.51225	0.16611	0.45740	0.51153	0.45744	0.78786	0.55853	0.36261	0.44718	0.44665	0.44388	0.34089	0.33559	0.33117	0.29839	0.38483	0.47913
30780	0.17730	0.50996	0.16801	0.45481	0.51052	0.45720	0.77651	0.56206	0.36518	0.44571	0.44583	0.44257	0.33919	0.33176	0.32923	0.29616	0.38409	0.47832
30940	0.17536	0.51086	0.16631	0.45357	0.50871	0.45524	0.78091	0.55907	0.36094	0.44500	0.44601	0.44165	0.33955	0.33449	0.33067	0.29731	0.38509	0.47992
31110	0.17714	0.50997	0.16544	0.45486	0.51160	0.45690	0.78323	0.56057	0.36360	0.44587	0.44701	0.44185	0.34053	0.33226	0.32813	0.29592	0.38360	0.47783	23.87	6.2	0.00	7.28	0.01282	0.01298	0.01675	0.00803	0.00598	0.00654	0.00474	0.01279	0.01702	0.00694	0.00713	0.00914	0.01504	0.01106	0.01207	0.00226	0.00639	0.00895
31270	0.17781	0.50967	0.16591	0.45300	0.50915	0.45505	0.77634	0.55756	0.35969	0.44372	0.44576	0.44053	0.34237	0.33626	0.32936	0.29622	0.38620	0.47986
31440	0.17878	0.51064	0.16785	0.45538	0.51177	0.45728	0.78304	0.56173	0.36366	0.44532	0.44756	0.44296	0.34314	0.33576	0.32959	0.29797	0.38736	0.48031
31600	0.17996	0.51160	0.16915	0.45753	0.51362	0.45902	0.78448	0.56300	0.36682	0.44705	0.44893	0.44472	0.34351	0.33429	0.33159	0.29804	0.38550	0.47965
31760	0.17731	0.51117	0.16731	0.45585	0.51192	0.45781	0.78460	0.56024	0.36392	0.44651	0.44773	0.44307	0.34395	0.33354	0.32818	0.29719	0.38524	0.47757
31930	0.17559	0.51307	0.16635	0.45489	0.51057	0.45754	0.77580	0.55862	0.36180	0.44431	0.44609	0.44225	0.34193	0.33263	0.32637	0.29566	0.38326	0.47624
32090	0.17762	0.51083	0.16715	0.45404	0.51286	0.45847	0.77781	0.56296	0.36581	0.44742	0.44844	0.44394	0.34290	0.33702	0.33074	0.29990	0.38599	0.47920
32260	0.17923	0.51278	0.16690	0.45539	0.51183	0.45655	0.77636	0.55896	0.36246	0.44511	0.44773	0.44226	0.33972	0.33396	0.32812	0.29540	0.38408	0.47678
32420	0.17743	0.51267	0.16959	0.45459	0.51340	0.45933	0.79018	0.56370	0.36806	0.44793	0.44970	0.44474	0.34441	0.33741	0.32792	0.30068	0.38884	0.48094
32580	0.17769	0.51123	0.16796	0.45690	0.51212	0.45712	0.77932	0.55991	0.36400	0.44493	0.44739	0.44189	0.34396	0.33633	0.33183	0.29941	0.38814	0.47952
32750	0.17851	0.51014	0.16880	0.45469	0.51119	0.45738	0.77247	0.55741	0.36274	0.44482	0.44532	0.44127	0.33855	0.33361	0.32597	0.29604	0.38377	0.47705	23.99	6.2	0.00	7.19	0.01282	0.01298	0.01675	0.00803	0.00598	0.00654	0.00474	0.01279	0.01702	0.00694	0.00713	0.00914	0.01503	0.01106	0.01207	0.00226	0.00639	0.00895
32910	0.17800	0.50998	0.16533	0.45318	0.50903	0.45494	0.77352	0.55740	0.36075	0.44295	0.44503	0.44020	0.34037	0.33577	0.32738	0.29648	0.38578	0.47983
33080	0.17872	0.51203	0.16755	0.45543	0.51190	0.45764	0.77711	0.56115	0.36402	0.44519	0.44663	0.44214	0.33939	0.33345	0.32709	0.29637	0.38392	0.47776
33240	0.17783	0.50877	0.16574	0.45389	0.50843	0.45496	0.77406	0.55307	0.36024	0.44259	0.44516	0.43881	0.34388	0.33742	0.33050	0.30202	0.38979	0.48324
33400	0.17880	0.51162	0.16890	0.45912	0.51393	0.45996	0.78323	0.56340	0.36365	0.44592	0.44914	0.44423	0.34380	0.33629	0.32974	0.30183	0.38662	0.48012
33570	0.18197	0.51294	0.16956	0.45963	0.51517	0.46213	0.78403	0.56346	0.36873	0.44944	0.45090	0.44531	0.34548	0.33703	0.33418	0.30299	0.38869	0.48301
33730	0.18106	0.51218	0.16836	0.45828	0.51268	0.45864	0.78056	0.56217	0.36472	0.44613	0.44805	0.44308	0.34131	0.33414	0.32739	0.29838	0.38446	0.47879
33890	0.18014	0.51274	0.16985	0.45824	0.51445	0.46094	0.77978	0.56492	0.36825	0.44754	0.44866	0.44493	0.34438	0.33663	0.32654	0.30131	0.38736	0.48080
34050	0.17582	0.51146	0.16834	0.45687	0.51186	0.45880	0.77983	0.55735	0.36125	0.44515	0.44555	0.44248	0.33827	0.33612	0.33100	0.29556	0.38307	0.47710
34220	0.17585	0.50550	0.16415	0.45356	0.50764	0.45573	0.77738	0.55946	0.35961	0.44372	0.44444	0.44023	0.33977	0.33091	0.32990	0.29760	0.38512	0.47964
34380	0.17864	0.50960	0.16326	0.45449	0.50874	0.45853	0.77728	0.56034	0.36239	0.44504	0.44472	0.44299	0.33699	0.33209	0.32621	0.29701	0.38305	0.47747	23.87	6.2	0.00	7.19	0.01282	0.01298	0.01675	0.00803	0.00598	0.00654	0.00474	0.01279	0.01701	0.00694	0.00713	0.00914	0.01503	0.01106	0.01207	0.00226	0.00639	0.00895
34540	0.17788	0.50921	0.16522	0.45374	0.50779	0.45718	0.77872	0.55867	0.36273	0.44481	0.44551	0.44278	0.33937	0.33371	0.33018	0.29590	0.38483	0.47913
34710	0.17837	0.51145	0.16710	0.45571	0.51003	0.45877	0.77439	0.55876	0.36239	0.44640	0.44691	0.44323	0.33834	0.33334	0.32843	0.29750	0.38403	0.47800
34870	0.17678	0.51187	0.16657	0.45477	0.50925	0.45774	0.77759	0.55542	0.36018	0.44605	0.44655	0.44277	0.34358	0.33886	0.33159	0.29920	0.38612	0.48010
35040	0.17595	0.50762	0.16831	0.45621	0.51069	0.45926	0.78199	0.55969	0.36019	0.44806	0.44782	0.44393	0.33935	0.33453	0.33614	0.30024	0.38720	0.48057
35200	0.18064	0.50766	0.16659	0.45827	0.51252	0.46013	0.77420	0.56355	0.36678	0.44842	0.44844	0.44580	0.33851	0.33330	0.32747	0.29816	0.38515	0.48025
35360	0.18044	0.51369	0.16737	0.45693	0.51065	0.45986	0.77879	0.55794	0.36523	0.44736	0.44712	0.44392	0.34537	0.33351	0.32527	0.30010	0.38633	0.48061
35530	0.17796	0.51476	0.17070	0.45690	0.51155	0.45923	0.77576	0.55526	0.36090	0.44791	0.44753	0.44374	0.34293	0.33470	0.32541	0.29724	0.38475	0.47924
35690	0.17546	0.51301	0.16919	0.45541	0.51328	0.46168	0.78221	0.56490	0.36392	0.44920	0.44990	0.44550	0.34361	0.33866	0.33120	0.30036	0.38935	0.48312
35860	0.17915	0.51136	0.16702	0.45708	0.51129	0.45963	0.78346	0.55781	0.35957	0.44780	0.44821	0.44313	0.33961	0.33957	0.33468	0.30028	0.38864	0.48271
36020	0.17897	0.50450	0.16499	0.45758	0.51158	0.46027	0.78344	0.56218	0.36085	0.44699	0.44774	0.44410	0.33693	0.33322	0.33222	0.29617	0.38510	0.48020	23.99	6.1	0.00	7.23	0.01282	0.01298	0.01675	0.00803	0.00598	0.00654	0.00474	0.01279	0.01701	0.00694	0.00713	0.00914	0.01503	0.01106	0.01207	0.00226	0.00638	0.00895
36190	0.17916	0.50898	0.16708	0.45629	0.51138	0.46067	0.77666	0.56064	0.36589	0.44828	0.44789	0.44421	0.33955	0.33570	0.33028	0.29833	0.38698	0.48150
36350	0.18128	0.51381	0.16689	0.45646	0.51075	0.46039	0.77302	0.55821	0.36359	0.44896	0.44692	0.44346	0.34063	0.33185	0.32850	0.29859	0.38543	0.48044
36510	0.18032	0.51593	0.16772	0.45783	0.51395	0.46212	0.77979	0.56263	0.36537	0.45071	0.44997	0.44559	0.34535	0.33848	0.33248	0.29859	0.38831	0.48253
36680	0.17903	0.51129	0.16505	0.45686	0.51072	0.46083	0.77385	0.55561	0.35882	0.44762	0.44746	0.44347	0.34092	0.33673	0.33170	0.30004	0.38879	0.48346
36840	0.17849	0.51124	0.16794	0.45730	0.51244	0.46227	0.77075	0.55948	0.36270	0.44815	0.44922	0.44446	0.34066	0.33453	0.32922	0.29956	0.38699	0.48174
37010	0.17796	0.51057	0.16650	0.45813	0.51236	0.46227	0.77576	0.56014	0.36176	0.44913	0.44723	0.44435	0.34255	0.33458	0.32949	0.29863	0.38728	0.48214
37170	0.17923	0.51173	0.16923	0.45810	0.51238	0.46199	0.77769	0.55796	0.36202	0.45009	0.44936	0.44573	0.34209	0.33251	0.33067	0.29978	0.38690	0.48180
37330	0.17901	0.51257	0.16887	0.45977	0.51593	0.46560	0.78048	0.56208	0.36763	0.45250	0.45066	0.44708	0.34506	0.33611	0.33209	0.30305	0.39012	0.48431
37500	0.18110	0.51158	0.16752	0.45967	0.51326	0.46195	0.77239	0.55734	0.36414	0.44875	0.44844	0.44433	0.34276	0.33397	0.32999	0.30286	0.38895	0.48350
37660	0.17847	0.51335	0.16751	0.45754	0.51151	0.46087	0.77825	0.55505	0.36219	0.44740	0.44718	0.44433	0.34089	0.33325	0.32758	0.29910	0.38529	0.48073	23.99	6.2	0.00	7.20	0.01281	0.01298	0.01675	0.00803	0.00598	0.00654	0.00474	0.01279	0.01701	0.00694	0.00713	0.00914	0.01503	0.01106	0.01207	0.00226	0.00638	0.00895
37830	0.17551	0.51236	0.16670	0.45617	0.51091	0.46011	0.77067	0.55593	0.35979	0.44721	0.44675	0.44330	0.34189	0.33507	0.33243	0.29988	0.38715	0.48249
37990	0.17939	0.51301	0.16803	0.45845	0.51200	0.46214	0.78010	0.55814	0.36139	0.44876	0.44813	0.44470	0.34553	0.33446	0.32925	0.30014	0.38671	0.48057
38150	0.17790	0.50992	0.16468	0.45525	0.50901	0.45894	0.77597	0.55695	0.35931	0.44641	0.44579	0.44318	0.34059	0.33490	0.33005	0.29817	0.38743	0.48079
38320	0.18065	0.51279	0.16901	0.45814	0.51211	0.46157	0.78206	0.56011	0.36349	0.44829	0.44907	0.44470	0.34236	0.33677	0.32971	0.30044	0.38868	0.48310
38480	0.18031	0.51470	0.16818	0.45953	0.51280	0.46182	0.77448	0.55993	0.36398	0.44918	0.44816	0.44501	0.34317	0.33645	0.33211	0.30259	0.39047	0.48421
38650	0.18129	0.51466	0.16952	0.46102	0.51461	0.46355	0.77223	0.56315	0.36483	0.45047	0.44973	0.44689	0.34393	0.33687	0.32640	0.30218	0.38728	0.48215
38810	0.17780	0.51309	0.16829	0.45769	0.51310	0.46388	0.77629	0.56097	0.36792	0.45092	0.45081	0.44753	0.34526	0.33900	0.33375	0.30304	0.38928	0.48429
38980	0.17940	0.51392	0.16696	0.45875	0.51171	0.46150	0.76908	0.55901	0.36445	0.44873	0.44888	0.44622	0.34376	0.33847	0.33218	0.30337	0.39018	0.48432
39140	0.18019	0.51472	0.17057	0.46138	0.51478	0.46368	0.77360	0.55976	0.36441	0.44953	0.44936	0.44709	0.34582	0.33533	0.33206	0.29999	0.38664	0.48236
39310	0.17819	0.51335	0.16853	0.45838	0.51242	0.46129	0.77526	0.56016	0.36387	0.44905	0.44908	0.44695	0.34339	0.33805	0.32974	0.29836	0.38607	0.48069	23.93	6.1	0.00	7.14	0.01281	0.01298	0.01675	0.00803	0.00598	0.00654	0.00474	0.01279	0.01701	0.00694	0.00713	0.00914	0.01503	0.01105	0.01207	0.00226	0.00638	0.00895
39470	0.17742	0.51485	0.16657	0.45695	0.51048	0.45949	0.77813	0.55673	0.36139	0.44785	0.44822	0.44474	0.34062	0.33788	0.33183	0.29506	0.38313	0.47894
39630	0.17630	0.51205	0.16845	0.45822	0.51204	0.46222	0.78138	0.56553	0.36500	0.44938	0.45033	0.44771	0.34434	0.33473	0.33160	0.29788	0.38676	0.48165
39800	0.17998	0.50910	0.16788	0.45657	0.51034	0.45978	0.77629	0.55656	0.36317	0.44765	0.44860	0.44451	0.34011	0.33340	0.32685	0.29725	0.38295	0.47856
39960	0.17954	0.51548	0.16973	0.45954	0.51337	0.46416	0.78270	0.56681	0.36729	0.45142	0.45213	0.44820	0.34661	0.33837	0.33212	0.29836	0.38806	0.48288
40120	0.17875	0.51344	0.16728	0.45861	0.51196	0.46079	0.77678	0.55781	0.36265	0.44782	0.44832	0.44578	0.34196	0.33814	0.33054	0.29903	0.38579	0.48157
40290	0.17764	0.51174	0.16622	0.45620	0.51088	0.45982	0.77844	0.55735	0.36249	0.44743	0.44863	0.44440	0.34112	0.33850	0.32978	0.29565	0.38438	0.47912
40450	0.17789	0.50760	0.16596	0.45538	0.50979	0.45794	0.77382	0.55795	0.36043	0.44592	0.44788	0.44343	0.33887	0.33425	0.32828	0.29342	0.38308	0.47788
40610	0.17969	0.51504	0.17019	0.45836	0.51345	0.46324	0.78463	0.56465	0.36847	0.45115	0.45137	0.44790	0.34489	0.33923	0.33331	0.30093	0.38882	0.48323
40780	0.17974	0.51409	0.16898	0.45734	0.51151	0.45978	0.77429	0.55816	0.36059	0.44779	0.44800	0.44471	0.34306	0.33780	0.33021	0.29617	0.38577	0.48111
40940	0.17468	0.50837	0.16639	0.45523	0.51044	0.45909	0.77544	0.55837	0.36164	0.44610	0.44611	0.44366	0.34121	0.33311	0.32982	0.29715	0.38341	0.47826	23.93	6.2	0.00	7.23	0.01281	0.01298	0.01675	0.00803	0.00598	0.00654	0.00474	0.01279	0.01701	0.00694	0.00713	0.00914	0.01503	0.01105	0.01207	0.00226	0.00638	0.00894
41100	0.17804	0.50778	0.16363	0.45420	0.50973	0.45700	0.77877	0.55923	0.36134	0.44599	0.44670	0.44409	0.34105	0.33505	0.33035	0.30135	0.38591	0.48031
41270	0.18076	0.51572	0.16803	0.45585	0.51135	0.45927	0.77970	0.55665	0.36129	0.44698	0.44706	0.44412	0.34545	0.33646	0.32877	0.29770	0.38532	0.47993
41430	0.17656	0.50747	0.16516	0.45414	0.50929	0.45610	0.77317	0.55635	0.35940	0.44469	0.44474	0.44328	0.34190	0.33660	0.33310	0.30101	0.38790	0.48238
41600	0.17642	0.51249	0.16791	0.45715	0.51145	0.45894	0.78545	0.56125	0.36427	0.44749	0.44638	0.44565	0.34392	0.33490	0.33165	0.30172	0.38857	0.48252
41760	0.18249	0.51482	0.16935	0.45825	0.51311	0.46134	0.78518	0.56017	0.36578	0.44965	0.44677	0.44642	0.34352	0.33707	0.33050	0.30075	0.38697	0.48093
41920	0.17867	0.51180	0.16662	0.45600	0.51072	0.45967	0.78077	0.56232	0.36497	0.44839	0.44680	0.44622	0.34208	0.33606	0.32953	0.30090	0.38582	0.47963
42090	0.17845	0.51106	0.16534	0.45444	0.50943	0.45792	0.77270	0.55805	0.36543	0.44726	0.44478	0.44456	0.34296	0.33072	0.32569	0.29789	0.38305	0.47763
42250	0.17604	0.51313	0.16677	0.45332	0.51041	0.45885	0.78085	0.56158	0.36541	0.44744	0.44492	0.44556	0.34567	0.33628	0.32879	0.30049	0.38549	0.48000
42420	0.17751	0.51341	0.16630	0.45459	0.50978	0.45766	0.77168	0.55891	0.36133	0.44730	0.44460	0.44341	0.33219	0.32856	0.33263	0.29640	0.38150	0.47700
42580	0.17872	0.50385	0.16615	0.45263	0.50961	0.45805	0.78132	0.56345	0.37478	0.44735	0.44513	0.44454	0.34141	0.32643	0.32212	0.29854	0.38458	0.47940	23.93	6.2	0.00	7.30	0.01281	0.01298	0.01675	0.00803	0.00598	0.00654	0.00474	0.01279	0.01701	0.00694	0.00713	0.00914	0.01503	0.01105	0.01207	0.00226	0.00638	0.00894
42740	0.17803	0.51938	0.16747	0.45361	0.50693	0.45436	0.77489	0.55123	0.35588	0.44407	0.44140	0.44128	0.34625	0.33251	0.31485	0.29665	0.38540	0.47942
42910	0.17285	0.49592	0.16411	0.45283	0.50627	0.45409	0.78010	0.54651	0.34923	0.44658	0.44305	0.44367	0.32782	0.32067	0.30789	0.29847	0.38394	0.47656
43070	0.16380	0.48345	0.15724	0.44556	0.49824	0.44655	0.76876	0.53976	0.34275	0.43806	0.43652	0.43550	0.31860	0.31390	0.31069	0.28881	0.37940	0.47772
43240	0.16909	0.47109	0.15447	0.45712	0.51314	0.46189	0.77694	0.54791	0.35562	0.45383	0.45300	0.45127	0.32752	0.32086	0.31013	0.30587	0.39000	0.48246
43400	0.17300	0.49032	0.15538	0.45849	0.51248	0.45897	0.77775	0.55041	0.35922	0.44701	0.44520	0.44360	0.32077	0.31957	0.31364	0.29784	0.38600	0.48169
43560	0.17173	0.48246	0.15334	0.45469	0.50793	0.45510	0.77511	0.55232	0.35000	0.44471	0.44329	0.44152	0.32269	0.30934	0.31557	0.29653	0.38464	0.48098
43730	0.17609	0.47588	0.15355	0.45586	0.50864	0.45585	0.77753	0.55783	0.36091	0.44625	0.44324	0.44217	0.32495	0.31979	0.30770	0.29824	0.38326	0.47619
43890	0.16652	0.49971	0.16282	0.44954	0.50413	0.45245	0.76792	0.54085	0.34238	0.44291	0.43960	0.43776	0.33182	0.33718	0.32368	0.29917	0.38651	0.48096
44060	0.16705	0.48862	0.15313	0.45630	0.50819	0.45510	0.77580	0.54616	0.34611	0.44343	0.43999	0.44050	0.32588	0.31643	0.30700	0.29754	0.38399	0.47728
44220	0.16545	0.48469	0.15953	0.45810	0.51314	0.46145	0.77543	0.54540	0.35248	0.45066	0.44781	0.44683	0.33143	0.32221	0.30664	0.30568	0.38961	0.48415	23.93	6.1	0.00	7.18	0.01281	0.01298	0.01675	0.00803	0.00598	0.00654	0.00474	0.01279	0.01701	0.00694	0.00713	0.00914	0.01503	0.01105	0.01207	0.00226	0.00638	0.00895
44380	0.16468	0.47423	0.15153	0.45800	0.51059	0.45870	0.76805	0.54414	0.34926	0.44912	0.44585	0.44519	0.32790	0.32164	0.31350	0.30813	0.39163	0.48424
44550	0.16485	0.47571	0.15169	0.45491	0.50755	0.45510	0.76927	0.53556	0.33890	0.44246	0.43937	0.43788	0.32190	0.31687	0.30571	0.29319	0.37852	0.47269
44710	0.16180	0.46925	0.14678	0.44598	0.49957	0.44588	0.75974	0.52658	0.33218	0.43532	0.43259	0.43068	0.31254	0.30861	0.29985	0.28232	0.36883	0.46348
44880	0.15643	0.45449	0.14412	0.44083	0.49639	0.44162	0.76009	0.52252	0.32518	0.43118	0.42894	0.42686	0.29820	0.29109	0.28799	0.27490	0.36043	0.45821
45040	0.15884	0.46915	0.14587	0.43752	0.49562	0.44582	0.77294	0.55319	0.35387	0.44291	0.44479	0.44271	0.32411	0.31276	0.29522	0.30084	0.38200	0.47256
45210	0.15857	0.45314	0.13582	0.44002	0.49183	0.43550	0.74823	0.50196	0.30905	0.42072	0.42061	0.41633	0.29042	0.29123	0.29745	0.26356	0.35395	0.45739
45370	0.16778	0.48113	0.16873	0.44995	0.51435	0.46844	0.79097	0.57696	0.36608	0.45842	0.45333	0.44607	0.27963	0.28946	0.28811	0.28640	0.36029	0.44921
45530	0.13489	0.42106	0.12340	0.41660	0.47237	0.41885	0.75030	0.53673	0.36475	0.42138	0.42913	0.43416	0.33644	0.35428	0.39876	0.32377	0.41346	0.50498
45700	0.20761	0.45033	0.11480	0.46178	0.50531	0.43997	0.76324	0.52081	0.31235	0.41649	0.41594	0.41108	0.29546	0.31960	0.39308	0.25360	0.35355	0.46662
45860	0.17808	0.50807	0.23567	0.47755	0.53900	0.48596	0.83794	0.56489	0.30295	0.45576	0.44541	0.43395	0.31292	0.32320	0.29849	0.25945	0.33956	0.43498	23.99	6.0	0.00	7.14	0.01281	0.01298	0.01675	0.00803	0.00598	0.00654	0.00474	0.01279	0.01701	0.00694	0.00714	0.00915	0.01503	0.01106	0.01207	0.00226	0.00639	0.00895
46020	0.15128	0.47884	0.18925	0.41311	0.47740	0.43519	0.84887	0.60941	0.40878	0.45967	0.47474	0.48247	0.64875	0.57639	0.36703	0.34675	0.40952	0.48316
46180	0.14337	0.49719	0.19995	0.42855	0.47423	0.41689	0.76233	0.53170	0.35822	0.40823	0.41636	0.42032	0.57675	0.48476	0.34640	0.30951	0.41419	0.51644
46340	0.39929	0.99089	0.27643	0.47878	0.51865	0.45013	0.73016	0.55276	0.44198	0.41558	0.41372	0.40696	0.37539	0.35463	0.38187	0.24142	0.33719	0.45019
46500	0.31938	0.58605	0.20661	0.46685	0.54092	0.49590	1.13664	1.05553	0.39593	0.46050	0.44720	0.43057	0.26037	0.38887	0.53220	0.24604	0.32582	0.42225
46660	0.24611	0.65596	0.25291	0.40561	0.47451	0.43729	0.84464	0.60337	0.53681	0.45891	0.46292	0.45665	0.75520	0.34406	0.21579	0.29309	0.36222	0.44410
46830	0.26350	0.64631	0.22324	0.40451	0.45899	0.40809	0.80643	0.66417	0.55237	0.41828	0.43439	0.44840	0.39831	0.51114	0.87692	0.35369	0.43184	0.50621
46990	0.35428	0.34871	0.11068	0.44136	0.48103	0.41693	0.83184	0.64641	0.47667	0.40067	0.40673	0.40759	0.49430	0.53070	0.50857	0.27344	0.38672	0.50362
47150	0.29080	1.16707	0.64977	0.48831	0.52910	0.45891	0.74209	0.47412	0.38950	0.42022	0.41627	0.40861	0.50422	0.46402	0.47142	0.24076	0.33763	0.44891
47310	0.31645	0.63798	0.20620	0.46669	0.53902	0.49008	1.21254	1.17109	0.46782	0.45297	0.44103	0.42716	0.25437	0.36330	0.51868	0.24076	0.32227	0.41816
47470	0.22677	0.62450	0.27201	0.40173	0.46895	0.43362	0.96719	0.64793	0.44938	0.46835	0.47965	0.48053	1.30267	0.91291	0.35971	0.33430	0.39279	0.46749	23.99	6.4	0.00	7.19	0.01281	0.01298	0.01675	0.00804	0.00598	0.00655	0.00474	0.01279	0.01702	0.00695	0.00714	0.00915	0.01504	0.01106	0.01207	0.00226	0.00639	0.00896
47630	0.14571	0.56628	0.27344	0.41540	0.46700	0.41104	0.86869	0.76415	0.59080	0.41464	0.42871	0.44620	0.48226	0.45058	0.71633	0.36185	0.44834	0.52365
47800	0.94732	0.61388	0.09863	0.45352	0.49010	0.42205	0.82372	0.99332	0.67980	0.40612	0.41185	0.41138	0.56750	0.63399	0.52546	0.28010	0.38939	0.50655
47960	0.37975	1.34307	0.94223	0.49710	0.53861	0.46236	0.76698	0.44889	0.31148	0.41864	0.41679	0.41095	1.14774	0.97487	0.66335	0.26382	0.37124	0.49255
48120	0.29610	1.33152	1.30235	0.48237	0.52588	0.45178	0.80976	0.44015	0.30188	0.41284	0.41323	0.40836	1.64323	1.13252	0.59109	0.26984	0.37573	0.49049
48270	0.38972	1.77491	1.34070	0.46680	0.50871	0.43650	0.73511	0.46680	0.61264	0.41614	0.42077	0.42827	1.19544	0.47903	0.32883	0.30167	0.38300	0.46936
48430	0.79805	0.94828	0.19838	0.42776	0.48353	0.43305	0.94166	1.18477	0.70940	0.44016	0.44417	0.44348	0.39888	0.60442	0.64500	0.27680	0.34728	0.43907
48590	0.14796	0.70815	0.61526	0.42158	0.49217	0.44833	0.78859	0.57916	0.63374	0.44642	0.43951	0.42985	0.55276	0.21497	0.21887	0.25104	0.32975	0.43018
48750	0.82988	1.23481	0.21977	0.43140	0.50584	0.46117	0.91563	1.40471	0.94591	0.44526	0.43721	0.42572	0.22000	0.24913	0.58736	0.24745	0.33300	0.43468
48920	0.38849	0.59806	0.16611	0.43171	0.50019	0.45166	1.03928	0.91298	0.45547	0.43891	0.43364	0.42559	0.26597	0.40106	0.74920	0.26123	0.34924	0.45349
49080	0.21435	0.52854	0.24816	0.44681	0.50592	0.45319	0.88124	0.63814	0.41649	0.44542	0.44501	0.44103	0.45229	0.42016	0.42264	0.28911	0.37123	0.46409	23.99	6.2	0.00	7.25	0.01282	0.01298	0.01675	0.00804	0.00599	0.00655	0.00474	0.01279	0.01702	0.00695	0.00714	0.00916	0.01504	0.01106	0.01207	0.00226	0.00640	0.00896
49240	0.23284	0.60336	0.20833	0.43884	0.49527	0.44208	0.80735	0.62372	0.43817	0.43570	0.43728	0.44161	0.49020	0.46023	0.36653	0.31414	0.40138	0.49515
49400	0.29562	0.72355	0.21409	0.46482	0.51442	0.45237	0.75278	0.55338	0.36793	0.42615	0.42198	0.41557	0.30635	0.27586	0.29211	0.24174	0.33146	0.43138
49570	0.23609	0.70494	0.22878	0.42557	0.49317	0.45188	0.79740	0.66141	0.49677	0.45851	0.46289	0.46825	0.44390	0.45472	0.45627	0.35108	0.42597	0.50571
49730	0.25079	0.46105	0.12927	0.45196	0.49393	0.42868	0.76151	0.54587	0.37066	0.40851	0.41365	0.41034	0.43425	0.37460	0.47352	0.24893	0.35230	0.46707
49890	0.27472	0.57054	0.33969	0.48624	0.55033	0.49343	1.15423	0.79390	0.41665	0.45983	0.44917	0.44083	0.29213	0.24979	0.30777	0.25457	0.33551	0.43144
50050	0.28561	0.70913	0.34588	0.40848	0.47474	0.43627	0.82769	0.57475	0.57879	0.45560	0.46253	0.46147	0.87939	0.43875	0.22454	0.29489	0.36139	0.44712
50210	0.26492	0.95404	0.30398	0.41516	0.47165	0.42074	0.79654	0.67560	0.46278	0.41858	0.42383	0.42419	0.42975	0.46240	0.49474	0.27190	0.35597	0.45320
50380	0.23263	0.61531	0.22606	0.42580	0.48184	0.42818	0.81049	0.62324	0.43687	0.42169	0.42532	0.42241	0.41380	0.39271	0.41311	0.26891	0.35653	0.45454
50540	0.22437	0.60679	0.22105	0.43143	0.48925	0.43658	0.81058	0.61617	0.41060	0.42760	0.42953	0.42710	0.39958	0.38740	0.41071	0.27075	0.35723	0.45580
50710	0.21655	0.57648	0.20169	0.43772	0.49446	0.44042	0.80502	0.60795	0.40658	0.43149	0.43224	0.42952	0.38629	0.36953	0.38723	0.27211	0.36051	0.45769	23.93	6.1	0.00	7.20	0.01282	0.01299	0.01676	0.00805	0.00599	0.00655	0.00474	0.01280	0.01702	0.00696	0.00715	0.00916	0.01504	0.01106	0.01207	0.00226	0.00640	0.00897
50870	0.21064	0.56182	0.19234	0.43525	0.49233	0.44018	0.78933	0.58576	0.37684	0.43123	0.43158	0.42857	0.35591	0.34809	0.36387	0.26671	0.35568	0.45445
51030	0.19975	0.58994	0.21362	0.43720	0.49841	0.44980	0.78854	0.56932	0.38400	0.44147	0.43906	0.43709	0.32506	0.33504	0.35673	0.27577	0.35858	0.45394
51200	0.16432	0.45043	0.13805	0.42567	0.47928	0.42765	0.78987	0.58704	0.37583	0.42748	0.43175	0.43472	0.38422	0.38457	0.37548	0.30251	0.39908	0.49986
51360	0.22198	0.62721	0.23777	0.47922	0.52491	0.45937	0.73952	0.48075	0.35036	0.42830	0.42306	0.42026	0.43863	0.35037	0.33034	0.25346	0.34782	0.45206
51520	0.19693	0.60870	0.28911	0.44427	0.51417	0.47583	0.83693	0.62189	0.55315	0.48237	0.47845	0.47408	0.56024	0.29449	0.23729	0.30689	0.37662	0.46100
51690	0.24613	0.52261	0.15634	0.42520	0.47534	0.42136	0.73467	0.53852	0.45563	0.41752	0.42382	0.42756	0.46576	0.45033	0.41611	0.30807	0.41147	0.51954
51850	0.29387	0.87352	0.36580	0.50416	0.55166	0.48789	0.78845	0.51887	0.34245	0.45324	0.44067	0.43424	0.32219	0.30245	0.32900	0.26043	0.34401	0.44247
52000	0.19313	0.59421	0.24768	0.43004	0.49493	0.45543	0.89538	0.63784	0.45248	0.47874	0.48615	0.49399	0.85625	0.71780	0.40120	0.34886	0.40887	0.48349
52170	0.14653	0.49770	0.20703	0.43433	0.48121	0.42383	0.79324	0.59339	0.37909	0.42097	0.42557	0.42998	0.50270	0.57868	0.50420	0.30796	0.40958	0.52240
52330	0.31879	1.04275	0.50783	0.51173	0.56129	0.49483	0.77821	0.49411	0.32567	0.45619	0.44295	0.43425	0.37038	0.35108	0.39829	0.26335	0.34799	0.44980	23.99	6.0	0.00	7.76	0.01282	0.01299	0.01676	0.00805	0.00599	0.00655	0.00474	0.01279	0.01702	0.00695	0.00715	0.00916	0.01504	0.01106	0.01207	0.00226	0.00640	0.00897
52490	0.21006	0.67693	0.31962	0.44116	0.51161	0.47304	0.83823	0.70447	0.65576	0.49478	0.49424	0.49616	0.70685	0.45157	0.27326	0.35087	0.40722	0.48140
52650	0.15943	0.56396	0.22694	0.43362	0.48589	0.43163	0.81073	0.64030	0.49327	0.43777	0.44301	0.45601	0.51969	0.44911	0.52546	0.37931	0.46920	0.55794
52810	0.65599	0.90652	0.15523	0.50761	0.54475	0.47379	0.77531	0.61447	0.39957	0.44459	0.43679	0.43193	0.39501	0.37225	0.44200	0.27484	0.36551	0.47408
52970	0.32292	0.67718	0.21784	0.48562	0.56105	0.51664	1.05530	1.05613	0.60070	0.50049	0.48727	0.48483	0.29779	0.34531	0.40066	0.32661	0.39467	0.47918
53120	0.18396	0.47957	0.15392	0.43577	0.48786	0.43304	0.85694	0.78331	0.56648	0.43790	0.44641	0.46096	0.37652	0.49380	0.66947	0.36747	0.45245	0.53619
53280	0.37828	0.53290	0.11483	0.48274	0.52176	0.45608	0.78257	0.55313	0.35104	0.42956	0.42192	0.42262	0.43421	0.45329	0.56550	0.26978	0.36859	0.48351
53440	0.21758	0.58114	0.35844	0.49886	0.56214	0.50782	1.08349	0.67998	0.31147	0.47274	0.45511	0.45384	0.37659	0.38333	0.29779	0.28047	0.35662	0.44916
53600	0.19072	0.65054	0.32925	0.42640	0.48850	0.44876	0.83496	0.57339	0.47221	0.46393	0.46520	0.46720	0.57776	0.38304	0.28898	0.32828	0.39871	0.48573
53760	0.24939	0.67946	0.21719	0.45050	0.50186	0.44764	0.78917	0.57276	0.38502	0.44004	0.43850	0.44061	0.45190	0.45051	0.44553	0.30321	0.39084	0.48772
53920	0.21283	0.58938	0.21315	0.46696	0.52439	0.47385	0.82756	0.63800	0.41875	0.46215	0.45382	0.45263	0.33459	0.31020	0.30177	0.29488	0.36821	0.45501	23.99	6.3	0.00	7.31	0.01282	0.01298	0.01676	0.00805	0.00599	0.00655	0.00474	0.01279	0.01702	0.00695	0.00714	0.00916	0.01504	0.01106	0.01207	0.00226	0.00640	0.00896
54090	0.15483	0.46280	0.18834	0.42115	0.47474	0.42622	0.83238	0.66247	0.44510	0.43798	0.44950	0.46088	0.43579	0.59659	0.71195	0.35209	0.42327	0.50251
54250	0.13949	0.38400	0.19248	0.45230	0.49833	0.43955	0.86774	0.65394	0.40429	0.43520	0.43780	0.43988	0.37581	0.37257	0.39858	0.29881	0.38695	0.48465
54410	0.24208	0.62154	0.21099	0.46341	0.51896	0.46385	0.79545	0.60081	0.41397	0.45315	0.45269	0.44957	0.42206	0.42875	0.43239	0.31161	0.39888	0.49748
54570	0.19715	0.55647	0.19101	0.47166	0.52227	0.46347	0.78544	0.62806	0.42991	0.44836	0.44745	0.44531	0.36847	0.35510	0.34812	0.29685	0.38181	0.47911
54740	0.20439	0.60548	0.21406	0.45788	0.51514	0.46131	0.78691	0.58098	0.38010	0.45146	0.45223	0.44752	0.37995	0.38053	0.38749	0.30590	0.38954	0.48468
54900	0.20162	0.55270	0.18870	0.46269	0.51887	0.46444	0.80707	0.61779	0.40623	0.45576	0.45724	0.45386	0.36606	0.34477	0.35108	0.30671	0.38919	0.48235
55060	0.21321	0.58101	0.18964	0.45922	0.51409	0.45995	0.78684	0.57933	0.39327	0.45009	0.45060	0.44915	0.37322	0.35146	0.35098	0.30286	0.38497	0.48018
55230	0.20146	0.56287	0.19268	0.46537	0.52324	0.46724	0.80116	0.60750	0.40972	0.46152	0.46246	0.46240	0.38536	0.36761	0.36976	0.32540	0.40716	0.50254
55390	0.20447	0.56689	0.19798	0.47765	0.53321	0.47564	0.80719	0.58961	0.39144	0.46454	0.46321	0.46121	0.38780	0.38053	0.37806	0.32677	0.40839	0.50486
55550	0.20938	0.57047	0.19027	0.47797	0.53310	0.47498	0.78841	0.57622	0.39643	0.46116	0.45919	0.45689	0.38531	0.35287	0.33883	0.31693	0.39588	0.48969	23.93	6.2	0.00	7.19	0.01282	0.01298	0.01675	0.00804	0.00599	0.00655	0.00474	0.01279	0.01701	0.00695	0.00714	0.00915	0.01503	0.01106	0.01207	0.00226	0.00639	0.00896
55720	0.18503	0.55872	0.19748	0.46764	0.52307	0.46672	0.78100	0.56322	0.37357	0.45421	0.45269	0.45107	0.37050	0.35703	0.35841	0.31143	0.39213	0.48848
55880	0.19897	0.55750	0.19145	0.47650	0.53419	0.48047	0.80900	0.60085	0.39342	0.47079	0.46842	0.46618	0.36152	0.34666	0.35239	0.33050	0.40642	0.49971
56040	0.20718	0.56013	0.18601	0.47694	0.53228	0.47683	0.79779	0.58199	0.39202	0.46850	0.46457	0.46350	0.36775	0.35283	0.36214	0.33166	0.41016	0.50458
56210	0.20240	0.55193	0.18612	0.48360	0.53960	0.48471	0.79816	0.58917	0.39376	0.47415	0.46979	0.47049	0.37012	0.36451	0.36021	0.33944	0.41812	0.51134
56370	0.19366	0.54008	0.18100	0.48544	0.53808	0.48138	0.79010	0.59225	0.39040	0.47186	0.46859	0.46767	0.36631	0.35823	0.35103	0.34015	0.41913	0.51131
56530	0.20056	0.56164	0.19188	0.48687	0.54216	0.48584	0.79049	0.57834	0.38262	0.47447	0.46955	0.46765	0.37091	0.36618	0.37118	0.33717	0.41511	0.51008
56700	0.19590	0.53794	0.18251	0.48754	0.54211	0.48650	0.79243	0.59126	0.39150	0.47467	0.47048	0.46967	0.37119	0.35833	0.35721	0.34559	0.42301	0.51645
56860	0.20057	0.55510	0.19059	0.49128	0.54518	0.48895	0.79402	0.57834	0.38429	0.47625	0.47208	0.47042	0.37566	0.36775	0.37095	0.34290	0.42230	0.51595
57030	0.19835	0.54283	0.18640	0.49351	0.54713	0.49119	0.80279	0.59991	0.39297	0.47842	0.47417	0.47287	0.36688	0.36547	0.36980	0.34510	0.42497	0.51821
57190	0.19868	0.54153	0.18217	0.48826	0.54196	0.48534	0.78701	0.58554	0.39082	0.47184	0.46834	0.46757	0.36916	0.35507	0.35357	0.33577	0.41566	0.50891	23.99	5.9	0.00	7.17	0.01281	0.01298	0.01675	0.00804	0.00598	0.00655	0.00474	0.01279	0.01701	0.00695	0.00714	0.00915	0.01503	0.01105	0.01207	0.00226	0.00639	0.00895
57350	0.19683	0.55555	0.19051	0.48791	0.54359	0.48776	0.79563	0.58515	0.38253	0.47452	0.47077	0.46935	0.36437	0.35657	0.36590	0.33909	0.41647	0.50894
57520	0.19581	0.53906	0.17906	0.48425	0.53800	0.48384	0.79323	0.58610	0.39162	0.47162	0.46912	0.46815	0.36640	0.35487	0.35378	0.33626	0.41667	0.50896
57680	0.19603	0.54900	0.18455	0.48479	0.53838	0.48389	0.78806	0.57836	0.38418	0.47123	0.46791	0.46696	0.36570	0.35470	0.35326	0.33413	0.41406	0.50693
57850	0.19583	0.54280	0.18525	0.48406	0.54018	0.48604	0.79370	0.58422	0.39208	0.47275	0.46861	0.46869	0.37062	0.35357	0.35208	0.33778	0.41737	0.50967
58010	0.19575	0.55510	0.18920	0.48405	0.53874	0.48453	0.79321	0.57467	0.37953	0.47179	0.46660	0.46635	0.37485	0.36253	0.35634	0.33503	0.41483	0.50799
58170	0.19189	0.54120	0.18668	0.48404	0.54085	0.48751	0.79213	0.58430	0.38625	0.47454	0.47140	0.47009	0.37035	0.35979	0.35972	0.34002	0.42008	0.51236
58340	0.19759	0.54588	0.18368	0.48639	0.53833	0.48377	0.79039	0.58257	0.38823	0.47136	0.46742	0.46655	0.36627	0.35517	0.35515	0.33980	0.41736	0.50958
58500	0.19617	0.55374	0.18738	0.48560	0.53844	0.48321	0.78789	0.57807	0.38347	0.47193	0.46635	0.46576	0.37437	0.36291	0.35841	0.33693	0.41610	0.50916
58660	0.19067	0.54006	0.18365	0.48249	0.53486	0.48104	0.79193	0.58069	0.38123	0.46882	0.46692	0.46386	0.36833	0.36162	0.36086	0.33592	0.41877	0.51120
58830	0.19388	0.54484	0.18320	0.48088	0.53476	0.47928	0.79365	0.58043	0.38116	0.46910	0.46542	0.46344	0.36632	0.35540	0.35615	0.32806	0.41116	0.50334	23.99	6.1	0.00	7.26	0.01281	0.01298	0.01675	0.00803	0.00598	0.00654	0.00474	0.01278	0.01700	0.00694	0.00713	0.00915	0.01503	0.01105	0.01206	0.00226	0.00639	0.00895
58990	0.19294	0.54491	0.18259	0.48004	0.53444	0.47951	0.79042	0.58227	0.38471	0.46854	0.46517	0.46425	0.36566	0.35836	0.35755	0.32690	0.41172	0.50347
59160	0.19469	0.54496	0.18278	0.47941	0.53217	0.47922	0.79034	0.58086	0.38276	0.46753	0.46553	0.46416	0.36432	0.35557	0.35928	0.32638	0.41037	0.50235
59320	0.19573	0.54440	0.18392	0.48090	0.53622	0.48208	0.79242	0.58810	0.39081	0.47041	0.46784	0.46646	0.36865	0.35858	0.35622	0.33111	0.41577	0.50525
59480	0.19484	0.55094	0.18594	0.47959	0.53310	0.47929	0.79193	0.58025	0.38360	0.46796	0.46572	0.46375	0.37371	0.36140	0.35956	0.33242	0.41507	0.50521
59650	0.19507	0.54174	0.18305	0.47902	0.53267	0.47875	0.79059	0.58299	0.38446	0.46653	0.46490	0.46310	0.36538	0.35555	0.35819	0.32616	0.41012	0.50087
59810	0.19161	0.54049	0.17957	0.47544	0.52854	0.47553	0.77993	0.58113	0.38123	0.46411	0.46148	0.45985	0.36607	0.35583	0.35828	0.32608	0.41113	0.50280
59980	0.19361	0.54358	0.18161	0.47728	0.53226	0.47750	0.79247	0.58184	0.38243	0.46683	0.46393	0.46186	0.36662	0.35622	0.35748	0.32694	0.40862	0.49955
60140	0.19094	0.53941	0.18171	0.47456	0.52846	0.47477	0.78924	0.57900	0.37961	0.46347	0.46111	0.45914	0.36779	0.35905	0.35909	0.32884	0.41216	0.50350
60300	0.19544	0.54294	0.18377	0.47819	0.53297	0.47809	0.78995	0.58182	0.38306	0.46628	0.46441	0.46213	0.36597	0.35827	0.35821	0.32619	0.40872	0.50064
60470	0.19496	0.54158	0.18259	0.47503	0.52952	0.47695	0.79018	0.58281	0.38234	0.46513	0.46107	0.46067	0.36444	0.35619	0.35679	0.32662	0.40733	0.49835	23.99	6.2	0.00	7.32	0.01281	0.01298	0.01675	0.00803	0.00598	0.00654	0.00474	0.01278	0.01700	0.00694	0.00713	0.00914	0.01502	0.01105	0.01206	0.00226	0.00638	0.00895
60630	0.19186	0.53999	0.17957	0.47288	0.52720	0.47356	0.78506	0.58314	0.38384	0.46153	0.45860	0.45752	0.36162	0.35253	0.35445	0.32562	0.40574	0.49778
60800	0.19347	0.54529	0.18187	0.47220	0.52810	0.47423	0.78369	0.57566	0.37849	0.46205	0.45848	0.45720	0.36424	0.35388	0.35566	0.32256	0.40264	0.49496
60960	0.19047	0.53878	0.17681	0.46994	0.52545	0.47098	0.77904	0.57705	0.37781	0.45953	0.45661	0.45414	0.36255	0.35406	0.35265	0.32487	0.40472	0.49737
61120	0.19390	0.54142	0.18070	0.47213	0.52807	0.47342	0.79430	0.57917	0.38131	0.45997	0.45813	0.45574	0.36542	0.35310	0.35375	0.32677	0.40652	0.49893
61290	0.19608	0.54525	0.18305	0.47514	0.52979	0.47500	0.78910	0.57894	0.38477	0.46151	0.46037	0.45740	0.36553	0.35398	0.35185	0.32658	0.40616	0.49726
61450	0.19306	0.54560	0.18469	0.47289	0.53132	0.47573	0.78959	0.58010	0.38261	0.46246	0.46144	0.45801	0.36924	0.35711	0.35494	0.32688	0.40691	0.49866
61620	0.19256	0.53734	0.18073	0.47299	0.52821	0.47273	0.78979	0.57983	0.38134	0.45906	0.45919	0.45612	0.36538	0.35695	0.35661	0.32703	0.40776	0.49934
61780	0.19235	0.54251	0.18242	0.47466	0.53076	0.47518	0.79290	0.58029	0.38255	0.46114	0.46018	0.45746	0.36255	0.35632	0.35539	0.32476	0.40596	0.49794
61950	0.19195	0.53735	0.18173	0.47359	0.52968	0.47493	0.78717	0.58451	0.38264	0.46071	0.45954	0.45703	0.36403	0.35342	0.35153	0.32573	0.40626	0.49822
62110	0.19303	0.54464	0.18293	0.47613	0.53164	0.47638	0.79013	0.58010	0.38135	0.46309	0.46189	0.45843	0.36377	0.35625	0.35688	0.32567	0.40650	0.50062	23.99	6.0	0.00	7.29	0.01281	0.01298	0.01675	0.00803	0.00598	0.00654	0.00474	0.01278	0.01700	0.00694	0.00713	0.00914	0.01502	0.01105	0.01206	0.00226	0.00638	0.00895
62270	0.19170	0.53900	0.18435	0.47779	0.53307	0.47920	0.79327	0.58197	0.38418	0.46410	0.46310	0.46041	0.36741	0.36004	0.35613	0.32697	0.40969	0.50273
62440	0.19292	0.53921	0.18091	0.47542	0.52962	0.47545	0.78658	0.57778	0.38037	0.46105	0.45895	0.45656	0.36156	0.34984	0.35161	0.32101	0.40270	0.49651
62600	0.19346	0.54033	0.18172	0.47631	0.53057	0.47607	0.78999	0.58157	0.38799	0.46180	0.46064	0.45660	0.36237	0.35215	0.35143	0.32351	0.40338	0.49637
62760	0.19515	0.54452	0.17995	0.46885	0.52219	0.46753	0.78474	0.57324	0.37437	0.45105	0.45108	0.44585	0.34597	0.33196	0.32747	0.30074	0.38129	0.47104
62930	0.17052	0.49115	0.15230	0.43966	0.49237	0.43820	0.74847	0.52677	0.33330	0.42366	0.42585	0.42243	0.32363	0.31244	0.31461	0.27885	0.36589	0.46489
63090	0.18280	0.54276	0.18209	0.45128	0.51304	0.46413	0.80026	0.60013	0.40665	0.46292	0.46810	0.46885	0.39483	0.40205	0.39709	0.35144	0.42929	0.51561
63250	0.17856	0.47544	0.15931	0.47442	0.51820	0.45815	0.76011	0.53631	0.33423	0.43315	0.42900	0.42531	0.28827	0.28649	0.30519	0.26754	0.35398	0.45315
63420	0.17630	0.55122	0.19725	0.43973	0.50379	0.45853	0.78379	0.59783	0.43062	0.46063	0.46776	0.46848	0.40681	0.40617	0.38284	0.34995	0.42845	0.51091
63580	0.17530	0.41802	0.14084	0.46094	0.50333	0.44234	0.76380	0.51796	0.31645	0.41766	0.41968	0.41437	0.28538	0.28072	0.30012	0.25374	0.34113	0.44249
63740	0.17868	0.54515	0.22166	0.43356	0.49926	0.45956	0.78960	0.61261	0.49564	0.47137	0.48109	0.48230	0.46903	0.45240	0.42552	0.36929	0.44406	0.52255	24.05	6.1	0.00	7.15	0.01281	0.01298	0.01675	0.00804	0.00598	0.00654	0.00474	0.01278	0.01700	0.00694	0.00714	0.00915	0.01502	0.01105	0.01206	0.00226	0.00639	0.00895
63910	0.18402	0.44245	0.15086	0.47137	0.51277	0.44987	0.77535	0.51512	0.31907	0.41906	0.41988	0.41456	0.29642	0.28266	0.30247	0.25026	0.33993	0.44152
64070	0.19684	0.57574	0.22781	0.43148	0.49790	0.45615	0.80868	0.61280	0.49242	0.47163	0.48368	0.48939	0.54495	0.54664	0.51370	0.38194	0.45413	0.52997
64230	0.20208	0.45425	0.15523	0.47745	0.51936	0.45740	0.78918	0.53327	0.32065	0.42186	0.41913	0.41206	0.29525	0.33721	0.39690	0.24556	0.33551	0.43575
64390	0.19977	0.59387	0.22005	0.42539	0.48852	0.44485	0.84928	0.72425	0.44361	0.45607	0.46701	0.47435	0.53761	0.61509	0.56919	0.36716	0.44348	0.52464
64550	0.23972	0.50960	0.15217	0.47723	0.51941	0.45744	0.79480	0.54125	0.32713	0.42340	0.41776	0.41229	0.28297	0.29617	0.39172	0.24298	0.33230	0.43380
64710	0.20473	0.57431	0.19879	0.42457	0.48846	0.44758	0.87394	0.68975	0.43724	0.46087	0.47038	0.47810	0.62077	0.61665	0.55517	0.37475	0.45221	0.53474
64870	0.24202	0.57172	0.18371	0.48924	0.53082	0.46788	0.79587	0.58765	0.37136	0.43520	0.42784	0.42284	0.29748	0.27242	0.27662	0.24497	0.33030	0.42915
65040	0.22104	0.57899	0.18819	0.40950	0.46810	0.41885	0.80142	0.66023	0.44074	0.42618	0.43803	0.44395	0.50114	0.44289	0.52854	0.33829	0.44208	0.54661
65190	0.36653	0.79396	0.31913	0.52686	0.57329	0.51130	0.83338	0.60256	0.38577	0.46914	0.45612	0.45738	0.38864	0.35343	0.33662	0.28629	0.35829	0.44556
65350	0.16117	0.41899	0.15495	0.42184	0.47520	0.42397	0.77724	0.56809	0.37262	0.41472	0.41972	0.41853	0.39761	0.45029	0.47770	0.27026	0.37084	0.48388	24.05	5.9	0.00	7.23	0.01281	0.01298	0.01675	0.00804	0.00599	0.00655	0.00474	0.01279	0.01701	0.00695	0.00714	0.00915	0.01503	0.01105	0.01207	0.00226	0.00639	0.00896
65500	0.25567	0.60265	0.28640	0.49083	0.55308	0.50837	0.93073	0.73310	0.49669	0.49172	0.48510	0.48663	0.42786	0.38052	0.34590	0.32929	0.40186	0.48432
65660	0.20955	0.55073	0.18361	0.44515	0.49099	0.43253	0.73942	0.49551	0.31413	0.41046	0.41253	0.40946	0.42401	0.41615	0.38027	0.23508	0.32914	0.43224
65820	0.20030	0.57012	0.22404	0.41873	0.47815	0.43245	0.89938	0.70310	0.42348	0.44041	0.44994	0.45795	0.49264	0.56826	0.54909	0.34588	0.43370	0.52419
65980	0.27656	0.66129	0.21502	0.48588	0.52965	0.46992	0.82075	0.63801	0.43094	0.44387	0.43512	0.44350	0.36110	0.31400	0.27220	0.26541	0.34493	0.43601
66140	0.16420	0.46660	0.21874	0.40791	0.46303	0.41104	0.78696	0.56261	0.37915	0.40890	0.41423	0.41711	0.43736	0.44796	0.51893	0.26867	0.36710	0.47345
66300	0.23201	0.61034	0.26987	0.48013	0.54390	0.49813	0.92383	0.74249	0.50769	0.47977	0.46778	0.46653	0.35240	0.34220	0.39878	0.30148	0.37623	0.46540
66450	0.22658	0.55645	0.18752	0.43436	0.48677	0.43407	0.75928	0.51667	0.34843	0.41794	0.41516	0.41468	0.37124	0.34841	0.37274	0.24929	0.34310	0.44508
66620	0.20639	0.57561	0.19452	0.43173	0.49131	0.44246	0.79857	0.59369	0.38859	0.43498	0.43332	0.43573	0.40211	0.39216	0.38760	0.28838	0.37691	0.47530
66780	0.19941	0.55272	0.18580	0.45534	0.50756	0.45652	0.79159	0.59313	0.39791	0.44510	0.44283	0.44524	0.38376	0.36601	0.35982	0.29550	0.38289	0.47890
66940	0.19134	0.55179	0.18941	0.45612	0.51112	0.45854	0.80332	0.58839	0.38751	0.45017	0.44778	0.44864	0.36262	0.35539	0.35773	0.29872	0.38487	0.47992	24.05	6.2	0.00	7.43	0.01281	0.01298	0.01675	0.00804	0.00599	0.00655	0.00474	0.01278	0.01701	0.00695	0.00714	0.00915	0.01503	0.01105	0.01207	0.00226	0.00639	0.00896
67100	0.19264	0.54895	0.18326	0.45840	0.51294	0.46028	0.78710	0.58136	0.38518	0.45193	0.45014	0.45066	0.37032	0.35948	0.35975	0.30441	0.39090	0.48572
67260	0.19458	0.54831	0.18743	0.46490	0.51983	0.46612	0.79771	0.58706	0.38775	0.45808	0.45554	0.45602	0.36742	0.35824	0.36142	0.30965	0.39539	0.48908
67420	0.19354	0.54287	0.18272	0.46549	0.51954	0.46521	0.78840	0.58805	0.38716	0.45726	0.45548	0.45496	0.36875	0.35660	0.35758	0.31418	0.40091	0.49409
67590	0.19632	0.55306	0.18763	0.46922	0.52297	0.46845	0.79688	0.58182	0.38427	0.45878	0.45621	0.45577	0.36913	0.35693	0.35629	0.31047	0.39603	0.49077
67750	0.19072	0.54115	0.18269	0.46643	0.52049	0.46605	0.78970	0.58078	0.38077	0.45665	0.45487	0.45345	0.36780	0.35879	0.36165	0.31106	0.39942	0.49347
67920	0.19513	0.54270	0.18201	0.47014	0.52337	0.46897	0.79220	0.58977	0.38807	0.45963	0.45730	0.45581	0.36664	0.35674	0.36005	0.31184	0.39876	0.49176
68080	0.20075	0.55099	0.18612	0.46867	0.52205	0.46832	0.79597	0.59068	0.39255	0.45859	0.45662	0.45569	0.37459	0.36456	0.37072	0.30928	0.39650	0.49017
68240	0.20243	0.56072	0.19187	0.46775	0.52117	0.46677	0.79371	0.59529	0.39686	0.45766	0.45644	0.45476	0.38253	0.36938	0.37749	0.31314	0.39898	0.49414
68410	0.20917	0.56785	0.19145	0.47104	0.52257	0.46790	0.80276	0.60024	0.40363	0.45619	0.45452	0.45390	0.38124	0.36586	0.37042	0.30850	0.39468	0.49012
68570	0.20530	0.57604	0.19797	0.46271	0.51975	0.46620	0.80396	0.59685	0.39802	0.45699	0.45635	0.45510	0.38981	0.37650	0.38239	0.31123	0.39730	0.49273	24.05	6.1	0.00	7.23	0.01281	0.01298	0.01675	0.00804	0.00598	0.00654	0.00474	0.01278	0.01700	0.00694	0.00714	0.00915	0.01502	0.01105	0.01206	0.00226	0.00639	0.00895
68740	0.20817	0.57479	0.19947	0.47221	0.52695	0.47457	0.80244	0.60478	0.40020	0.46433	0.46304	0.46198	0.38490	0.37511	0.38054	0.32087	0.40613	0.49926
68900	0.20766	0.57089	0.19655	0.47628	0.52929	0.47638	0.80521	0.60141	0.40262	0.46484	0.46230	0.46105	0.38593	0.37375	0.37674	0.31666	0.40254	0.49651
69060	0.20358	0.56972	0.19484	0.47287	0.52626	0.47261	0.79761	0.59598	0.39603	0.46152	0.46007	0.45879	0.38432	0.37598	0.38002	0.32173	0.40641	0.49993
69230	0.21054	0.57580	0.19906	0.47518	0.52676	0.47051	0.80278	0.59146	0.39781	0.45996	0.45688	0.45616	0.39603	0.37606	0.37561	0.30755	0.39539	0.49137
69390	0.19841	0.55163	0.19296	0.47534	0.53436	0.48238	0.79922	0.59632	0.39017	0.46416	0.45997	0.45710	0.37801	0.37872	0.39019	0.31543	0.40296	0.49850
69560	0.21119	0.56244	0.19286	0.47524	0.52688	0.47211	0.80236	0.60386	0.41300	0.46010	0.45929	0.46037	0.39027	0.37174	0.36950	0.32564	0.41168	0.50602
69720	0.20083	0.57347	0.19980	0.48486	0.53639	0.48167	0.79069	0.57398	0.38742	0.46310	0.45797	0.45901	0.35161	0.32671	0.30537	0.30948	0.39140	0.48179
69880	0.19457	0.57798	0.18494	0.45687	0.51206	0.46164	0.77779	0.56453	0.34990	0.45596	0.45542	0.45707	0.38612	0.32145	0.28187	0.30624	0.39585	0.49493
70050	0.15537	0.38687	0.13725	0.48404	0.53955	0.48695	0.77432	0.55254	0.34959	0.48056	0.47659	0.47662	0.32711	0.33091	0.28114	0.34888	0.43677	0.53381
70220	0.17118	0.57253	0.23061	0.48616	0.54473	0.49461	0.93838	0.76865	0.71077	0.48910	0.48170	0.48772	1.10214	1.88354	2.84384	0.36995	0.45562	0.54570	23.99	6.0	0.00	7.16	0.01280	0.01297	0.01674	0.00801	0.00596	0.00652	0.00473	0.01277	0.01699	0.00693	0.00712	0.00912	0.01501	0.01104	0.01205	0.00225	0.00636	0.00892
70380	2.75811	4.08486	2.67367	0.53214	0.58565	0.53374	2.98877	3.31502	2.66366	0.52247	0.51306	0.51973	1.51873	0.65609	0.22367	0.40990	0.48840	0.57603
70540	0.10323	0.11887	0.08252	0.55610	0.60500	0.55070	0.75110	0.46390	0.27901	0.53491	0.52138	0.52364	0.21764	0.21256	0.16702	0.41088	0.49172	0.57542
70700	0.10270	0.11434	0.07732	0.54305	0.58765	0.53086	0.73896	0.45416	0.26838	0.51740	0.50591	0.51090	0.21360	0.20292	0.16516	0.39320	0.48083	0.57367
70870	0.10606	0.11882	0.08096	0.55631	0.60506	0.54907	0.74436	0.46268	0.27992	0.53646	0.52372	0.52793	0.25461	0.23840	0.18763	0.46621	0.52090	0.58398
71030	0.11300	0.12252	0.08423	0.54385	0.59100	0.53743	0.74641	0.46186	0.27814	0.52648	0.51273	0.51783	0.22801	0.21577	0.17501	0.41028	0.49090	0.57405
71190	0.10599	0.11810	0.08095	0.54577	0.59546	0.54329	0.73845	0.46017	0.27524	0.52963	0.51825	0.52131	0.22638	0.21387	0.17383	0.41741	0.50317	0.59036
71360	0.11091	0.12116	0.08484	0.56148	0.60917	0.55549	0.75970	0.46474	0.27854	0.54127	0.52808	0.52792	0.22272	0.20822	0.17077	0.41013	0.49123	0.58099
71520	0.10720	0.11755	0.08085	0.55755	0.60809	0.55499	0.74045	0.46216	0.27379	0.54049	0.53111	0.52873	0.22167	0.20892	0.17151	0.42051	0.50724	0.59816
71690	0.11097	0.12294	0.08645	0.57735	0.62671	0.57403	0.74736	0.46668	0.28082	0.55520	0.54726	0.54259	0.22601	0.21135	0.16917	0.43900	0.51970	0.60416
71850	0.10340	0.11745	0.07892	0.54704	0.59849	0.54357	0.74198	0.45876	0.27247	0.52748	0.52099	0.51716	0.22124	0.20939	0.17086	0.40602	0.49223	0.57805	24.11	6.1	0.00	7.28	0.01280	0.01296	0.01673	0.00799	0.00595	0.00651	0.00473	0.01276	0.01698	0.00691	0.00710	0.00910	0.01500	0.01104	0.01205	0.00224	0.00634	0.00889
72020	0.10778	0.11589	0.08096	0.55157	0.60070	0.54467	0.73873	0.45620	0.27004	0.52551	0.51299	0.50921	0.21232	0.20184	0.16411	0.39634	0.48279	0.57191
72180	0.10218	0.11407	0.07801	0.54565	0.59723	0.54443	0.73348	0.45512	0.26823	0.52618	0.51562	0.51206	0.21205	0.19890	0.15850	0.39445	0.47642	0.56243
72340	0.09889	0.11216	0.07716	0.53631	0.59057	0.53594	0.73470	0.45046	0.26904	0.52075	0.51164	0.51003	0.21398	0.20453	0.16245	0.40167	0.48472	0.56958
72510	0.10210	0.11567	0.07693	0.54096	0.59141	0.53727	0.74713	0.45663	0.27118	0.52263	0.51212	0.51087	0.21548	0.20527	0.16610	0.40050	0.48495	0.57089
72670	0.10446	0.11562	0.07740	0.54235	0.59358	0.53929	0.73463	0.45530	0.26905	0.52167	0.51040	0.50902	0.21413	0.20230	0.16277	0.39744	0.48149	0.56693
72830	0.10317	0.11590	0.07933	0.54333	0.59513	0.54209	0.73275	0.45973	0.27276	0.52544	0.51393	0.51188	0.21605	0.20747	0.16474	0.40247	0.48504	0.56937
72990	0.10155	0.11387	0.07836	0.54069	0.59191	0.53713	0.73409	0.45256	0.26961	0.51929	0.50741	0.50672	0.21245	0.20209	0.16229	0.39517	0.47731	0.56217
73160	0.09814	0.11119	0.07484	0.53302	0.58397	0.52808	0.73307	0.45025	0.26308	0.51101	0.50154	0.49921	0.21409	0.20231	0.16335	0.39150	0.47537	0.56128
73320	0.10089	0.11433	0.07770	0.53364	0.58417	0.52851	0.73531	0.45533	0.26881	0.51203	0.50288	0.50133	0.21270	0.20279	0.16281	0.38829	0.47023	0.55707
73480	0.09796	0.10937	0.07509	0.50555	0.55899	0.50414	0.72933	0.44755	0.26085	0.48736	0.48015	0.47818	0.21229	0.19949	0.16098	0.36105	0.44674	0.53318	24.17	6.1	0.00	7.23	0.01279	0.01296	0.01673	0.00797	0.00594	0.00650	0.00473	0.01276	0.01698	0.00690	0.00709	0.00909	0.01500	0.01103	0.01205	0.00223	0.00633	0.00887
73650	0.09774	0.11047	0.07461	0.50700	0.56181	0.50785	0.73358	0.45140	0.26576	0.49414	0.48624	0.48333	0.21046	0.19807	0.15878	0.36732	0.45022	0.53762
73810	0.09955	0.11094	0.07200	0.51076	0.56342	0.50799	0.72926	0.44834	0.26095	0.49387	0.48915	0.48736	0.21212	0.20263	0.16314	0.37927	0.46711	0.55542
73980	0.10439	0.11291	0.07869	0.53298	0.58675	0.53236	0.74249	0.45341	0.26904	0.51459	0.50732	0.50450	0.21436	0.20365	0.16125	0.39567	0.47892	0.56239
74140	0.10114	0.11314	0.07571	0.53640	0.58983	0.53599	0.73272	0.45350	0.26614	0.51535	0.50860	0.50376	0.21189	0.20025	0.16161	0.39196	0.47394	0.55713
74310	0.09749	0.10915	0.07108	0.52522	0.57556	0.52010	0.73209	0.44762	0.26154	0.50132	0.49640	0.49210	0.20982	0.20277	0.16167	0.38359	0.46778	0.55208
74470	0.09987	0.11038	0.07370	0.52219	0.57495	0.51883	0.73013	0.45329	0.26460	0.50236	0.49599	0.49233	0.20884	0.19745	0.15862	0.37712	0.46319	0.54937
74630	0.09756	0.11157	0.07460	0.52413	0.57798	0.52267	0.73646	0.45246	0.26541	0.50633	0.50007	0.49588	0.21074	0.19838	0.16030	0.38048	0.46421	0.54784
74800	0.09508	0.10859	0.07361	0.52017	0.57632	0.52291	0.73289	0.45359	0.26760	0.51107	0.50499	0.50242	0.21375	0.20279	0.16384	0.39647	0.48004	0.56459
74960	0.10130	0.11471	0.07757	0.53615	0.58803	0.53230	0.73655	0.45298	0.26571	0.51387	0.50733	0.50385	0.21416	0.19683	0.15882	0.39446	0.47261	0.54961
75130	0.09143	0.10684	0.07536	0.49373	0.55431	0.50996	0.74255	0.45933	0.27048	0.50272	0.49790	0.49436	0.21314	0.20108	0.16102	0.37922	0.46032	0.54435	24.05	6.2	0.00	6.74	0.01279	0.01296	0.01672	0.00795	0.00593	0.00648	0.00472	0.01275	0.01697	0.00689	0.00708	0.00908	0.01499	0.01103	0.01204	0.00223	0.00631	0.00886
75290	0.09827	0.10825	0.07171	0.50980	0.55977	0.50385	0.72826	0.44639	0.26129	0.48700	0.48343	0.48177	0.21148	0.19977	0.16305	0.37463	0.46304	0.55225
75450	0.10366	0.11164	0.07593	0.52977	0.57793	0.52107	0.73160	0.44534	0.25927	0.49551	0.49040	0.48228	0.20730	0.19378	0.15611	0.35536	0.43565	0.52187
75620	0.09503	0.10786	0.07332	0.50412	0.56403	0.51544	0.73228	0.45415	0.26717	0.50732	0.50218	0.49899	0.21290	0.20015	0.15928	0.38241	0.45968	0.54007
75780	0.09744	0.10854	0.07007	0.50358	0.55640	0.50457	0.73443	0.45272	0.26648	0.49867	0.49611	0.49523	0.21327	0.20121	0.16324	0.38931	0.46993	0.55474
75940	0.10021	0.11112	0.07559	0.52656	0.57864	0.52354	0.72652	0.45043	0.26396	0.50443	0.49745	0.49487	0.21298	0.20487	0.16629	0.39174	0.47245	0.55507
76110	0.10209	0.11324	0.07962	0.52625	0.57698	0.52211	0.73387	0.45531	0.26960	0.50453	0.49661	0.49346	0.21459	0.20562	0.16383	0.38343	0.46352	0.54519
76270	0.10220	0.11229	0.07568	0.51175	0.56175	0.50759	0.73888	0.45266	0.26771	0.49224	0.48295	0.48195	0.21662	0.20851	0.16783	0.36899	0.45302	0.53776
76430	0.10376	0.11747	0.08044	0.50679	0.55637	0.50248	0.74313	0.45667	0.27078	0.48669	0.47563	0.47272	0.21508	0.20406	0.16279	0.35294	0.43589	0.52167
76600	0.10558	0.11761	0.08070	0.49171	0.54455	0.49177	0.73421	0.45423	0.27127	0.47392	0.46341	0.45950	0.21489	0.20164	0.16262	0.33261	0.41327	0.49853
76760	0.10291	0.11389	0.07896	0.48126	0.53413	0.48027	0.73278	0.45911	0.27075	0.46773	0.45929	0.45725	0.21665	0.20446	0.16326	0.33402	0.41587	0.50135	24.17	6.2	0.00	7.19	0.01279	0.01296	0.01672	0.00796	0.00593	0.00649	0.00472	0.01275	0.01697	0.00690	0.00709	0.00909	0.01499	0.01103	0.01204	0.00223	0.00632	0.00887
76920	0.09970	0.11261	0.07498	0.46828	0.52094	0.46581	0.72856	0.45243	0.26478	0.45278	0.44656	0.44324	0.21001	0.19756	0.15919	0.30874	0.39364	0.48295
77090	0.10283	0.11562	0.07914	0.45749	0.51276	0.45763	0.74475	0.45717	0.27068	0.44400	0.43916	0.43742	0.21648	0.20510	0.16560	0.30693	0.39319	0.48335
77250	0.10380	0.11348	0.07637	0.45276	0.50581	0.45229	0.74001	0.45673	0.26712	0.43914	0.43545	0.42922	0.21458	0.20522	0.16578	0.29908	0.38455	0.47539
77410	0.10240	0.11300	0.07587	0.44337	0.49735	0.44276	0.72680	0.45106	0.26293	0.42887	0.42505	0.41892	0.21043	0.20052	0.16198	0.28382	0.36645	0.45465
77580	0.09549	0.10714	0.06969	0.42028	0.47210	0.41448	0.71997	0.43782	0.25004	0.40077	0.39937	0.39619	0.20269	0.19218	0.15207	0.25481	0.34393	0.43707
77740	0.09466	0.10739	0.07009	0.41635	0.47559	0.42190	0.72389	0.44318	0.25711	0.41006	0.40846	0.40422	0.20287	0.19103	0.15152	0.25668	0.34067	0.42953
77910	0.08939	0.09925	0.06573	0.40042	0.45681	0.40354	0.71292	0.43068	0.24636	0.39231	0.38893	0.38672	0.19957	0.18897	0.14799	0.23214	0.32193	0.41608
78070	0.08974	0.10175	0.06585	0.38995	0.44723	0.39456	0.71633	0.43715	0.24904	0.38879	0.38874	0.38398	0.19875	0.18774	0.14816	0.22476	0.31259	0.40759
78240	0.08751	0.09894	0.06154	0.37974	0.43893	0.38633	0.70851	0.43180	0.24549	0.38274	0.38355	0.37902	0.19543	0.18491	0.14823	0.21891	0.30944	0.40571
78400	0.09223	0.10532	0.06776	0.40992	0.46726	0.41459	0.71575	0.43792	0.25209	0.40478	0.40356	0.39896	0.19770	0.19013	0.14946	0.24125	0.33043	0.42032	24.17	6.2	0.00	7.20	0.01280	0.01296	0.01673	0.00799	0.00595	0.00651	0.00473	0.01276	0.01698	0.00691	0.00710	0.00911	0.01500	0.01104	0.01205	0.00224	0.00634	0.00890
78570	0.08739	0.10035	0.06710	0.39483	0.45555	0.40575	0.71353	0.43473	0.25099	0.39813	0.39953	0.39811	0.19863	0.18684	0.14996	0.24489	0.33085	0.42477
78730	0.09025	0.10238	0.06551	0.39799	0.45453	0.40113	0.70676	0.43039	0.24415	0.39203	0.39146	0.38742	0.19091	0.17788	0.14031	0.22319	0.31363	0.41030
78890	0.08476	0.09830	0.06414	0.39043	0.45507	0.40543	0.71326	0.43773	0.25301	0.39930	0.39868	0.39516	0.19564	0.18520	0.14234	0.23151	0.31638	0.41010
79060	0.08292	0.09513	0.06173	0.38574	0.44609	0.39543	0.70370	0.43027	0.24706	0.39142	0.39364	0.39270	0.19587	0.18709	0.14832	0.23742	0.32652	0.41889
79220	0.08247	0.09601	0.05740	0.38763	0.44308	0.38980	0.69514	0.42075	0.23718	0.38098	0.38319	0.38214	0.18830	0.17750	0.13672	0.21769	0.30935	0.40604
79380	0.07961	0.09595	0.05706	0.38487	0.44332	0.39284	0.69900	0.42271	0.23705	0.38194	0.38272	0.37896	0.18581	0.17601	0.14008	0.21179	0.30267	0.39896
79550	0.07558	0.09205	0.05429	0.37794	0.43630	0.38597	0.69961	0.41868	0.23434	0.37849	0.37949	0.37630	0.18124	0.16951	0.13698	0.20638	0.29789	0.39610
79710	0.07779	0.09071	0.05549	0.37542	0.43749	0.38658	0.70684	0.42238	0.23744	0.38333	0.38801	0.38601	0.19143	0.18080	0.14195	0.22519	0.31960	0.41759
79880	0.08564	0.09722	0.06339	0.39609	0.45505	0.40559	0.70881	0.42972	0.24614	0.39920	0.40029	0.39832	0.19641	0.18467	0.14716	0.24125	0.33003	0.42598
80040	0.08793	0.10153	0.06433	0.41741	0.47546	0.42356	0.71460	0.43290	0.24882	0.41543	0.41503	0.41287	0.20139	0.18528	0.14677	0.26157	0.35075	0.44425	24.11	6.0	0.00	7.18	0.01280	0.01296	0.01673	0.00800	0.00596	0.00652	0.00473	0.01276	0.01698	0.00692	0.00711	0.00912	0.01501	0.01104	0.01205	0.00225	0.00636	0.00891
80210	0.08966	0.10337	0.06647	0.42056	0.47770	0.42682	0.70718	0.43555	0.25154	0.41732	0.41694	0.41501	0.19917	0.18610	0.15021	0.26395	0.35119	0.44505
80370	0.08707	0.10054	0.06355	0.41957	0.47700	0.42521	0.71044	0.43167	0.24773	0.41587	0.41589	0.41307	0.19567	0.18256	0.14220	0.25614	0.34747	0.44542
80530	0.09044	0.10543	0.06937	0.42933	0.48859	0.43894	0.72408	0.44651	0.26306	0.43102	0.43235	0.43488	0.20822	0.20242	0.15331	0.29698	0.37601	0.46073
80700	0.08778	0.09626	0.05678	0.41583	0.46259	0.40767	0.69647	0.41151	0.22683	0.38973	0.38866	0.38715	0.18094	0.16562	0.13371	0.22332	0.32522	0.43346
80860	0.08573	0.10388	0.07290	0.43456	0.50342	0.46336	0.74747	0.46077	0.27302	0.45894	0.45115	0.44475	0.20646	0.19899	0.15028	0.28563	0.35816	0.44136
81020	0.08132	0.09168	0.05317	0.39647	0.44692	0.39714	0.70973	0.41955	0.23618	0.39335	0.39837	0.40143	0.19272	0.18488	0.15488	0.26373	0.36620	0.47222
81180	0.10324	0.11850	0.08244	0.46935	0.53103	0.48468	0.75023	0.46107	0.27202	0.45754	0.44397	0.43772	0.19897	0.19173	0.14551	0.27207	0.35205	0.43936
81350	0.08029	0.08915	0.05341	0.40045	0.45014	0.39656	0.68955	0.41098	0.22711	0.38655	0.39164	0.39464	0.18469	0.17695	0.14745	0.25439	0.36336	0.47045
81500	0.10586	0.12055	0.08466	0.48929	0.54424	0.49158	0.75358	0.46690	0.27565	0.46334	0.45229	0.44701	0.20250	0.19686	0.14407	0.28653	0.36044	0.44710
81660	0.08334	0.09616	0.05945	0.42728	0.47732	0.42485	0.70418	0.42131	0.23672	0.40635	0.40454	0.40457	0.18382	0.17734	0.14035	0.25137	0.34978	0.45381	24.17	6.3	0.00	7.27	0.01280	0.01297	0.01674	0.00801	0.00597	0.00653	0.00473	0.01277	0.01699	0.00693	0.00712	0.00913	0.01501	0.01105	0.01206	0.00225	0.00637	0.00893
81820	0.08550	0.10547	0.07000	0.44396	0.50492	0.46207	0.73282	0.45208	0.26766	0.44933	0.44277	0.44323	0.19810	0.18965	0.14043	0.28030	0.35824	0.44338
81980	0.07374	0.08124	0.04621	0.40297	0.45087	0.39842	0.68462	0.40094	0.21675	0.38598	0.38613	0.38618	0.16974	0.15910	0.12483	0.22252	0.32116	0.43147
82140	0.08029	0.09867	0.06645	0.42935	0.49233	0.45041	0.73482	0.45286	0.26651	0.44570	0.44073	0.43948	0.20066	0.19299	0.14420	0.27651	0.35128	0.43776
82300	0.07433	0.08581	0.04626	0.39644	0.44645	0.39565	0.69149	0.40340	0.22013	0.38772	0.38849	0.38867	0.17710	0.16449	0.13193	0.22699	0.32825	0.43420
82460	0.08209	0.10091	0.06834	0.43710	0.50189	0.45952	0.74766	0.46463	0.27807	0.45815	0.45537	0.45460	0.21030	0.20395	0.15088	0.29958	0.37228	0.45505
82620	0.08263	0.09542	0.05863	0.41638	0.46961	0.41857	0.70807	0.42360	0.23948	0.40493	0.40311	0.40045	0.18550	0.17365	0.13725	0.23636	0.32911	0.42862
82790	0.07753	0.09229	0.05864	0.41299	0.47479	0.43367	0.72126	0.44378	0.26038	0.43407	0.43515	0.43884	0.20825	0.20325	0.15507	0.30115	0.38257	0.46792
82950	0.08666	0.09630	0.06034	0.42613	0.47377	0.41882	0.70785	0.42035	0.23334	0.40183	0.40050	0.39999	0.18294	0.17232	0.13657	0.24388	0.33869	0.44154
83110	0.08198	0.09896	0.06222	0.42697	0.48585	0.43804	0.72241	0.43598	0.25307	0.43131	0.42853	0.42897	0.20266	0.19207	0.15467	0.28860	0.37497	0.46885
83280	0.09068	0.10323	0.06740	0.44598	0.50074	0.45256	0.72693	0.44470	0.25833	0.44240	0.44123	0.44271	0.20687	0.19784	0.15688	0.30962	0.39316	0.48151	24.11	6.1	0.00	7.20	0.01280	0.01297	0.01674	0.00801	0.00597	0.00653	0.00473	0.01277	0.01699	0.00693	0.00712	0.00913	0.01501	0.01104	0.01206	0.00225	0.00637	0.00893
83440	0.09427	0.10532	0.06824	0.45245	0.50471	0.45460	0.72466	0.44155	0.25398	0.44086	0.43864	0.43845	0.20229	0.19248	0.15076	0.29743	0.38595	0.47768
83600	0.09220	0.10558	0.06774	0.45434	0.50903	0.45864	0.72069	0.44225	0.25684	0.44760	0.44640	0.44437	0.20631	0.19280	0.15261	0.31044	0.39677	0.48781
83770	0.09359	0.11057	0.07400	0.46538	0.52310	0.47554	0.73695	0.45257	0.26468	0.46169	0.45941	0.45547	0.20970	0.20078	0.15793	0.32048	0.40665	0.49515
83930	0.09688	0.11165	0.07209	0.46884	0.52206	0.47101	0.73429	0.44651	0.26091	0.45730	0.45687	0.45285	0.20851	0.19784	0.15810	0.31820	0.40496	0.49417
84090	0.09546	0.10846	0.07432	0.46841	0.52475	0.47466	0.73617	0.44663	0.26333	0.45963	0.45907	0.45500	0.21303	0.19743	0.15991	0.32078	0.40856	0.49817
84260	0.09904	0.11018	0.07262	0.47174	0.52523	0.47274	0.72798	0.44693	0.26145	0.45761	0.45793	0.45340	0.20860	0.19675	0.15576	0.31648	0.40449	0.49463
84420	0.09602	0.11078	0.07495	0.46981	0.52517	0.47487	0.73178	0.45038	0.26340	0.45995	0.46021	0.45632	0.21088	0.20116	0.16090	0.32100	0.40741	0.49787
84580	0.09762	0.11067	0.07303	0.47150	0.52491	0.47476	0.73339	0.44748	0.26082	0.45943	0.45822	0.45605	0.20785	0.19681	0.15678	0.31689	0.40489	0.49524
84750	0.09789	0.11291	0.07399	0.47388	0.52727	0.47812	0.73402	0.45029	0.26486	0.46161	0.46119	0.45843	0.21339	0.19923	0.16093	0.32182	0.40904	0.50013
84910	0.09848	0.10860	0.07015	0.47215	0.52579	0.47449	0.72348	0.44409	0.26056	0.45900	0.45765	0.45593	0.20666	0.19430	0.15601	0.31760	0.40456	0.49488	24.23	6.0	0.00	7.33	0.01280	0.01297	0.01674	0.00801	0.00597	0.00653	0.00473	0.01277	0.01699	0.00693	0.00712	0.00913	0.01501	0.01104	0.01205	0.00225	0.00637	0.00893
85070	0.09778	0.11153	0.07449	0.47317	0.52773	0.47718	0.72885	0.44682	0.26209	0.46233	0.46020	0.45796	0.20837	0.19876	0.15710	0.32067	0.40826	0.49829
85240	0.09765	0.10982	0.07081	0.47229	0.52404	0.47499	0.72990	0.44275	0.25839	0.46053	0.45684	0.45573	0.20432	0.19552	0.15445	0.31667	0.40387	0.49513
85400	0.09791	0.11110	0.07375	0.47320	0.52746	0.47785	0.72249	0.44713	0.26305	0.46316	0.45931	0.45811	0.20984	0.19850	0.15986	0.32410	0.40894	0.49896
85560	0.09647	0.10990	0.07185	0.47160	0.52438	0.47435	0.72207	0.44237	0.25843	0.46080	0.45696	0.45547	0.20811	0.19554	0.15411	0.31835	0.40472	0.49574
85730	0.09842	0.10920	0.07543	0.47365	0.52732	0.47698	0.73009	0.44800	0.26450	0.46302	0.46007	0.45861	0.21293	0.19978	0.15886	0.32190	0.40878	0.49894
85890	0.09691	0.10905	0.07195	0.47157	0.52452	0.47369	0.72882	0.44239	0.25860	0.45960	0.45667	0.45585	0.20761	0.19573	0.15506	0.31697	0.40459	0.49430
86050	0.09525	0.11131	0.07242	0.47170	0.52616	0.47531	0.72346	0.44620	0.26162	0.46187	0.45914	0.45665	0.20733	0.19723	0.15650	0.32123	0.40762	0.49789
86220	0.09499	0.10720	0.07055	0.47050	0.52434	0.47334	0.72368	0.44171	0.25911	0.45924	0.45709	0.45488	0.20610	0.19610	0.15487	0.31693	0.40328	0.49483
86380	0.09471	0.10854	0.07348	0.46986	0.52444	0.47498	0.72290	0.44212	0.26007	0.46080	0.45939	0.45631	0.20930	0.19824	0.15581	0.32111	0.40534	0.49646
86540	0.09428	0.10722	0.06962	0.46862	0.52365	0.47209	0.72595	0.43989	0.25760	0.45859	0.45645	0.45446	0.20590	0.19402	0.15309	0.31763	0.40274	0.49409	24.23	6.0	0.00	7.22	0.01280	0.01297	0.01674	0.00801	0.00597	0.00653	0.00473	0.01277	0.01698	0.00693	0.00712	0.00913	0.01501	0.01104	0.01205	0.00225	0.00637	0.00893
86710	0.09332	0.11001	0.07340	0.47154	0.52582	0.47473	0.73063	0.44559	0.26176	0.46108	0.45917	0.45741	0.20800	0.19602	0.15678	0.32062	0.40645	0.49728
86870	0.09486	0.10767	0.07128	0.47019	0.52362	0.47295	0.72356	0.44364	0.25891	0.45930	0.45691	0.45509	0.20455	0.19426	0.15378	0.31950	0.40426	0.49565
87030	0.09783	0.10984	0.07238	0.47313	0.52771	0.47614	0.72885	0.44891	0.26171	0.46263	0.45989	0.45797	0.21147	0.19815	0.15568	0.32268	0.40805	0.49905
87200	0.09663	0.10927	0.07018	0.47124	0.52503	0.47375	0.72712	0.44293	0.25846	0.45962	0.45741	0.45569	0.20684	0.19825	0.15592	0.32129	0.40641	0.49641
87360	0.09516	0.10985	0.07188	0.47073	0.52436	0.47330	0.72246	0.44523	0.25778	0.45921	0.45709	0.45506	0.20757	0.19722	0.15523	0.32159	0.40517	0.49585
87530	0.09336	0.11040	0.07236	0.46998	0.52593	0.47609	0.73027	0.44700	0.26174	0.46208	0.46058	0.45749	0.21112	0.19752	0.15907	0.32305	0.40941	0.49899
87690	0.09696	0.10972	0.07240	0.47165	0.52556	0.47324	0.72407	0.44331	0.25729	0.45950	0.45870	0.45552	0.20925	0.19621	0.15830	0.32339	0.40885	0.49884
87850	0.09745	0.11014	0.07151	0.47231	0.52547	0.47502	0.72775	0.44163	0.25844	0.46032	0.45852	0.45599	0.20656	0.19526	0.15423	0.32380	0.40795	0.49807
88020	0.09452	0.11044	0.07000	0.47061	0.52517	0.47378	0.73119	0.44182	0.25748	0.45938	0.45835	0.45579	0.21165	0.20098	0.15910	0.32581	0.41222	0.50126
88180	0.09648	0.11105	0.07325	0.47347	0.52728	0.47662	0.73094	0.44473	0.26058	0.46192	0.45973	0.45816	0.20777	0.19621	0.15539	0.32392	0.40942	0.49782	24.17	6.0	0.00	7.23	0.01280	0.01297	0.01673	0.00801	0.00597	0.00653	0.00473	0.01276	0.01698	0.00693	0.00712	0.00913	0.01501	0.01104	0.01205	0.00225	0.00637	0.00893
88350	0.09488	0.10979	0.07164	0.47158	0.52697	0.47473	0.72655	0.44252	0.26197	0.46180	0.46119	0.45823	0.20761	0.19690	0.15323	0.32328	0.40936	0.49732
88510	0.09580	0.10985	0.07125	0.47017	0.52443	0.47404	0.72094	0.44434	0.25726	0.46059	0.45853	0.45738	0.20776	0.19576	0.15407	0.32082	0.40705	0.49558
88670	0.09612	0.10991	0.07175	0.47256	0.52760	0.47642	0.72825	0.44345	0.26180	0.46335	0.46125	0.45968	0.20839	0.19809	0.15650	0.32388	0.41064	0.49842
88840	0.09447	0.10930	0.07117	0.47164	0.52515	0.47282	0.71650	0.43988	0.25823	0.46141	0.45922	0.45746	0.20427	0.19528	0.15273	0.32011	0.40693	0.49429
89000	0.09539	0.11080	0.07180	0.47377	0.52811	0.47698	0.71933	0.44530	0.26388	0.46517	0.46225	0.46065	0.20962	0.19972	0.15865	0.32388	0.41147	0.49956
89160	0.09511	0.10772	0.07184	0.47311	0.52686	0.47435	0.71911	0.44384	0.26029	0.46206	0.45987	0.45866	0.20440	0.19613	0.15609	0.32168	0.40735	0.49612
89330	0.09470	0.11022	0.07262	0.47477	0.52969	0.47902	0.72523	0.44791	0.26381	0.46592	0.46247	0.46190	0.21119	0.19964	0.15973	0.32732	0.41310	0.50105
89490	0.09566	0.10875	0.07173	0.47419	0.52723	0.47599	0.72145	0.44110	0.26131	0.46439	0.46044	0.45987	0.20513	0.19630	0.15314	0.32153	0.40865	0.49791
89650	0.09538	0.10904	0.07145	0.47333	0.52782	0.47673	0.73003	0.44478	0.26180	0.46496	0.46116	0.46086	0.20859	0.19662	0.15540	0.32444	0.41001	0.49831
89820	0.09418	0.10580	0.06863	0.47114	0.52569	0.47416	0.72585	0.44159	0.25793	0.46190	0.45831	0.45827	0.20405	0.19327	0.15346	0.32281	0.40595	0.49596	24.17	6.2	0.00	7.17	0.01280	0.01296	0.01673	0.00801	0.00597	0.00653	0.00473	0.01276	0.01698	0.00693	0.00712	0.00913	0.01501	0.01104	0.01205	0.00225	0.00637	0.00893
89980	0.09233	0.10530	0.06726	0.46801	0.52387	0.47271	0.72504	0.44065	0.25495	0.46107	0.45833	0.45696	0.20418	0.19604	0.15786	0.32640	0.41110	0.50096
90140	0.09699	0.10961	0.07196	0.47414	0.52953	0.47646	0.72814	0.44630	0.25976	0.46373	0.45959	0.45945	0.20539	0.19138	0.15551	0.32311	0.40769	0.49756
90310	0.09555	0.10721	0.07047	0.47324	0.52914	0.47738	0.72489	0.44641	0.26094	0.46509	0.46153	0.46097	0.20881	0.19537	0.15565	0.32472	0.40789	0.49804
90470	0.09498	0.10848	0.06859	0.47276	0.52672	0.47586	0.72248	0.44327	0.26076	0.46426	0.46022	0.45944	0.20541	0.19329	0.15625	0.32244	0.40597	0.49727
90630	0.09523	0.10945	0.07307	0.47497	0.53170	0.47869	0.72894	0.44876	0.26198	0.46656	0.46306	0.46231	0.21090	0.19850	0.15809	0.32711	0.41037	0.50093
90800	0.09479	0.11064	0.07073	0.47406	0.52812	0.47685	0.72414	0.44399	0.25929	0.46355	0.46082	0.45963	0.20659	0.19516	0.15464	0.32446	0.40765	0.49879
90960	0.09439	0.10985	0.07000	0.47240	0.52777	0.47633	0.72714	0.44471	0.25983	0.46433	0.46044	0.45949	0.20703	0.19519	0.15687	0.32270	0.40659	0.49720
91130	0.09247	0.11122	0.07240	0.47162	0.52992	0.47919	0.72348	0.44856	0.26215	0.46728	0.46330	0.46200	0.21064	0.19864	0.15847	0.32685	0.41075	0.50068
91290	0.09624	0.10960	0.07292	0.47405	0.52819	0.47680	0.72421	0.44374	0.25903	0.46451	0.46051	0.45921	0.20725	0.19712	0.15653	0.32509	0.40978	0.50027
91450	0.09536	0.10595	0.07104	0.47374	0.52949	0.47578	0.72001	0.44419	0.25820	0.46382	0.45961	0.45876	0.20541	0.19560	0.15630	0.32248	0.40766	0.49954	24.30	6.2	0.00	7.23	0.01280	0.01296	0.01673	0.00801	0.00597	0.00653	0.00473	0.01276	0.01698	0.00693	0.00712	0.00913	0.01500	0.01104	0.01205	0.00225	0.00637	0.00893
91620	0.09266	0.10723	0.06853	0.47247	0.52787	0.47456	0.72140	0.44208	0.25790	0.46243	0.45948	0.45808	0.20970	0.19601	0.16037	0.32670	0.41018	0.50281
91780	0.09824	0.11116	0.07278	0.47617	0.53077	0.47841	0.72021	0.44443	0.26099	0.46559	0.46169	0.46068	0.20743	0.19785	0.15689	0.32498	0.40910	0.50037
91950	0.09747	0.10941	0.07301	0.47496	0.52999	0.47724	0.72599	0.44307	0.25981	0.46485	0.46058	0.45956	0.20884	0.19467	0.15612	0.32494	0.40930	0.50006
92110	0.09271	0.10610	0.07199	0.47263	0.52763	0.47517	0.72243	0.44187	0.25806	0.46297	0.45892	0.45735	0.20689	0.19511	0.15308	0.32188	0.40636	0.49749
92270	0.09529	0.10818	0.07203	0.47448	0.53035	0.47786	0.72974	0.44868	0.26299	0.46355	0.46169	0.45947	0.20887	0.19514	0.15756	0.32524	0.41076	0.50073
92440	0.09395	0.10850	0.07047	0.47299	0.52785	0.47572	0.72199	0.44335	0.25874	0.46204	0.45825	0.45696	0.20626	0.19385	0.15522	0.32248	0.40756	0.49767
92600	0.09741	0.11038	0.07451	0.47493	0.53073	0.47860	0.73331	0.44836	0.26389	0.46594	0.46251	0.46064	0.20967	0.19837	0.15876	0.33010	0.41241	0.50228
92760	0.09685	0.10699	0.07019	0.47363	0.52820	0.47550	0.72830	0.44205	0.25891	0.46223	0.45946	0.45799	0.20706	0.19779	0.15899	0.32662	0.41135	0.50090
92930	0.09499	0.10828	0.06895	0.47256	0.52789	0.47451	0.72109	0.44523	0.25768	0.46086	0.45787	0.45608	0.20513	0.19524	0.15658	0.32319	0.40867	0.49844
93090	0.09277	0.10590	0.06999	0.47070	0.52617	0.47389	0.72586	0.44047	0.25729	0.45883	0.45622	0.45512	0.20552	0.19512	0.15486	0.32295	0.40956	0.49875	24.23	6.1	0.00	7.21	0.01280	0.01296	0.01673	0.00801	0.00597	0.00653	0.00473	0.01276	0.01698	0.00693	0.00712	0.00913	0.01500	0.01104	0.01205	0.00225	0.00637	0.00893
93260	0.09423	0.10764	0.07016	0.47239	0.52819	0.47495	0.72796	0.44285	0.25759	0.46058	0.45845	0.45632	0.20582	0.19321	0.15697	0.32497	0.40846	0.49785
93420	0.09415	0.10783	0.06932	0.47096	0.52633	0.47312	0.72299	0.43920	0.25779	0.45929	0.45679	0.45495	0.20500	0.19666	0.15655	0.32616	0.41040	0.50049
93580	0.09474	0.10784	0.07180	0.47366	0.52907	0.47622	0.72733	0.44386	0.26041	0.46140	0.45904	0.45642	0.20633	0.19268	0.15543	0.32605	0.40904	0.49758
93750	0.09570	0.11122	0.07269	0.47538	0.53085	0.47841	0.73492	0.44730	0.26326	0.46335	0.46079	0.45842	0.20741	0.19810	0.15886	0.32740	0.41143	0.50019
93910	0.09497	0.11195	0.07121	0.47375	0.52918	0.47553	0.72467	0.44490	0.25952	0.46078	0.45716	0.45591	0.20622	0.19883	0.15852	0.32541	0.41116	0.49990
94080	0.09482	0.10717	0.07066	0.47303	0.52801	0.47498	0.71740	0.44509	0.25907	0.46063	0.45646	0.45490	0.20783	0.19438	0.15448	0.32407	0.40875	0.49794
94240	0.09589	0.11005	0.06916	0.47301	0.52762	0.47460	0.73084	0.44612	0.26030	0.46073	0.45796	0.45552	0.20699	0.19602	0.15565	0.32313	0.40948	0.49795
94400	0.09577	0.10839	0.06997	0.47241	0.52733	0.47396	0.72567	0.44345	0.25830	0.45964	0.45666	0.45528	0.21000	0.19791	0.15508	0.32657	0.41143	0.50062
94570	0.09686	0.10743	0.07197	0.47530	0.52874	0.47534	0.73116	0.44705	0.26086	0.46140	0.45857	0.45653	0.20906	0.19393	0.15423	0.32601	0.40931	0.49767
94730	0.09466	0.10758	0.07017	0.47119	0.52575	0.47328	0.72421	0.44167	0.25739	0.45993	0.45555	0.45448	0.20696	0.19693	0.15829	0.32541	0.41169	0.50100	24.11	6.1	0.00	7.19	0.01280	0.01296	0.01673	0.00801	0.00597	0.00653	0.00473	0.01276	0.01698	0.00693	0.00712	0.00913	0.01500	0.01104	0.01205	0.00225	0.00637	0.00892
94900	0.09570	0.10955	0.07185	0.47618	0.53086	0.47750	0.73175	0.44671	0.26388	0.46248	0.45896	0.45713	0.20738	0.19775	0.15732	0.32466	0.40935	0.49924
95060	0.09480	0.10827	0.07060	0.47337	0.52909	0.47589	0.73426	0.44299	0.26040	0.46204	0.45758	0.45700	0.20699	0.19672	0.15468	0.32552	0.40838	0.49712
95220	0.09269	0.10586	0.07048	0.47228	0.52607	0.47376	0.72058	0.44376	0.25737	0.45957	0.45511	0.45423	0.20348	0.19399	0.15221	0.32017	0.40550	0.49523
95390	0.09438	0.10874	0.07203	0.47326	0.52863	0.47637	0.73475	0.44483	0.26100	0.46159	0.45697	0.45570	0.20684	0.19545	0.15424	0.32395	0.40830	0.49747
95550	0.09468	0.10753	0.07093	0.47276	0.52637	0.47515	0.72543	0.44288	0.25954	0.46064	0.45606	0.45498	0.20502	0.19232	0.15502	0.32085	0.40677	0.49562
95710	0.09509	0.10897	0.07129	0.47418	0.52815	0.47631	0.73106	0.44534	0.26151	0.46220	0.45678	0.45572	0.20621	0.19660	0.15614	0.32507	0.40885	0.49767
95880	0.09401	0.10580	0.07054	0.47326	0.52605	0.47415	0.72655	0.44400	0.25871	0.46001	0.45481	0.45518	0.20357	0.19444	0.15441	0.32361	0.40592	0.49662
96040	0.09588	0.11086	0.07343	0.47487	0.52861	0.47765	0.72253	0.44660	0.26195	0.46291	0.45779	0.45696	0.20855	0.19813	0.15640	0.32772	0.40942	0.49985
96200	0.09529	0.10650	0.06968	0.47366	0.52615	0.47442	0.72489	0.44508	0.25736	0.45997	0.45389	0.45463	0.20185	0.19302	0.15459	0.32141	0.40556	0.49596
96370	0.09452	0.10818	0.07193	0.47425	0.52866	0.47732	0.72136	0.44673	0.26176	0.46222	0.45724	0.45666	0.20863	0.19933	0.15806	0.32957	0.41064	0.50063	24.30	6.2	0.00	6.36	0.01280	0.01296	0.01673	0.00801	0.00597	0.00653	0.00473	0.01276	0.01698	0.00693	0.00712	0.00913	0.01500	0.01104	0.01205	0.00225	0.00637	0.00892
96530	0.09340	0.10728	0.06935	0.47375	0.52596	0.47406	0.72205	0.44510	0.26077	0.45921	0.45429	0.45430	0.20815	0.19375	0.15393	0.32505	0.40626	0.49691
96690	0.09441	0.10911	0.07227	0.47429	0.52866	0.47666	0.72707	0.44751	0.26192	0.46176	0.45601	0.45669	0.20909	0.19644	0.15540	0.33111	0.40983	0.50011
96860	0.09554	0.10864	0.06969	0.47273	0.52591	0.47398	0.72151	0.44117	0.25738	0.45875	0.45375	0.45373	0.20251	0.19295	0.15442	0.32318	0.40600	0.49604
97020	0.09217	0.10894	0.06782	0.46945	0.52268	0.47170	0.72010	0.43975	0.25535	0.45653	0.45226	0.45177	0.20544	0.19669	0.15812	0.32681	0.40976	0.50035
97180	0.09553	0.10633	0.07073	0.47313	0.52517	0.47469	0.72139	0.44745	0.25916	0.45949	0.45547	0.45418	0.20795	0.19374	0.15424	0.32415	0.40614	0.49676
97350	0.09197	0.10620	0.06835	0.47016	0.52304	0.47102	0.71742	0.44159	0.25485	0.45631	0.45279	0.45135	0.20725	0.19748	0.15983	0.32804	0.41105	0.50171
97510	0.09691	0.10897	0.07259	0.47445	0.52862	0.47504	0.73061	0.44580	0.25868	0.46033	0.45733	0.45463	0.20582	0.19411	0.15375	0.32494	0.40772	0.49821
97670	0.09617	0.10856	0.07234	0.47370	0.52836	0.47626	0.72778	0.44426	0.26187	0.46050	0.45794	0.45581	0.20625	0.19649	0.15457	0.32561	0.40848	0.49876
97840	0.09471	0.10671	0.06872	0.47194	0.52603	0.47356	0.72002	0.44195	0.25739	0.45823	0.45554	0.45276	0.20826	0.19518	0.15630	0.33006	0.41010	0.50068
98000	0.09574	0.10904	0.07156	0.47523	0.52909	0.47754	0.72318	0.44860	0.26144	0.46175	0.45950	0.45678	0.20635	0.19638	0.15769	0.32780	0.40856	0.49953	24.17	6.2	0.00	7.22	0.01280	0.01296	0.01673	0.00801	0.00597	0.00653	0.00473	0.01276	0.01698	0.00693	0.00712	0.00913	0.01500	0.01104	0.01205	0.00225	0.00636	0.00892
98160	0.09541	0.10644	0.06998	0.47302	0.52572	0.47355	0.72625	0.44415	0.25801	0.45852	0.45569	0.45414	0.20704	0.19735	0.15591	0.32585	0.40851	0.49984
98330	0.09457	0.10891	0.07148	0.47412	0.52679	0.47559	0.72869	0.44505	0.25944	0.46061	0.45887	0.45593	0.20693	0.19598	0.15600	0.32424	0.40641	0.49737
98490	0.09161	0.10691	0.06832	0.47075	0.52420	0.47210	0.72135	0.44101	0.25706	0.45753	0.45525	0.45346	0.20399	0.19319	0.15261	0.31984	0.40094	0.49345
98650	0.09221	0.10636	0.07186	0.46883	0.52575	0.47482	0.72201	0.44649	0.26126	0.46167	0.45852	0.45679	0.20805	0.19771	0.15642	0.32589	0.40769	0.49829
98820	0.09493	0.10712	0.07070	0.47179	0.52518	0.47334	0.72016	0.44323	0.25694	0.45912	0.45682	0.45416	0.20321	0.19095	0.15210	0.32069	0.40190	0.49423
98980	0.09201	0.10654	0.06948	0.46835	0.52544	0.47399	0.72296	0.44591	0.25906	0.45968	0.45853	0.45583	0.20533	0.19536	0.15640	0.32495	0.40617	0.49660
99140	0.09404	0.10565	0.06996	0.47063	0.52438	0.47301	0.71816	0.44366	0.25714	0.45802	0.45718	0.45431	0.20371	0.19155	0.15320	0.32077	0.40322	0.49423
99310	0.09526	0.10819	0.07123	0.47227	0.52784	0.47591	0.72408	0.44568	0.26116	0.46103	0.45930	0.45713	0.20596	0.19615	0.15633	0.32514	0.40553	0.49786
99470	0.09603	0.10827	0.07072	0.47140	0.52537	0.47327	0.72274	0.44235	0.25723	0.45861	0.45647	0.45431	0.20526	0.19263	0.15265	0.32129	0.40211	0.49445
99630	0.09742	0.10705	0.07142	0.47175	0.52804	0.47612	0.72939	0.44708	0.25979	0.46116	0.45897	0.45595	0.20807	0.19696	0.15609	0.32328	0.40696	0.49743	24.23	6.2	0.00	7.21	0.01280	0.01296	0.01673	0.00801	0.00597	0.00653	0.00473	0.01276	0.01698	0.00693	0.00712	0.00913	0.01500	0.01104	0.01205	0.00225	0.00636	0.00892
99800	0.09474	0.10761	0.06913	0.47084	0.52493	0.47230	0.70976	0.44160	0.25764	0.45768	0.45602	0.45337	0.20683	0.19550	0.15582	0.32336	0.40579	0.49636
99960	0.09372	0.10706	0.07030	0.47050	0.52343	0.47307	0.72349	0.44400	0.25687	0.45790	0.45655	0.45331	0.20453	0.19565	0.15573	0.32055	0.40318	0.49448
100130	0.09363	0.10664	0.06834	0.46854	0.52213	0.47070	0.72273	0.44082	0.25529	0.45615	0.45415	0.45204	0.20747	0.19556	0.15741	0.32287	0.40781	0.49877
100290	0.09591	0.10789	0.07076	0.47292	0.52585	0.47413	0.72607	0.44421	0.25710	0.45864	0.45659	0.45404	0.20772	0.19475	0.15725	0.31902	0.40420	0.49524
100450	0.09405	0.10817	0.07072	0.47088	0.52574	0.47478	0.72690	0.44218	0.25811	0.45941	0.45710	0.45468	0.20663	0.19658	0.15650	0.32190	0.40579	0.49619
100620	0.09607	0.10708	0.07014	0.47088	0.52410	0.47355	0.72132	0.44587	0.25876	0.45941	0.45636	0.45338	0.20859	0.19428	0.15697	0.32022	0.40546	0.49670
100780	0.09393	0.10658	0.07020	0.47071	0.52358	0.47339	0.72693	0.44487	0.25651	0.45962	0.45663	0.45456	0.20519	0.19442	0.15516	0.31928	0.40562	0.49647
100950	0.09500	0.10744	0.07085	0.47092	0.52364	0.47421	0.72175	0.44293	0.25854	0.45996	0.45682	0.45441	0.20837	0.19688	0.15539	0.32048	0.40603	0.49663
101110	0.09514	0.10842	0.07131	0.47013	0.52296	0.47307	0.72588	0.44518	0.25793	0.45890	0.45651	0.45348	0.20707	0.19568	0.15723	0.31910	0.40524	0.49625
101280	0.09424	0.10683	0.07121	0.46924	0.52156	0.47166	0.72105	0.44301	0.25891	0.45820	0.45411	0.45283	0.20841	0.19581	0.15667	0.31954	0.40549	0.49657	24.23	6.1	0.00	7.19	0.01279	0.01296	0.01673	0.00801	0.00596	0.00653	0.00473	0.01276	0.01698	0.00693	0.00712	0.00913	0.01500	0.01104	0.01205	0.00225	0.00636	0.00892
101440	0.09414	0.10807	0.07049	0.46943	0.52229	0.47271	0.72390	0.44368	0.25995	0.45863	0.45510	0.45353	0.20790	0.19477	0.15666	0.31737	0.40304	0.49364
101610	0.09339	0.10680	0.06904	0.46735	0.52091	0.47191	0.71895	0.44427	0.25887	0.45792	0.45331	0.45232	0.20846	0.19615	0.15618	0.31876	0.40340	0.49547
101770	0.09332	0.10863	0.06912	0.46885	0.52094	0.47207	0.73073	0.44266	0.25814	0.45851	0.45417	0.45240	0.20834	0.19791	0.15687	0.31797	0.40277	0.49496
101940	0.09434	0.10951	0.06910	0.46778	0.52033	0.47174	0.71985	0.44363	0.25846	0.45814	0.45284	0.45232	0.20676	0.19774	0.15531	0.31461	0.40127	0.49360
102100	0.09496	0.10938	0.07056	0.46729	0.52193	0.47212	0.72795	0.44519	0.25889	0.45837	0.45389	0.45286	0.20866	0.19645	0.15574	0.31715	0.40300	0.49496
102260	0.09390	0.10648	0.07081	0.46699	0.51958	0.47096	0.72373	0.44711	0.25866	0.45786	0.45242	0.45163	0.20696	0.19587	0.15734	0.31737	0.40216	0.49455
102430	0.09328	0.10622	0.07135	0.46809	0.52085	0.47155	0.71666	0.44605	0.25813	0.45929	0.45355	0.45187	0.20578	0.19386	0.15425	0.31610	0.40087	0.49267
102590	0.09355	0.11078	0.07063	0.46738	0.52050	0.47128	0.71831	0.44598	0.25876	0.45865	0.45323	0.45231	0.20840	0.19633	0.15758	0.31666	0.40147	0.49322
102760	0.09523	0.10819	0.06875	0.46679	0.51810	0.46979	0.72405	0.44502	0.25764	0.45677	0.45121	0.45105	0.20708	0.19853	0.15715	0.31674	0.40158	0.49454
102920	0.09611	0.10995	0.07117	0.46683	0.51976	0.47025	0.73059	0.44307	0.25921	0.45699	0.45166	0.45150	0.20410	0.19484	0.15433	0.31158	0.39951	0.49099	24.23	6.0	0.00	7.21	0.01279	0.01296	0.01673	0.00801	0.00596	0.00652	0.00473	0.01276	0.01697	0.00693	0.00712	0.00913	0.01500	0.01104	0.01205	0.00225	0.00636	0.00892
103090	0.09373	0.10986	0.07168	0.46689	0.52091	0.47082	0.72754	0.44630	0.26010	0.45840	0.45304	0.45209	0.20936	0.19816	0.15692	0.31200	0.40131	0.49194
103250	0.09312	0.10873	0.06917	0.46474	0.51816	0.46825	0.71915	0.44088	0.25795	0.45501	0.44989	0.44943	0.20543	0.19635	0.15646	0.31293	0.40130	0.49241
103420	0.09477	0.10998	0.06966	0.46494	0.51875	0.46897	0.72259	0.44393	0.25910	0.45676	0.45105	0.45030	0.20604	0.19622	0.15643	0.31188	0.39790	0.49019
103580	0.09612	0.11029	0.07224	0.46562	0.51971	0.46934	0.72383	0.44523	0.25956	0.45728	0.45150	0.45144	0.20674	0.19732	0.15531	0.31226	0.39956	0.49030
103750	0.09522	0.10789	0.06867	0.46319	0.51617	0.46607	0.72259	0.44223	0.25739	0.45534	0.44862	0.44853	0.20466	0.19688	0.15720	0.31241	0.39871	0.48986
103910	0.09661	0.10871	0.07028	0.46313	0.51704	0.46663	0.72383	0.44509	0.25801	0.45431	0.44912	0.44870	0.20517	0.19531	0.15791	0.31028	0.39689	0.48849
104070	0.09199	0.10648	0.06963	0.46084	0.51446	0.46344	0.72264	0.43766	0.25539	0.45226	0.44675	0.44638	0.20798	0.19524	0.15499	0.30916	0.39730	0.48872
104240	0.09537	0.10762	0.07076	0.46302	0.51685	0.46589	0.72642	0.44411	0.25832	0.45495	0.44975	0.44842	0.20765	0.19499	0.15691	0.30990	0.39770	0.48833
104400	0.09466	0.10712	0.07115	0.46306	0.51677	0.46602	0.72944	0.44529	0.25773	0.45517	0.44799	0.44824	0.20577	0.19428	0.15548	0.31061	0.39761	0.48938
104570	0.09508	0.10785	0.07156	0.46316	0.51555	0.46606	0.72262	0.44430	0.25962	0.45448	0.44843	0.44797	0.20631	0.19515	0.15261	0.31119	0.39668	0.48698	24.23	6.0	0.00	7.56	0.01279	0.01296	0.01673	0.00801	0.00596	0.00652	0.00473	0.01276	0.01697	0.00693	0.00712	0.00913	0.01500	0.01103	0.01205	0.00225	0.00636	0.00892
104730	0.09366	0.10606	0.07152	0.46164	0.51732	0.46535	0.71784	0.44220	0.25917	0.45536	0.44873	0.44864	0.20874	0.19391	0.15634	0.31115	0.39631	0.48712
104900	0.09304	0.10570	0.06759	0.46123	0.51408	0.46311	0.72828	0.43848	0.25738	0.45280	0.44691	0.44630	0.20695	0.19488	0.15736	0.31209	0.39816	0.48872
105060	0.09479	0.10979	0.07072	0.46377	0.51718	0.46520	0.72399	0.44547	0.25971	0.45436	0.44877	0.44734	0.20736	0.19433	0.15735	0.31123	0.39644	0.48707
105230	0.09449	0.10835	0.07172	0.46239	0.51658	0.46544	0.72680	0.44572	0.26078	0.45464	0.44742	0.44825	0.20591	0.19533	0.15356	0.31059	0.39697	0.48755
105390	0.09360	0.10495	0.07024	0.46033	0.51383	0.46235	0.71560	0.44400	0.25600	0.45094	0.44483	0.44543	0.20665	0.19622	0.15692	0.31160	0.39703	0.48764
105560	0.09389	0.10761	0.07108	0.46110	0.51473	0.46294	0.71316	0.44081	0.25821	0.45108	0.44577	0.44553	0.20788	0.19496	0.15619	0.30906	0.39575	0.48639
105720	0.09443	0.10817	0.06921	0.45913	0.51342	0.46123	0.71823	0.43863	0.25590	0.44993	0.44356	0.44352	0.20701	0.19616	0.15826	0.31194	0.39926	0.49108
105880	0.09681	0.10927	0.07068	0.46358	0.51654	0.46541	0.72670	0.44461	0.26066	0.45321	0.44641	0.44677	0.20776	0.19644	0.15403	0.30943	0.39655	0.48628
106050	0.09599	0.10930	0.07306	0.46335	0.51739	0.46688	0.72999	0.44700	0.26311	0.45431	0.44770	0.44815	0.20817	0.19764	0.15794	0.31425	0.39866	0.48930
106210	0.09512	0.10719	0.06946	0.46217	0.51590	0.46485	0.72250	0.44193	0.25819	0.45111	0.44427	0.44484	0.20364	0.19498	0.15518	0.30921	0.39454	0.48458	24.30	6.0	0.00	7.21	0.01279	0.01296	0.01673	0.00801	0.00596	0.00652	0.00473	0.01276	0.01697	0.00693	0.00712	0.00913	0.01500	0.01103	0.01205	0.00225	0.00636	0.00892
106370	0.09388	0.10797	0.07259	0.46153	0.51623	0.46641	0.72663	0.44677	0.26144	0.45188	0.44591	0.44579	0.20555	0.19841	0.15610	0.31123	0.39696	0.48688
106530	0.09563	0.10828	0.07028	0.45915	0.51351	0.46205	0.71889	0.44235	0.25932	0.44939	0.44317	0.44263	0.20312	0.19523	0.15264	0.30757	0.39207	0.48260
106700	0.09198	0.10542	0.06767	0.45591	0.50973	0.45896	0.72148	0.44156	0.25594	0.44555	0.43974	0.44003	0.20558	0.19681	0.15457	0.30835	0.39535	0.48551
106860	0.09391	0.10768	0.07171	0.45830	0.51188	0.46161	0.73109	0.44296	0.25747	0.44810	0.44276	0.44086	0.20605	0.19423	0.15239	0.30473	0.39261	0.48293
107030	0.09316	0.10458	0.06759	0.45596	0.50905	0.45744	0.71702	0.43976	0.25469	0.44539	0.43996	0.43846	0.20517	0.19470	0.15478	0.30783	0.39458	0.48494
107190	0.09540	0.10862	0.06945	0.45840	0.51196	0.46098	0.72821	0.44469	0.25760	0.44749	0.44375	0.44162	0.20656	0.19280	0.15271	0.30589	0.39223	0.48219
107350	0.09188	0.10906	0.06893	0.45523	0.50937	0.45770	0.71989	0.44189	0.25589	0.44592	0.44085	0.43925	0.20373	0.19420	0.15316	0.30551	0.39248	0.48294
107520	0.09429	0.10773	0.06929	0.45666	0.51155	0.45998	0.72055	0.44235	0.25765	0.44613	0.44256	0.44110	0.20627	0.19558	0.15607	0.30712	0.39400	0.48364
107690	0.09530	0.10737	0.07056	0.45809	0.51162	0.45952	0.72306	0.44385	0.25663	0.44602	0.44293	0.44004	0.20734	0.19711	0.16033	0.30973	0.39590	0.48519
107850	0.09773	0.10903	0.07122	0.45860	0.51337	0.46114	0.73115	0.44538	0.25827	0.44723	0.44301	0.44154	0.20658	0.19253	0.15374	0.30572	0.39255	0.48147	24.30	5.9	0.00	7.59	0.01279	0.01296	0.01673	0.00801	0.00596	0.00652	0.00472	0.01276	0.01697	0.00693	0.00712	0.00913	0.01500	0.01103	0.01204	0.00225	0.00636	0.00892
108010	0.09368	0.10881	0.07301	0.45631	0.51407	0.46128	0.72885	0.44813	0.26238	0.44898	0.44610	0.44322	0.20529	0.19612	0.15827	0.30964	0.39556	0.48440
108180	0.09600	0.10847	0.07217	0.45778	0.51224	0.45894	0.72646	0.44369	0.25799	0.44581	0.44260	0.44077	0.20575	0.19623	0.15682	0.30811	0.39518	0.48413
108340	0.09624	0.10988	0.07261	0.45834	0.51362	0.46060	0.72888	0.44710	0.26204	0.44618	0.44349	0.44137	0.20471	0.19422	0.15438	0.30580	0.39263	0.48156
108500	0.09444	0.10753	0.06925	0.45491	0.50882	0.45638	0.72343	0.44317	0.25500	0.44311	0.44004	0.43887	0.20452	0.19629	0.15590	0.30707	0.39445	0.48389
108670	0.09597	0.10918	0.07031	0.45706	0.51047	0.45793	0.71882	0.44339	0.25780	0.44461	0.44148	0.44077	0.20371	0.19289	0.15334	0.30583	0.39106	0.47998
108830	0.09376	0.10515	0.06978	0.45331	0.50747	0.45435	0.71709	0.43827	0.25705	0.44227	0.43990	0.43730	0.20367	0.19481	0.15489	0.30397	0.39182	0.48169
108990	0.09479	0.10872	0.07026	0.45537	0.51092	0.45691	0.72902	0.44272	0.25670	0.44365	0.44096	0.43888	0.20512	0.19504	0.15281	0.30337	0.38974	0.47905
109160	0.09072	0.10822	0.06945	0.45189	0.50663	0.45384	0.72580	0.44274	0.25433	0.44150	0.43968	0.43652	0.20470	0.19507	0.15764	0.30442	0.39200	0.48232
109320	0.09555	0.10725	0.07149	0.45468	0.51005	0.45682	0.72741	0.44704	0.25695	0.44395	0.44179	0.43827	0.20343	0.19292	0.15197	0.30154	0.38746	0.47864
109490	0.09466	0.10697	0.07126	0.45436	0.51027	0.45731	0.72122	0.44602	0.25880	0.44439	0.44242	0.44012	0.20668	0.19388	0.15352	0.30405	0.39006	0.47905	24.30	6.1	0.00	7.19	0.01279	0.01296	0.01673	0.00801	0.00596	0.00652	0.00473	0.01276	0.01697	0.00693	0.00712	0.00913	0.01500	0.01103	0.01204	0.00225	0.00636	0.00892
109650	0.09444	0.10656	0.06918	0.45272	0.50865	0.45541	0.72583	0.44168	0.25749	0.44212	0.44045	0.43836	0.20409	0.19217	0.15334	0.30405	0.39000	0.47916
109820	0.09430	0.10912	0.06985	0.45243	0.50832	0.45564	0.72264	0.44443	0.25714	0.44347	0.44169	0.43922	0.20663	0.19308	0.15258	0.30375	0.38829	0.47845
109980	0.09162	0.10646	0.06823	0.45108	0.50582	0.45261	0.72256	0.43946	0.25454	0.44039	0.43851	0.43657	0.20607	0.19304	0.15523	0.30510	0.39338	0.48205
110140	0.09701	0.10757	0.07108	0.45490	0.51030	0.45687	0.72635	0.44704	0.25783	0.44461	0.44222	0.43923	0.20545	0.19342	0.15445	0.30424	0.38883	0.47905
110310	0.09600	0.10647	0.06861	0.45257	0.50883	0.45482	0.72725	0.44403	0.25704	0.44268	0.44051	0.43753	0.20444	0.19362	0.15545	0.30271	0.38753	0.47812
110470	0.09418	0.10585	0.06829	0.45062	0.50650	0.45247	0.71700	0.44137	0.25537	0.43999	0.43927	0.43599	0.20429	0.19382	0.15332	0.30162	0.38765	0.47663
110640	0.09651	0.10629	0.07138	0.45209	0.50709	0.45430	0.72469	0.44430	0.25817	0.44238	0.44115	0.43789	0.20647	0.19337	0.15461	0.30136	0.38788	0.47703
110800	0.09369	0.10606	0.07065	0.45177	0.50720	0.45441	0.72293	0.44415	0.25831	0.44164	0.44086	0.43743	0.20747	0.19539	0.15641	0.30170	0.38910	0.47814
110970	0.09581	0.10908	0.07170	0.45159	0.50724	0.45478	0.72993	0.44559	0.25797	0.44254	0.44059	0.43734	0.20488	0.19486	0.15405	0.30092	0.38741	0.47651
111130	0.09436	0.10970	0.07312	0.44941	0.50727	0.45324	0.72829	0.44539	0.26049	0.44226	0.44096	0.43743	0.20743	0.19535	0.15496	0.30228	0.38720	0.47674	24.30	6.2	0.00	7.21	0.01279	0.01296	0.01673	0.00801	0.00596	0.00652	0.00472	0.01275	0.01697	0.00693	0.00712	0.00913	0.01500	0.01103	0.01204	0.00225	0.00636	0.00892
111300	0.09423	0.10730	0.07071	0.44988	0.50585	0.45148	0.72646	0.44271	0.25694	0.44009	0.43748	0.43451	0.20747	0.19494	0.15382	0.30146	0.38939	0.47842
111460	0.09622	0.10978	0.07156	0.45253	0.50720	0.45389	0.72260	0.44388	0.25909	0.44105	0.43884	0.43643	0.20644	0.19576	0.15406	0.30333	0.38642	0.47528
111630	0.09569	0.10786	0.07220	0.45117	0.50868	0.45369	0.73163	0.44362	0.26141	0.44220	0.44027	0.43693	0.20695	0.19442	0.15516	0.30277	0.38800	0.47696
111790	0.09548	0.10593	0.07093	0.44898	0.50528	0.45116	0.71990	0.44210	0.25698	0.43940	0.43762	0.43450	0.20838	0.19373	0.15705	0.30235	0.38720	0.47717
111960	0.09471	0.10806	0.06940	0.45027	0.50656	0.45205	0.72141	0.44451	0.25776	0.44011	0.43883	0.43516	0.20609	0.19270	0.15431	0.29877	0.38447	0.47371
112120	0.09379	0.10605	0.07017	0.44874	0.50600	0.45174	0.72129	0.44513	0.25776	0.44038	0.43915	0.43595	0.20741	0.19434	0.15473	0.29918	0.38432	0.47396
112280	0.09551	0.10645	0.07122	0.44897	0.50578	0.45095	0.72470	0.44467	0.25812	0.44010	0.43850	0.43432	0.20564	0.19480	0.15615	0.29933	0.38578	0.47494
112450	0.09475	0.10959	0.07124	0.44922	0.50633	0.45185	0.72319	0.44522	0.25834	0.43954	0.43801	0.43403	0.20643	0.19496	0.15490	0.29937	0.38449	0.47512
112610	0.09355	0.10515	0.06699	0.44807	0.50447	0.44997	0.72055	0.43985	0.25517	0.43823	0.43590	0.43315	0.20860	0.19770	0.15855	0.30340	0.38849	0.47942
112780	0.09699	0.10948	0.07243	0.45120	0.50838	0.45394	0.72660	0.44433	0.25956	0.44055	0.43944	0.43557	0.20784	0.19440	0.15363	0.30111	0.38489	0.47400	24.30	6.1	0.00	7.32	0.01279	0.01296	0.01673	0.00801	0.00596	0.00652	0.00472	0.01275	0.01697	0.00693	0.00712	0.00913	0.01499	0.01103	0.01204	0.00225	0.00636	0.00892
112940	0.09400	0.10611	0.07007	0.44821	0.50593	0.45095	0.72760	0.44074	0.25682	0.43944	0.43851	0.43536	0.20573	0.19195	0.15320	0.29745	0.38323	0.47304
113110	0.09263	0.10668	0.06759	0.44587	0.50356	0.44849	0.72685	0.44272	0.25318	0.43639	0.43477	0.43277	0.20593	0.19149	0.15595	0.30073	0.38683	0.47655
113270	0.09532	0.10842	0.07226	0.45017	0.50669	0.45143	0.73202	0.44374	0.25986	0.43960	0.43777	0.43559	0.20326	0.19294	0.15504	0.29864	0.38411	0.47403
113440	0.09469	0.10817	0.07121	0.45057	0.50970	0.45491	0.72553	0.44689	0.26164	0.44157	0.43936	0.43627	0.20779	0.19607	0.15734	0.30156	0.38704	0.47647
113600	0.09265	0.10772	0.07143	0.44867	0.50673	0.45096	0.71979	0.44465	0.25567	0.43880	0.43582	0.43410	0.20422	0.19044	0.15286	0.30047	0.38425	0.47389
113760	0.09354	0.10826	0.06913	0.44790	0.50530	0.45046	0.72316	0.44334	0.25601	0.43768	0.43525	0.43273	0.20716	0.19440	0.15592	0.29961	0.38623	0.47544
113930	0.09445	0.10868	0.07221	0.44851	0.50714	0.45121	0.72719	0.44510	0.25876	0.43861	0.43619	0.43402	0.20430	0.19500	0.15248	0.30152	0.38565	0.47392
114090	0.09363	0.10674	0.06914	0.44765	0.50675	0.45114	0.72272	0.44295	0.25718	0.43747	0.43548	0.43312	0.20975	0.19619	0.15783	0.29898	0.38771	0.47679
114260	0.09368	0.11102	0.07104	0.45045	0.50766	0.45303	0.72670	0.44487	0.25850	0.43914	0.43668	0.43397	0.20631	0.19637	0.15497	0.29954	0.38512	0.47407
114420	0.09308	0.10645	0.07127	0.44791	0.50722	0.45316	0.72795	0.44720	0.26121	0.43866	0.43659	0.43519	0.20577	0.19444	0.15460	0.30054	0.38588	0.47472	24.30	6.2	0.00	7.30	0.01279	0.01296	0.01673	0.00801	0.00596	0.00652	0.00472	0.01275	0.01697	0.00693	0.00712	0.00913	0.01499	0.01103	0.01204	0.00225	0.00636	0.00892
114580	0.09253	0.10651	0.07000	0.44706	0.50515	0.45027	0.72275	0.44438	0.25633	0.43549	0.43242	0.43244	0.20405	0.19050	0.15418	0.29491	0.38181	0.47098
114750	0.09638	0.10975	0.07232	0.44939	0.50811	0.45416	0.72194	0.44498	0.26052	0.43999	0.43698	0.43575	0.20717	0.19724	0.15782	0.30230	0.38732	0.47585
114910	0.09399	0.10618	0.06970	0.44905	0.50624	0.45147	0.72536	0.44448	0.25830	0.43692	0.43407	0.43359	0.20439	0.19393	0.15281	0.29767	0.38398	0.47281
115070	0.09583	0.10959	0.07298	0.44999	0.50854	0.45317	0.72765	0.44834	0.26114	0.43993	0.43641	0.43497	0.20581	0.19621	0.15634	0.30204	0.38597	0.47542
115240	0.09570	0.10816	0.06958	0.44852	0.50541	0.45062	0.72827	0.44285	0.25686	0.43567	0.43464	0.43218	0.20168	0.19306	0.15316	0.29644	0.38305	0.47116
115400	0.09370	0.10579	0.06957	0.44858	0.50710	0.45225	0.72146	0.44330	0.25925	0.43752	0.43482	0.43387	0.20389	0.19378	0.15114	0.29786	0.38518	0.47343
115560	0.09240	0.10555	0.06900	0.44763	0.50418	0.44961	0.72395	0.44269	0.25622	0.43557	0.43362	0.43106	0.20124	0.19278	0.15282	0.29416	0.38141	0.47119
115730	0.09003	0.10583	0.06868	0.44430	0.50227	0.44695	0.71955	0.43919	0.25337	0.43325	0.43178	0.42989	0.20606	0.19458	0.15682	0.30334	0.38704	0.47691
115890	0.09497	0.10847	0.07100	0.44994	0.50658	0.45202	0.73117	0.44653	0.25784	0.43824	0.43505	0.43360	0.20492	0.19398	0.15271	0.30080	0.38417	0.47383
116050	0.09348	0.10758	0.07159	0.44938	0.50630	0.45204	0.72973	0.44575	0.25863	0.43735	0.43668	0.43335	0.20426	0.19167	0.15355	0.29949	0.38426	0.47372	24.30	6.1	0.00	7.21	0.01279	0.01296	0.01673	0.00801	0.00596	0.00652	0.00472	0.01275	0.01697	0.00692	0.00712	0.00913	0.01499	0.01103	0.01204	0.00225	0.00636	0.00892
116220	0.09424	0.10727	0.06998	0.44832	0.50494	0.45016	0.72900	0.44265	0.25706	0.43500	0.43458	0.43144	0.20271	0.19045	0.15189	0.29740	0.38199	0.47187
116380	0.09474	0.10839	0.07008	0.44991	0.50783	0.45286	0.72856	0.44542	0.25956	0.43730	0.43563	0.43338	0.20636	0.19590	0.15352	0.29900	0.38491	0.47490
116540	0.09539	0.10669	0.06908	0.44798	0.50516	0.44969	0.72414	0.44117	0.25756	0.43462	0.43370	0.43095	0.20195	0.19092	0.14984	0.29363	0.38152	0.47108
116710	0.09651	0.11014	0.07186	0.44960	0.50865	0.45283	0.72744	0.44735	0.26099	0.43788	0.43804	0.43472	0.20724	0.19504	0.15468	0.30034	0.38617	0.47624
116870	0.09523	0.10713	0.07110	0.44870	0.50537	0.45065	0.72380	0.44255	0.25733	0.43537	0.43492	0.43167	0.20385	0.19594	0.15481	0.29781	0.38394	0.47334
117030	0.09481	0.10812	0.06730	0.44696	0.50415	0.44943	0.72688	0.44282	0.25665	0.43484	0.43466	0.43099	0.20113	0.19218	0.15051	0.29598	0.38158	0.47083
117200	0.09260	0.10385	0.06846	0.44479	0.50213	0.44820	0.71739	0.43818	0.25373	0.43314	0.43303	0.42953	0.20402	0.19343	0.15336	0.29516	0.38351	0.47356
117360	0.09508	0.10878	0.07196	0.44791	0.50561	0.44984	0.72600	0.44382	0.25875	0.43637	0.43461	0.43171	0.20357	0.19157	0.15479	0.29777	0.38218	0.47299
117530	0.09261	0.10717	0.07230	0.44669	0.50594	0.45240	0.72795	0.44703	0.26079	0.43818	0.43690	0.43510	0.20817	0.19863	0.15708	0.30214	0.38630	0.47560
117690	0.09453	0.10698	0.07105	0.44887	0.50481	0.44980	0.72060	0.44233	0.25791	0.43494	0.43445	0.43161	0.20597	0.19445	0.15567	0.29902	0.38541	0.47516	24.36	6.1	0.00	7.19	0.01279	0.01296	0.01673	0.00801	0.00596	0.00652	0.00472	0.01275	0.01697	0.00692	0.00712	0.00913	0.01499	0.01103	0.01204	0.00225	0.00636	0.00892
117850	0.09337	0.10807	0.07115	0.44972	0.50613	0.45086	0.71904	0.44505	0.25785	0.43682	0.43580	0.43294	0.20269	0.19528	0.15579	0.29936	0.38283	0.47279
118020	0.09249	0.10910	0.07055	0.44700	0.50464	0.45046	0.72179	0.44499	0.25987	0.43595	0.43515	0.43247	0.20363	0.19161	0.15406	0.29861	0.38203	0.47142
118180	0.09109	0.10622	0.06759	0.44650	0.50242	0.44909	0.72172	0.44348	0.25665	0.43531	0.43278	0.43079	0.20386	0.19064	0.15487	0.29585	0.38091	0.47095
118350	0.09395	0.10588	0.06958	0.44771	0.50543	0.45035	0.72455	0.44346	0.26040	0.43658	0.43489	0.43268	0.20532	0.19343	0.15264	0.29981	0.38261	0.47176
118510	0.09279	0.10762	0.06872	0.44658	0.50347	0.44901	0.72013	0.44449	0.25799	0.43415	0.43402	0.43077	0.20442	0.19039	0.15231	0.29566	0.38075	0.47039
118670	0.09609	0.10796	0.07186	0.44889	0.50568	0.45227	0.72228	0.44663	0.25981	0.43620	0.43557	0.43368	0.20559	0.19492	0.15649	0.30037	0.38431	0.47393
118840	0.09226	0.10570	0.06926	0.44706	0.50311	0.44842	0.72650	0.44155	0.25751	0.43393	0.43284	0.43087	0.20541	0.19332	0.15455	0.29891	0.38287	0.47338
119000	0.09236	0.10803	0.07072	0.44663	0.50356	0.44926	0.72392	0.44472	0.25891	0.43564	0.43240	0.43136	0.20528	0.19392	0.15570	0.29779	0.38197	0.47165
119170	0.09442	0.10626	0.06804	0.44542	0.50181	0.44695	0.72062	0.43996	0.25450	0.43329	0.43098	0.42945	0.20576	0.19472	0.15475	0.30007	0.38528	0.47485
119330	0.09487	0.11004	0.07066	0.44896	0.50389	0.44882	0.73218	0.44470	0.25689	0.43455	0.43230	0.43154	0.20626	0.19218	0.15388	0.29854	0.38129	0.47092	24.36	6.0	0.00	7.30	0.01279	0.01296	0.01673	0.00801	0.00596	0.00652	0.00472	0.01275	0.01697	0.00692	0.00712	0.00913	0.01499	0.01103	0.01204	0.00225	0.00636	0.00892
119490	0.09345	0.10899	0.07037	0.44865	0.50442	0.45124	0.72950	0.44564	0.26034	0.43583	0.43389	0.43248	0.20556	0.19256	0.15480	0.30007	0.38270	0.47274
119660	0.09495	0.10621	0.07092	0.44718	0.50266	0.44909	0.71841	0.44495	0.25776	0.43353	0.43305	0.43064	0.20434	0.19422	0.15558	0.29735	0.38346	0.47251
119820	0.09410	0.10624	0.06968	0.44710	0.50286	0.44866	0.72532	0.44386	0.25662	0.43291	0.43247	0.43039	0.20447	0.19101	0.15306	0.29485	0.38212	0.47122
119990	0.09348	0.10577	0.06686	0.44521	0.49982	0.44629	0.72342	0.44005	0.25453	0.43172	0.43089	0.42851	0.20639	0.19717	0.15752	0.30059	0.38494	0.47580
120150	0.09683	0.10911	0.07181	0.44974	0.50323	0.45143	0.72884	0.44610	0.25957	0.43549	0.43401	0.43164	0.20539	0.19319	0.15280	0.29656	0.38250	0.47240
120320	0.09578	0.10984	0.07241	0.44997	0.50513	0.45223	0.73108	0.44667	0.26202	0.43664	0.43493	0.43357	0.20902	0.19709	0.15699	0.30190	0.38449	0.47453
120480	0.09602	0.10925	0.06895	0.44796	0.50206	0.44971	0.72107	0.44459	0.25909	0.43413	0.43196	0.43097	0.20414	0.19186	0.15371	0.29735	0.38012	0.47026
120640	0.09357	0.10553	0.06877	0.44538	0.49979	0.44826	0.72063	0.44313	0.25545	0.43190	0.43136	0.42949	0.20392	0.19137	0.15655	0.29709	0.38267	0.47213
120810	0.09567	0.10693	0.06834	0.44686	0.50097	0.44840	0.71851	0.44382	0.25916	0.43347	0.43154	0.43046	0.20548	0.19431	0.15304	0.29757	0.38101	0.47103
120970	0.09202	0.10834	0.06916	0.44512	0.49953	0.44745	0.71800	0.44277	0.25446	0.43273	0.42976	0.42814	0.20323	0.19232	0.15551	0.29678	0.38275	0.47314	24.48	6.1	0.00	7.22	0.01279	0.01296	0.01673	0.00801	0.00596	0.00652	0.00472	0.01275	0.01697	0.00693	0.00711	0.00912	0.01499	0.01103	0.01204	0.00225	0.00636	0.00892
121140	0.09601	0.10802	0.07102	0.44741	0.50266	0.44927	0.72825	0.44504	0.25698	0.43515	0.43246	0.43040	0.20378	0.19448	0.15619	0.29697	0.38062	0.47010
121300	0.09373	0.10449	0.06910	0.44448	0.50107	0.44935	0.72047	0.44876	0.25905	0.43645	0.43292	0.43098	0.20585	0.19240	0.15772	0.29615	0.38160	0.47115
121460	0.09422	0.10678	0.06907	0.44463	0.50012	0.44762	0.72869	0.44201	0.25475	0.43463	0.43240	0.42893	0.20416	0.19107	0.15385	0.29368	0.38019	0.46991
121630	0.09364	0.10850	0.06894	0.44536	0.50058	0.44860	0.72169	0.44638	0.25816	0.43407	0.43156	0.42924	0.20528	0.19223	0.15455	0.29521	0.38019	0.46990
121790	0.09346	0.10581	0.06728	0.44334	0.49766	0.44621	0.72725	0.44133	0.25381	0.43255	0.42999	0.42683	0.20666	0.19514	0.15600	0.29749	0.38387	0.47326
121960	0.09662	0.11133	0.07099	0.44686	0.50196	0.44925	0.73101	0.44769	0.25874	0.43566	0.43276	0.42978	0.20689	0.19241	0.15795	0.29697	0.38049	0.46990
122120	0.09606	0.11044	0.07233	0.44722	0.50324	0.45069	0.73597	0.44908	0.26307	0.43736	0.43428	0.43178	0.20718	0.19346	0.15720	0.29868	0.38359	0.47293
122280	0.09668	0.10717	0.07157	0.44606	0.50200	0.44868	0.72715	0.44596	0.25810	0.43399	0.43174	0.42937	0.20493	0.19437	0.15662	0.29790	0.38146	0.47105
122450	0.09467	0.10811	0.06834	0.44477	0.50076	0.44801	0.72369	0.44537	0.25800	0.43312	0.43027	0.42825	0.20120	0.19312	0.15171	0.29488	0.37828	0.46749
122610	0.09278	0.10617	0.06833	0.44140	0.49810	0.44483	0.71592	0.44228	0.25654	0.43157	0.42928	0.42666	0.20505	0.19382	0.15462	0.29337	0.37789	0.46881	24.36	6.1	0.00	7.21	0.01279	0.01296	0.01673	0.00800	0.00596	0.00652	0.00472	0.01275	0.01697	0.00693	0.00712	0.00912	0.01499	0.01103	0.01204	0.00225	0.00636	0.00892
122770	0.09345	0.10685	0.06892	0.44288	0.49929	0.44697	0.72314	0.44390	0.25675	0.43344	0.43198	0.42821	0.20383	0.19213	0.15326	0.29535	0.37759	0.46681
122940	0.09377	0.10518	0.06880	0.44159	0.49768	0.44444	0.72272	0.44059	0.25358	0.43146	0.42947	0.42666	0.20492	0.19232	0.15815	0.29610	0.37844	0.46944
123100	0.09482	0.10872	0.06974	0.44394	0.50094	0.44752	0.73249	0.44571	0.25834	0.43417	0.43360	0.42935	0.20422	0.19257	0.15621	0.29486	0.37696	0.46753
123270	0.09363	0.10919	0.07189	0.44526	0.50416	0.44985	0.73635	0.44770	0.26202	0.43583	0.43414	0.43119	0.20712	0.19580	0.15496	0.29561	0.37927	0.46874
123430	0.09522	0.10681	0.07035	0.44415	0.50087	0.44631	0.72419	0.44395	0.25733	0.43258	0.43138	0.42769	0.20501	0.19461	0.15504	0.29348	0.37673	0.46766
123600	0.09451	0.10856	0.07158	0.44209	0.49961	0.44714	0.72810	0.44532	0.25803	0.43245	0.43167	0.42745	0.20464	0.19024	0.15497	0.29031	0.37562	0.46501
123760	0.09416	0.10547	0.06629	0.43933	0.49694	0.44359	0.72158	0.44088	0.25310	0.43030	0.42931	0.42484	0.20598	0.19197	0.15647	0.29229	0.37676	0.46796
123930	0.09457	0.10831	0.07070	0.44274	0.49979	0.44696	0.71875	0.44393	0.25587	0.43231	0.43174	0.42750	0.20791	0.19601	0.16034	0.29651	0.38199	0.47188
124090	0.09907	0.11129	0.07322	0.44744	0.50382	0.45090	0.73291	0.44859	0.26074	0.43528	0.43546	0.43059	0.20724	0.19753	0.15771	0.29785	0.38016	0.47019
124260	0.09458	0.10802	0.07023	0.44387	0.49979	0.44560	0.73209	0.44617	0.25986	0.43241	0.43250	0.42804	0.20651	0.19339	0.15486	0.29561	0.37740	0.46758	24.42	6.3	0.00	7.25	0.01279	0.01296	0.01673	0.00800	0.00596	0.00652	0.00472	0.01275	0.01697	0.00692	0.00711	0.00912	0.01499	0.01103	0.01204	0.00225	0.00636	0.00892
124420	0.09325	0.10668	0.06867	0.44195	0.49754	0.44549	0.72288	0.44418	0.25712	0.43143	0.43102	0.42734	0.20663	0.19538	0.15957	0.29815	0.38154	0.47230
124580	0.09654	0.10997	0.07078	0.44604	0.50142	0.44922	0.73614	0.44561	0.25857	0.43466	0.43318	0.42977	0.20679	0.19561	0.15687	0.29576	0.37950	0.47051
124750	0.09687	0.10862	0.07318	0.44560	0.50169	0.44877	0.72618	0.44706	0.26256	0.43519	0.43496	0.43060	0.20850	0.19432	0.15862	0.29807	0.38048	0.47000
124910	0.09448	0.10698	0.06952	0.44311	0.49904	0.44646	0.72818	0.44335	0.25770	0.43201	0.43132	0.42757	0.20415	0.19547	0.15518	0.29326	0.37599	0.46604
125070	0.09536	0.10729	0.07148	0.44457	0.50083	0.44861	0.72654	0.44701	0.26013	0.43315	0.43414	0.43040	0.20535	0.19725	0.15563	0.29587	0.37905	0.46943
125240	0.09546	0.10660	0.06899	0.44348	0.49903	0.44616	0.72547	0.44433	0.25630	0.43148	0.43117	0.42844	0.20105	0.19382	0.15407	0.29248	0.37429	0.46559
125400	0.09296	0.10839	0.07204	0.44347	0.50083	0.44834	0.72791	0.44922	0.26103	0.43345	0.43334	0.42938	0.20670	0.19341	0.15551	0.29804	0.37942	0.46879
125560	0.09597	0.10655	0.07123	0.44250	0.49912	0.44632	0.72098	0.44388	0.25820	0.43101	0.43199	0.42794	0.20211	0.19546	0.15412	0.29278	0.37493	0.46609
125730	0.09520	0.10756	0.07067	0.44371	0.50031	0.44762	0.72925	0.44737	0.26053	0.43340	0.43363	0.42999	0.20440	0.19360	0.15385	0.29539	0.37778	0.46777
125890	0.09399	0.10821	0.06704	0.44232	0.49828	0.44704	0.72503	0.44441	0.25977	0.43177	0.43225	0.42869	0.20361	0.19104	0.15260	0.29325	0.37557	0.46636	24.36	6.0	0.00	7.23	0.01279	0.01296	0.01673	0.00800	0.00596	0.00652	0.00472	0.01275	0.01697	0.00692	0.00711	0.00912	0.01499	0.01103	0.01204	0.00225	0.00636	0.00892
126050	0.09539	0.10815	0.07148	0.44413	0.50021	0.44909	0.72345	0.44896	0.26135	0.43363	0.43320	0.42996	0.20650	0.19356	0.15766	0.29329	0.37946	0.46873
126220	0.09445	0.10738	0.06934	0.44257	0.49909	0.44632	0.72179	0.44309	0.25728	0.43113	0.43156	0.42755	0.20311	0.19035	0.15343	0.29157	0.37515	0.46458
126380	0.09531	0.10794	0.07243	0.44464	0.50245	0.45037	0.72709	0.44979	0.26259	0.43519	0.43524	0.43122	0.20783	0.19558	0.15514	0.29526	0.38014	0.46991
126540	0.09415	0.10781	0.06923	0.44390	0.49931	0.44710	0.72320	0.44782	0.25853	0.43201	0.43248	0.42883	0.20660	0.19334	0.15424	0.29661	0.37776	0.46829
126710	0.09319	0.10780	0.06887	0.44262	0.49898	0.44675	0.72276	0.44228	0.25762	0.43076	0.43155	0.42791	0.20333	0.19278	0.15168	0.29254	0.37655	0.46644
126870	0.09596	0.10719	0.06794	0.44077	0.49734	0.44600	0.71744	0.44176	0.25603	0.43095	0.43092	0.42809	0.20511	0.19217	0.15664	0.29425	0.37772	0.46831
127040	0.09588	0.10921	0.06856	0.44278	0.49981	0.44817	0.72447	0.44587	0.25940	0.43298	0.43279	0.42856	0.20276	0.19144	0.15215	0.29373	0.37650	0.46673
127200	0.09119	0.10570	0.06710	0.44014	0.49643	0.44412	0.71510	0.44079	0.25469	0.42948	0.42982	0.42625	0.20367	0.19247	0.15331	0.29411	0.37727	0.46763
127370	0.09546	0.10718	0.06839	0.44229	0.49912	0.44772	0.72152	0.44683	0.25861	0.43350	0.43259	0.42783	0.20861	0.19802	0.15766	0.29761	0.38157	0.47165
127530	0.09745	0.10992	0.07235	0.44744	0.50245	0.45057	0.72431	0.44681	0.26030	0.43534	0.43415	0.43128	0.20662	0.19376	0.15737	0.29458	0.37959	0.46906	24.42	6.1	0.00	7.21	0.01279	0.01296	0.01673	0.00800	0.00596	0.00652	0.00472	0.01275	0.01697	0.00692	0.00711	0.00912	0.01499	0.01103	0.01204	0.00225	0.00636	0.00892
127690	0.09543	0.10955	0.07154	0.44466	0.49917	0.44702	0.72073	0.44452	0.25820	0.43250	0.43262	0.42810	0.20480	0.19159	0.15561	0.29029	0.37637	0.46663
127860	0.09321	0.10656	0.06932	0.44206	0.49768	0.44629	0.72185	0.44198	0.25598	0.43179	0.43112	0.42703	0.20743	0.19487	0.15575	0.29518	0.37939	0.47071
128020	0.09657	0.10988	0.07101	0.44567	0.50059	0.44877	0.72688	0.44704	0.26129	0.43457	0.43349	0.42969	0.20606	0.19376	0.15592	0.29455	0.37756	0.46822
128190	0.09432	0.10944	0.07008	0.44524	0.49983	0.44827	0.73010	0.44771	0.25919	0.43404	0.43293	0.42963	0.20553	0.19462	0.15594	0.29357	0.37713	0.46796
128350	0.09349	0.10851	0.07038	0.44228	0.49839	0.44609	0.72390	0.44154	0.25765	0.43239	0.43131	0.42846	0.20415	0.19214	0.15256	0.29055	0.37466	0.46575
128510	0.09462	0.10869	0.07101	0.44418	0.50083	0.44894	0.72566	0.44793	0.26061	0.43550	0.43419	0.43073	0.20766	0.19430	0.15813	0.29600	0.37826	0.46902
128680	0.09510	0.10763	0.06838	0.44292	0.49719	0.44594	0.71931	0.44380	0.25795	0.43222	0.43043	0.42778	0.20467	0.19115	0.15199	0.28977	0.37384	0.46508
128840	0.09293	0.10761	0.06958	0.44369	0.49915	0.44804	0.72378	0.44878	0.26057	0.43503	0.43243	0.43016	0.20597	0.19473	0.15758	0.29339	0.37802	0.46828
129000	0.09485	0.10758	0.07070	0.44308	0.49669	0.44579	0.72026	0.44125	0.25593	0.43265	0.42951	0.42731	0.20246	0.19126	0.15321	0.28820	0.37365	0.46589
129170	0.09354	0.10724	0.06970	0.44330	0.49918	0.44721	0.72082	0.44591	0.25929	0.43522	0.43170	0.43009	0.20587	0.19450	0.15654	0.29223	0.37678	0.46806	24.42	6.1	0.00	7.21	0.01279	0.01296	0.01673	0.00800	0.00596	0.00652	0.00472	0.01275	0.01697	0.00692	0.00711	0.00912	0.01499	0.01103	0.01204	0.00225	0.00636	0.00892
129330	0.09392	0.10819	0.06878	0.44211	0.49725	0.44583	0.71824	0.44467	0.25569	0.43304	0.43023	0.42776	0.20350	0.19170	0.15379	0.28767	0.37452	0.46603
129490	0.09621	0.10929	0.07129	0.44368	0.49839	0.44662	0.72229	0.44423	0.26017	0.43507	0.43163	0.42943	0.20396	0.19465	0.15457	0.28838	0.37618	0.46745
129660	0.09399	0.10485	0.07068	0.44267	0.49574	0.44554	0.72561	0.44248	0.25789	0.43225	0.42926	0.42759	0.20077	0.19163	0.15198	0.28775	0.37349	0.46617
129820	0.09506	0.10730	0.06970	0.44373	0.49807	0.44768	0.71999	0.44526	0.26028	0.43483	0.43022	0.42922	0.20644	0.19376	0.15426	0.29010	0.37690	0.46881
129980	0.09279	0.10801	0.06974	0.44183	0.49657	0.44584	0.72185	0.44298	0.25690	0.43328	0.42945	0.42764	0.20431	0.19289	0.15423	0.28749	0.37381	0.46643
130150	0.09546	0.10916	0.07235	0.44372	0.49811	0.44707	0.72200	0.44615	0.26089	0.43577	0.43177	0.43042	0.20700	0.19484	0.15689	0.29309	0.37830	0.46941
130310	0.09482	0.10712	0.06945	0.44294	0.49586	0.44515	0.72808	0.44299	0.25864	0.43350	0.42898	0.42863	0.20298	0.19305	0.15171	0.28980	0.37422	0.46691
130470	0.09276	0.10823	0.07135	0.44460	0.49921	0.44747	0.73189	0.44877	0.26096	0.43654	0.43055	0.43001	0.20559	0.19336	0.15610	0.29286	0.37859	0.46958
130640	0.09402	0.10749	0.06811	0.44286	0.49597	0.44420	0.72595	0.44280	0.25770	0.43285	0.42813	0.42734	0.20452	0.19486	0.15407	0.29312	0.37804	0.47001
130800	0.09410	0.10755	0.07212	0.44394	0.49806	0.44570	0.71460	0.44326	0.25999	0.43630	0.43115	0.43012	0.20717	0.19395	0.15563	0.29484	0.37701	0.46769	24.36	6.2	0.00	7.24	0.01279	0.01296	0.01673	0.00800	0.00596	0.00652	0.00472	0.01275	0.01696	0.00692	0.00711	0.00912	0.01499	0.01103	0.01204	0.00225	0.00636	0.00892
130960	0.09326	0.10732	0.06820	0.44150	0.49523	0.44341	0.72334	0.44189	0.25605	0.43341	0.42844	0.42634	0.20402	0.19409	0.15454	0.29360	0.37700	0.46764
131130	0.09247	0.10772	0.06935	0.44347	0.49661	0.44342	0.72405	0.44286	0.25732	0.43464	0.42829	0.42816	0.20370	0.19228	0.15318	0.29248	0.37475	0.46542
131290	0.09250	0.10668	0.06857	0.44050	0.49365	0.44147	0.72407	0.44187	0.25525	0.43269	0.42704	0.42664	0.20396	0.19589	0.15462	0.29297	0.37647	0.46653
131450	0.09234	0.10800	0.06899	0.44181	0.49553	0.44371	0.72302	0.44391	0.25812	0.43417	0.42982	0.42652	0.20726	0.19311	0.15294	0.29237	0.37515	0.46661
131620	0.09293	0.10528	0.06996	0.44055	0.49414	0.44195	0.72759	0.44082	0.25682	0.43312	0.42852	0.42656	0.20452	0.19623	0.15709	0.29506	0.37774	0.46897
131780	0.09691	0.11039	0.07254	0.44231	0.49698	0.44396	0.72862	0.44253	0.25784	0.43450	0.43060	0.42820	0.20407	0.19411	0.15492	0.29297	0.37606	0.46666
131950	0.09411	0.10829	0.07027	0.44232	0.49642	0.44492	0.71878	0.44553	0.26096	0.43494	0.42999	0.42887	0.20506	0.19364	0.15579	0.29442	0.37679	0.46643
132110	0.09393	0.10798	0.07121	0.44024	0.49413	0.44270	0.72139	0.44493	0.25701	0.43313	0.42870	0.42634	0.20306	0.19092	0.15339	0.29192	0.37379	0.46493
132270	0.09603	0.10955	0.07103	0.44265	0.49843	0.44528	0.72913	0.44769	0.26252	0.43596	0.43217	0.42896	0.20824	0.19644	0.15867	0.29778	0.37811	0.46840
132440	0.09436	0.10956	0.06954	0.44091	0.49580	0.44295	0.72874	0.44417	0.25685	0.43264	0.42748	0.42632	0.20457	0.19610	0.15605	0.29641	0.37614	0.46591	24.36	6.1	0.00	5.88	0.01279	0.01295	0.01673	0.00800	0.00596	0.00652	0.00472	0.01275	0.01696	0.00692	0.00711	0.00912	0.01499	0.01103	0.01204	0.00225	0.00636	0.00891
132600	0.09344	0.10781	0.06968	0.44002	0.49495	0.44245	0.72656	0.44204	0.25754	0.43283	0.42707	0.42642	0.20598	0.19280	0.15360	0.29432	0.37494	0.46525
132770	0.09450	0.10739	0.07037	0.43880	0.49264	0.44101	0.71765	0.44234	0.25556	0.43045	0.42662	0.42446	0.20511	0.19459	0.15804	0.29488	0.37755	0.46822
132930	0.09391	0.10832	0.07237	0.44225	0.49662	0.44354	0.72397	0.44540	0.25823	0.43281	0.42816	0.42620	0.20323	0.19202	0.15141	0.29536	0.37463	0.46453
133090	0.09377	0.10843	0.06999	0.44100	0.49655	0.44342	0.72170	0.44548	0.26056	0.43362	0.42857	0.42766	0.20666	0.19463	0.15665	0.29398	0.37541	0.46536
133260	0.09402	0.10846	0.07060	0.43976	0.49562	0.44273	0.72654	0.44401	0.25866	0.43202	0.42849	0.42654	0.20578	0.19474	0.15621	0.29372	0.37565	0.46547
133420	0.09431	0.10896	0.07170	0.43983	0.49585	0.44333	0.72673	0.44605	0.25892	0.43215	0.42724	0.42569	0.20466	0.19536	0.15406	0.29260	0.37362	0.46417
133590	0.09457	0.10471	0.06714	0.43765	0.49222	0.43978	0.71392	0.44054	0.25519	0.42867	0.42522	0.42375	0.20878	0.19727	0.15935	0.29626	0.37925	0.46944
133750	0.09731	0.10921	0.07318	0.44226	0.49664	0.44409	0.72131	0.44715	0.25941	0.43254	0.42960	0.42669	0.20836	0.19452	0.15546	0.29622	0.37595	0.46560
133920	0.09529	0.10650	0.07028	0.44030	0.49522	0.44314	0.72239	0.44681	0.25933	0.43306	0.42809	0.42608	0.20843	0.19449	0.15465	0.29525	0.37622	0.46565
134080	0.09421	0.11035	0.07002	0.44004	0.49524	0.44211	0.72312	0.44449	0.25954	0.43068	0.42788	0.42569	0.20810	0.19478	0.15511	0.29250	0.37484	0.46449	24.48	6.1	0.00	7.27	0.01279	0.01296	0.01673	0.00800	0.00596	0.00652	0.00472	0.01275	0.01696	0.00692	0.00711	0.00912	0.01499	0.01103	0.01204	0.00225	0.00636	0.00891
134250	0.09537	0.10970	0.06959	0.43857	0.49451	0.44191	0.72439	0.44229	0.25823	0.43071	0.42812	0.42481	0.20608	0.19460	0.15565	0.29108	0.37508	0.46438
134410	0.09438	0.10899	0.06962	0.43900	0.49384	0.44093	0.72058	0.44433	0.25686	0.42967	0.42684	0.42370	0.20454	0.19345	0.15378	0.28944	0.37311	0.46348
134570	0.09252	0.10959	0.07240	0.43829	0.49709	0.44460	0.73375	0.45143	0.26243	0.43403	0.43062	0.42862	0.21016	0.19774	0.15848	0.29705	0.37932	0.46825
134740	0.09844	0.11060	0.07210	0.44217	0.49628	0.44254	0.72737	0.44754	0.26096	0.43141	0.42795	0.42529	0.20815	0.19637	0.15778	0.29593	0.37887	0.46775
134900	0.09726	0.11028	0.07118	0.44231	0.49763	0.44385	0.72258	0.44685	0.26035	0.43178	0.42954	0.42705	0.20800	0.19643	0.15683	0.29466	0.37674	0.46546
135060	0.09349	0.10822	0.07020	0.43916	0.49422	0.44058	0.72600	0.44308	0.25773	0.42900	0.42770	0.42368	0.20790	0.19783	0.15570	0.29399	0.37705	0.46687
135230	0.09561	0.10973	0.07164	0.44055	0.49529	0.44159	0.72578	0.44563	0.25867	0.43026	0.42791	0.42492	0.20482	0.19589	0.15502	0.28996	0.37368	0.46278
135390	0.09160	0.10614	0.06851	0.43701	0.49281	0.43884	0.72214	0.44232	0.25553	0.42645	0.42469	0.42308	0.20659	0.19482	0.15649	0.29433	0.37535	0.46423
135550	0.09493	0.10734	0.06918	0.43907	0.49411	0.44034	0.72112	0.44244	0.25745	0.42819	0.42684	0.42373	0.20767	0.19524	0.15212	0.29089	0.37391	0.46344
135720	0.09347	0.10722	0.06833	0.43723	0.49288	0.44019	0.71900	0.44252	0.25482	0.42679	0.42653	0.42271	0.20665	0.19576	0.15665	0.29100	0.37576	0.46499	24.48	6.1	0.00	7.32	0.01279	0.01295	0.01673	0.00800	0.00596	0.00652	0.00472	0.01275	0.01696	0.00692	0.00711	0.00912	0.01499	0.01103	0.01204	0.00225	0.00636	0.00891
135880	0.09509	0.10775	0.07093	0.44010	0.49445	0.44194	0.72259	0.44542	0.25866	0.42869	0.42897	0.42456	0.20544	0.19302	0.15059	0.28965	0.37290	0.46267
136050	0.09674	0.10901	0.07142	0.43948	0.49521	0.44269	0.72796	0.44727	0.26106	0.43002	0.42863	0.42551	0.20627	0.19433	0.15330	0.29223	0.37561	0.46409
136210	0.09423	0.10927	0.07149	0.43918	0.49482	0.44124	0.72229	0.44450	0.25750	0.42981	0.42835	0.42588	0.20417	0.19379	0.15365	0.28965	0.37354	0.46314
136370	0.09588	0.10993	0.07310	0.44207	0.49875	0.44493	0.72962	0.44969	0.26308	0.43210	0.43080	0.42770	0.20910	0.19746	0.15816	0.29387	0.37675	0.46614
136540	0.09600	0.10807	0.07115	0.44105	0.49546	0.44099	0.72920	0.44487	0.25916	0.42931	0.42764	0.42528	0.20605	0.19623	0.15584	0.29253	0.37504	0.46528
136700	0.09467	0.10678	0.06907	0.43869	0.49409	0.44005	0.71858	0.44382	0.25690	0.42797	0.42652	0.42504	0.20640	0.19359	0.15533	0.28917	0.37342	0.46273
136860	0.09442	0.10454	0.06873	0.43741	0.49300	0.43946	0.72234	0.44351	0.25616	0.42798	0.42611	0.42401	0.20412	0.19814	0.15776	0.29230	0.37561	0.46499
137030	0.09656	0.10738	0.07108	0.43956	0.49535	0.44142	0.72224	0.44512	0.25824	0.42938	0.42700	0.42515	0.20613	0.19634	0.15462	0.28950	0.37514	0.46430
137190	0.09423	0.10599	0.06955	0.43857	0.49292	0.44006	0.72527	0.44126	0.25478	0.42722	0.42541	0.42349	0.20971	0.19439	0.15873	0.29253	0.37698	0.46771
137360	0.09666	0.11069	0.07218	0.44117	0.49682	0.44279	0.72111	0.44351	0.25885	0.43086	0.42790	0.42631	0.20762	0.19657	0.15961	0.29700	0.37885	0.46883	24.48	5.9	0.00	7.33	0.01279	0.01295	0.01672	0.00800	0.00596	0.00652	0.00472	0.01275	0.01696	0.00692	0.00711	0.00912	0.01499	0.01103	0.01204	0.00225	0.00636	0.00891
137520	0.09699	0.11118	0.07305	0.44402	0.50009	0.44550	0.72353	0.44821	0.26219	0.43293	0.42929	0.42881	0.20911	0.19896	0.15898	0.29715	0.37808	0.46746
137680	0.09609	0.10946	0.07082	0.44130	0.49776	0.44440	0.72990	0.44832	0.26150	0.43209	0.42860	0.42760	0.20685	0.19457	0.15506	0.29625	0.37631	0.46567
137850	0.09457	0.10605	0.06836	0.43966	0.49489	0.44146	0.72419	0.44423	0.25781	0.42895	0.42589	0.42465	0.20552	0.19522	0.15600	0.29065	0.37246	0.46216
138010	0.09177	0.10483	0.06737	0.43769	0.49250	0.43943	0.72495	0.43972	0.25437	0.42775	0.42387	0.42322	0.20751	0.19642	0.15941	0.29599	0.37841	0.46877
138180	0.09644	0.11017	0.07212	0.44392	0.49972	0.44561	0.72556	0.44850	0.26087	0.43300	0.42911	0.42806	0.20674	0.19674	0.15569	0.29562	0.37721	0.46695
138340	0.09582	0.10830	0.07137	0.44040	0.49718	0.44393	0.72888	0.44681	0.26186	0.43201	0.42941	0.42754	0.20734	0.19649	0.15666	0.29517	0.37677	0.46673
138500	0.09365	0.10725	0.06972	0.44011	0.49537	0.44220	0.72800	0.44537	0.25701	0.42999	0.42542	0.42524	0.20463	0.19363	0.15565	0.29244	0.37282	0.46227
138670	0.09408	0.10840	0.07221	0.44159	0.49724	0.44373	0.73054	0.44705	0.25938	0.43250	0.42735	0.42708	0.20801	0.19684	0.15694	0.29509	0.37589	0.46601
138830	0.09668	0.10722	0.07109	0.44040	0.49582	0.44207	0.72854	0.44122	0.25780	0.43024	0.42696	0.42460	0.20409	0.19264	0.15398	0.29181	0.37305	0.46279
138990	0.09525	0.10941	0.07168	0.44230	0.49762	0.44378	0.73426	0.44626	0.26100	0.43244	0.42736	0.42728	0.20381	0.19796	0.15963	0.29937	0.37710	0.46600	24.48	6.1	0.00	7.24	0.01279	0.01295	0.01672	0.00800	0.00596	0.00652	0.00472	0.01275	0.01696	0.00692	0.00711	0.00912	0.01499	0.01103	0.01204	0.00225	0.00636	0.00891
139160	0.09591	0.10673	0.07003	0.44025	0.49667	0.44191	0.72320	0.44666	0.25932	0.42997	0.42476	0.42502	0.20522	0.19425	0.15448	0.29396	0.37462	0.46242
139320	0.09621	0.11169	0.07244	0.44394	0.49924	0.44645	0.73214	0.44918	0.26125	0.43374	0.42973	0.42833	0.20843	0.19606	0.15766	0.29855	0.37862	0.46750
139480	0.09447	0.10741	0.07101	0.44197	0.49676	0.44215	0.72617	0.44497	0.25852	0.43124	0.42602	0.42506	0.20304	0.19425	0.15493	0.29444	0.37460	0.46363
139650	0.09635	0.11065	0.07209	0.44416	0.49916	0.44525	0.72820	0.44754	0.26280	0.43331	0.42822	0.42820	0.20669	0.19927	0.15677	0.30038	0.37917	0.46694
139810	0.09452	0.10704	0.07021	0.44277	0.49748	0.44311	0.72168	0.44287	0.25886	0.43112	0.42638	0.42537	0.20351	0.19299	0.15444	0.29523	0.37605	0.46418
139970	0.09471	0.10911	0.07016	0.44266	0.49829	0.44458	0.73192	0.44988	0.26113	0.43179	0.42816	0.42656	0.20681	0.19639	0.15586	0.29705	0.37735	0.46628
140140	0.09559	0.10943	0.07022	0.44047	0.49605	0.44285	0.72156	0.44626	0.25826	0.43080	0.42640	0.42487	0.20317	0.19627	0.15530	0.29440	0.37504	0.46338
140300	0.09313	0.10618	0.06728	0.43865	0.49433	0.44017	0.72806	0.44264	0.25610	0.42855	0.42544	0.42339	0.20615	0.19546	0.15862	0.29817	0.37991	0.46855
140460	0.09577	0.10951	0.06988	0.44387	0.49737	0.44426	0.73018	0.44470	0.26073	0.43068	0.42688	0.42650	0.20531	0.19535	0.15683	0.29732	0.37693	0.46498
140630	0.09380	0.10822	0.07201	0.44358	0.49989	0.44575	0.72606	0.44503	0.26124	0.43158	0.42879	0.42819	0.20677	0.19464	0.15532	0.29973	0.37837	0.46565	24.48	6.1	0.00	7.28	0.01279	0.01295	0.01672	0.00800	0.00596	0.00652	0.00472	0.01275	0.01696	0.00692	0.00711	0.00912	0.01499	0.01103	0.01204	0.00225	0.00636	0.00891
140790	0.09482	0.10653	0.06996	0.44213	0.49872	0.44441	0.72804	0.44395	0.25879	0.43062	0.42729	0.42671	0.20481	0.19304	0.15529	0.29873	0.37698	0.46445
140950	0.09634	0.10965	0.07241	0.44341	0.50047	0.44578	0.72938	0.44551	0.26096	0.43312	0.42964	0.42809	0.20658	0.19603	0.15608	0.30007	0.37914	0.46675
141120	0.09557	0.10787	0.06788	0.44220	0.49757	0.44242	0.72398	0.44225	0.25756	0.42905	0.42626	0.42447	0.20573	0.19541	0.15536	0.29761	0.37797	0.46572
141280	0.09366	0.10828	0.07019	0.44243	0.49932	0.44389	0.72657	0.44566	0.25829	0.43116	0.42920	0.42617	0.20658	0.19582	0.15523	0.29798	0.37824	0.46547
141450	0.09294	0.10863	0.07173	0.44154	0.50139	0.44634	0.73114	0.45163	0.26306	0.43443	0.43149	0.42964	0.20900	0.19785	0.15774	0.30287	0.38258	0.46899
141610	0.09741	0.11140	0.07121	0.44461	0.50040	0.44450	0.72928	0.44533	0.25909	0.43096	0.42831	0.42718	0.20397	0.19609	0.15652	0.29944	0.37979	0.46738
141770	0.09725	0.11028	0.06883	0.44386	0.50018	0.44493	0.72796	0.44429	0.26034	0.43124	0.42879	0.42653	0.20757	0.19548	0.15465	0.29790	0.37755	0.46530
141940	0.09343	0.10915	0.06835	0.44103	0.49857	0.44257	0.72760	0.44435	0.25679	0.42815	0.42604	0.42520	0.20734	0.19447	0.15729	0.30104	0.37947	0.46802
142100	0.09656	0.11103	0.07139	0.44536	0.50144	0.44498	0.73556	0.44675	0.26091	0.43084	0.43012	0.42734	0.20820	0.19613	0.15639	0.29794	0.37897	0.46646
142270	0.09578	0.10932	0.07015	0.44156	0.49757	0.44168	0.72115	0.44227	0.25561	0.42824	0.42657	0.42463	0.20888	0.19790	0.15927	0.30101	0.38099	0.46972	24.42	6.1	0.00	7.21	0.01279	0.01295	0.01672	0.00800	0.00596	0.00652	0.00472	0.01275	0.01696	0.00692	0.00711	0.00912	0.01499	0.01103	0.01204	0.00225	0.00636	0.00891
142430	0.09778	0.10994	0.07024	0.44520	0.50134	0.44451	0.72599	0.44661	0.26049	0.43075	0.43118	0.42767	0.20388	0.19489	0.15321	0.29915	0.37960	0.46693
142590	0.09699	0.10841	0.07299	0.44568	0.50303	0.44697	0.72340	0.44868	0.26264	0.43374	0.43170	0.42970	0.20666	0.19466	0.15680	0.30243	0.38130	0.46842
142760	0.09689	0.10823	0.07050	0.44450	0.49989	0.44403	0.72188	0.44168	0.25877	0.43045	0.42903	0.42700	0.20401	0.19432	0.15478	0.29971	0.37912	0.46696
142920	0.09509	0.10660	0.06976	0.44462	0.50135	0.44537	0.72611	0.44690	0.25952	0.43148	0.43085	0.42835	0.20443	0.19469	0.15224	0.29836	0.37794	0.46611
143090	0.09515	0.10853	0.06865	0.44274	0.49937	0.44294	0.71707	0.44253	0.25715	0.42883	0.42843	0.42601	0.20683	0.19763	0.15629	0.30154	0.38013	0.46929
143250	0.09514	0.10908	0.07038	0.44591	0.50317	0.44622	0.72784	0.44564	0.25849	0.43156	0.43084	0.42811	0.20502	0.19468	0.15435	0.29766	0.37842	0.46718
143410	0.09797	0.10826	0.07274	0.44637	0.50353	0.44729	0.72542	0.44707	0.26117	0.43377	0.43265	0.42946	0.20816	0.19833	0.15717	0.30027	0.38034	0.46932
143580	0.09615	0.10753	0.07079	0.44520	0.50182	0.44563	0.72679	0.44638	0.25884	0.43164	0.43194	0.42836	0.20543	0.19475	0.15620	0.30116	0.37993	0.46886
143740	0.09657	0.10788	0.07084	0.44516	0.50255	0.44642	0.71514	0.44663	0.25921	0.43259	0.43177	0.42862	0.20840	0.19492	0.15722	0.29952	0.37880	0.46879
143910	0.09554	0.10793	0.07069	0.44479	0.50032	0.44498	0.71903	0.44040	0.25634	0.43030	0.43062	0.42751	0.20833	0.19830	0.15877	0.30180	0.38269	0.47203	24.48	6.1	0.00	7.21	0.01279	0.01295	0.01672	0.00800	0.00596	0.00652	0.00472	0.01274	0.01696	0.00692	0.00711	0.00912	0.01499	0.01103	0.01204	0.00225	0.00636	0.00891
144070	0.09762	0.11037	0.07281	0.44877	0.50471	0.44839	0.73399	0.44600	0.26032	0.43312	0.43433	0.43094	0.20723	0.19703	0.15714	0.30072	0.37954	0.46958
144240	0.09728	0.11089	0.07438	0.44958	0.50622	0.45115	0.72441	0.45123	0.26584	0.43521	0.43518	0.43256	0.21382	0.19976	0.15850	0.30292	0.38260	0.47226
144400	0.09850	0.10779	0.07230	0.44808	0.50401	0.44836	0.72438	0.44702	0.25993	0.43367	0.43314	0.43097	0.20679	0.19561	0.15478	0.29975	0.37859	0.46840
144560	0.09518	0.10577	0.06991	0.44505	0.50092	0.44650	0.71828	0.44301	0.25701	0.43213	0.43130	0.42931	0.20460	0.19306	0.15086	0.29564	0.37751	0.46711
144730	0.09304	0.10663	0.07225	0.44459	0.50382	0.44976	0.73147	0.44749	0.26330	0.43490	0.43472	0.43321	0.20772	0.19705	0.15879	0.30359	0.38235	0.47209
144890	0.09906	0.10856	0.07072	0.44716	0.50334	0.44757	0.72387	0.44492	0.25867	0.43275	0.43196	0.43020	0.20674	0.19418	0.15293	0.29829	0.37798	0.46848
145050	0.09371	0.10779	0.07134	0.44527	0.50366	0.45048	0.72783	0.45048	0.26304	0.43610	0.43502	0.43368	0.20931	0.19815	0.15825	0.30363	0.38361	0.47264
145220	0.09526	0.10836	0.07121	0.44741	0.50256	0.44813	0.72301	0.44412	0.25755	0.43331	0.43207	0.43046	0.20594	0.19345	0.15547	0.30072	0.37888	0.46801
145380	0.09242	0.10693	0.07233	0.44550	0.50256	0.45029	0.73025	0.44831	0.26366	0.43563	0.43396	0.43331	0.20603	0.19888	0.15577	0.30352	0.38398	0.47243
145540	0.09581	0.10820	0.07041	0.44685	0.50205	0.44727	0.72760	0.44499	0.25837	0.43316	0.43043	0.43028	0.20724	0.19430	0.15465	0.29702	0.37860	0.46881	24.48	6.0	0.00	7.29	0.01279	0.01295	0.01672	0.00800	0.00596	0.00652	0.00472	0.01274	0.01696	0.00692	0.00711	0.00912	0.01499	0.01103	0.01204	0.00225	0.00636	0.00891
145710	0.09681	0.10974	0.07295	0.44833	0.50563	0.45063	0.73048	0.45003	0.26308	0.43648	0.43350	0.43412	0.21107	0.19833	0.15868	0.30195	0.38308	0.47338
145870	0.09507	0.10841	0.07028	0.44794	0.50262	0.44770	0.72440	0.44573	0.25824	0.43396	0.43012	0.43064	0.20511	0.19415	0.15492	0.29982	0.37954	0.46963
146030	0.09407	0.10681	0.07145	0.44770	0.50348	0.44953	0.72295	0.44657	0.26034	0.43530	0.43133	0.43259	0.20789	0.19619	0.15633	0.30217	0.38114	0.47223
146200	0.09456	0.10773	0.07003	0.44638	0.50214	0.44655	0.73033	0.44438	0.25736	0.43455	0.42983	0.43094	0.20573	0.19316	0.15581	0.29922	0.37844	0.46946
146360	0.09413	0.10745	0.07052	0.44738	0.50279	0.44883	0.72198	0.44892	0.25980	0.43570	0.43172	0.43293	0.20673	0.19544	0.15717	0.30254	0.38095	0.47164
146520	0.09533	0.10761	0.07242	0.44664	0.50220	0.44734	0.72879	0.44522	0.26041	0.43519	0.43018	0.43180	0.20614	0.19480	0.15588	0.29799	0.38022	0.47070
146690	0.09530	0.10986	0.07271	0.44841	0.50354	0.44968	0.73104	0.45194	0.26220	0.43732	0.43048	0.43331	0.20740	0.19615	0.15656	0.30277	0.38243	0.47301
146850	0.09439	0.10876	0.07093	0.44800	0.50248	0.44897	0.73356	0.44636	0.25978	0.43632	0.43100	0.43233	0.20630	0.19468	0.15753	0.30012	0.38099	0.47074
147010	0.09707	0.10765	0.07289	0.44929	0.50337	0.44906	0.73437	0.44765	0.26210	0.43752	0.43124	0.43304	0.20544	0.19709	0.15909	0.30404	0.38311	0.47291
147180	0.09449	0.10851	0.06932	0.44657	0.50037	0.44721	0.72648	0.44498	0.25890	0.43461	0.42842	0.43100	0.20530	0.19473	0.15387	0.29858	0.37941	0.46978	24.48	6.0	0.00	7.19	0.01279	0.01295	0.01672	0.00800	0.00596	0.00652	0.00472	0.01274	0.01696	0.00692	0.00711	0.00912	0.01499	0.01103	0.01204	0.00225	0.00636	0.00891
147340	0.09523	0.11030	0.07434	0.44810	0.50331	0.45105	0.73134	0.44957	0.26372	0.43835	0.43131	0.43350	0.20974	0.19948	0.15669	0.30422	0.38437	0.47434
147500	0.09608	0.10833	0.07179	0.44806	0.50051	0.44787	0.72548	0.44669	0.25980	0.43559	0.42859	0.43099	0.20589	0.19697	0.15541	0.30112	0.37967	0.46990
147670	0.09717	0.10895	0.07200	0.44891	0.50302	0.45159	0.73839	0.45000	0.26378	0.43916	0.43155	0.43399	0.21188	0.19895	0.15889	0.30463	0.38487	0.47400
147830	0.09739	0.10641	0.07107	0.44701	0.50029	0.44731	0.72260	0.44809	0.26071	0.43506	0.42803	0.43095	0.20285	0.19700	0.15310	0.30127	0.38061	0.47051
147990	0.09566	0.11046	0.07212	0.44724	0.50078	0.44932	0.73435	0.44685	0.26121	0.43690	0.43067	0.43227	0.20770	0.19706	0.15649	0.30415	0.38358	0.47333
148160	0.09423	0.10782	0.07055	0.44588	0.49923	0.44748	0.72777	0.44480	0.25921	0.43518	0.42853	0.43027	0.20640	0.19443	0.15387	0.29937	0.37949	0.46987
148320	0.09408	0.10664	0.06798	0.44152	0.49513	0.44351	0.71840	0.44296	0.25511	0.43134	0.42392	0.42718	0.20842	0.19687	0.15543	0.30112	0.38076	0.47101
148480	0.09472	0.10870	0.06927	0.44507	0.49786	0.44661	0.72689	0.44527	0.25856	0.43465	0.42788	0.42971	0.20822	0.19891	0.15762	0.30340	0.38289	0.47336
148650	0.09872	0.11126	0.07024	0.44712	0.49965	0.44780	0.72773	0.44732	0.26209	0.43604	0.42958	0.43145	0.20877	0.19794	0.15883	0.30288	0.38166	0.47277
148810	0.09573	0.10747	0.07090	0.44453	0.49867	0.44665	0.72614	0.44717	0.25915	0.43603	0.42894	0.43123	0.20985	0.19659	0.15838	0.30070	0.38136	0.47219	24.60	6.1	0.00	7.19	0.01279	0.01295	0.01672	0.00800	0.00596	0.00652	0.00472	0.01274	0.01696	0.00692	0.00711	0.00912	0.01499	0.01103	0.01204	0.00225	0.00636	0.00891
148980	0.09607	0.10961	0.07162	0.44536	0.49804	0.44607	0.72321	0.44685	0.25851	0.43519	0.42816	0.43039	0.20598	0.19633	0.15915	0.30048	0.38195	0.47236
149140	0.09683	0.10698	0.07246	0.44519	0.49819	0.44724	0.72890	0.44646	0.25958	0.43591	0.42853	0.43057	0.20818	0.19466	0.15571	0.30134	0.37825	0.46955
149310	0.09690	0.10875	0.07320	0.44471	0.49831	0.44755	0.73320	0.45072	0.26107	0.43728	0.42976	0.43210	0.20745	0.19644	0.15863	0.29999	0.38048	0.47092
149470	0.09687	0.10749	0.07111	0.44352	0.49770	0.44647	0.72448	0.44784	0.25938	0.43613	0.42808	0.43088	0.20914	0.19632	0.15650	0.29850	0.37973	0.47142
149640	0.09641	0.10734	0.07202	0.44394	0.49782	0.44649	0.72590	0.44770	0.26063	0.43650	0.42828	0.43154	0.20908	0.19698	0.15636	0.30066	0.37937	0.46936
149800	0.09950	0.10836	0.07317	0.44510	0.49935	0.44759	0.73064	0.44831	0.26175	0.43691	0.42855	0.43205	0.20881	0.19562	0.15663	0.29988	0.37950	0.47003
149960	0.09674	0.10906	0.07078	0.44276	0.49747	0.44471	0.72585	0.44553	0.25810	0.43553	0.42718	0.43012	0.20988	0.19756	0.15763	0.29954	0.38057	0.47128
150130	0.09693	0.10944	0.07374	0.44357	0.49828	0.44538	0.72380	0.44524	0.26094	0.43570	0.42773	0.43089	0.20834	0.19607	0.15681	0.29906	0.37961	0.46972
150290	0.09652	0.10941	0.07231	0.44290	0.49809	0.44520	0.73130	0.44792	0.26048	0.43661	0.42837	0.43097	0.20829	0.19734	0.16015	0.29809	0.37971	0.47029
150460	0.09620	0.10814	0.07197	0.44239	0.49654	0.44513	0.73094	0.44623	0.25876	0.43524	0.42749	0.43033	0.20730	0.19498	0.15598	0.29724	0.37862	0.46910	24.54	6.1	0.00	7.29	0.01279	0.01295	0.01672	0.00800	0.00596	0.00652	0.00472	0.01274	0.01696	0.00692	0.00711	0.00912	0.01498	0.01102	0.01204	0.00224	0.00636	0.00891
150620	0.09541	0.10802	0.07186	0.44335	0.49732	0.44463	0.72984	0.44732	0.25944	0.43565	0.42781	0.42961	0.20840	0.19477	0.15436	0.29545	0.37713	0.46772
150790	0.09675	0.10987	0.07102	0.44347	0.49926	0.44657	0.73177	0.44753	0.26240	0.43761	0.42919	0.43106	0.21192	0.19585	0.15835	0.29784	0.37947	0.46971
150950	0.09755	0.10787	0.07037	0.44251	0.49682	0.44400	0.73041	0.44496	0.25888	0.43560	0.42690	0.42959	0.20928	0.19577	0.15823	0.29907	0.37945	0.47026
151120	0.09742	0.10946	0.07263	0.44356	0.49755	0.44424	0.72992	0.44839	0.25897	0.43612	0.42702	0.42991	0.20991	0.19646	0.15896	0.29855	0.38026	0.47053
151280	0.09782	0.11077	0.07009	0.44491	0.50037	0.44621	0.72337	0.45051	0.25963	0.43679	0.42825	0.43034	0.20914	0.19809	0.15725	0.29792	0.38013	0.46908
151450	0.09496	0.10929	0.07215	0.44298	0.49810	0.44470	0.72579	0.44744	0.26103	0.43518	0.42649	0.42991	0.20873	0.19746	0.15699	0.29713	0.37777	0.46777
151610	0.09632	0.11121	0.06996	0.44247	0.49727	0.44365	0.72857	0.44794	0.25974	0.43455	0.42605	0.42817	0.20732	0.19411	0.15672	0.29646	0.37676	0.46663
151770	0.09322	0.10953	0.07357	0.44150	0.49884	0.44685	0.73339	0.45089	0.26354	0.43777	0.42884	0.43135	0.21240	0.19980	0.15936	0.30113	0.38110	0.47064
151940	0.09707	0.10924	0.07143	0.44402	0.49802	0.44392	0.72295	0.44904	0.25968	0.43395	0.42624	0.42890	0.20959	0.19869	0.15862	0.29821	0.38064	0.47122
152100	0.09776	0.10984	0.07197	0.44472	0.49914	0.44581	0.73163	0.45056	0.26158	0.43524	0.42628	0.43004	0.20711	0.19636	0.15644	0.29669	0.37853	0.46844	24.54	6.3	0.00	7.26	0.01279	0.01295	0.01672	0.00800	0.00596	0.00652	0.00472	0.01274	0.01696	0.00692	0.00711	0.00912	0.01498	0.01102	0.01204	0.00224	0.00636	0.00891
152260	0.09613	0.10587	0.07047	0.44180	0.49592	0.44239	0.72207	0.44372	0.25628	0.43278	0.42377	0.42662	0.21101	0.19883	0.16116	0.30016	0.38181	0.47189
152430	0.09773	0.10999	0.07357	0.44492	0.49903	0.44556	0.73483	0.45011	0.26042	0.43567	0.42671	0.42907	0.20817	0.19490	0.15726	0.30005	0.37860	0.46844
152590	0.09611	0.10645	0.07055	0.44134	0.49501	0.44212	0.71697	0.44593	0.25862	0.43257	0.42287	0.42671	0.20918	0.19715	0.16122	0.29874	0.38238	0.47176
152760	0.09786	0.11056	0.07282	0.44440	0.49894	0.44503	0.72608	0.44733	0.26181	0.43473	0.42540	0.42849	0.20672	0.19662	0.15709	0.29927	0.37826	0.46792
152920	0.09692	0.10665	0.07222	0.44273	0.49791	0.44498	0.72525	0.44702	0.25979	0.43476	0.42608	0.42852	0.20843	0.19659	0.15667	0.29923	0.37842	0.46804
153080	0.09455	0.10755	0.06980	0.44142	0.49608	0.44270	0.72434	0.44880	0.25876	0.43273	0.42546	0.42691	0.20513	0.19505	0.15633	0.29542	0.37585	0.46608
153250	0.09586	0.10872	0.07131	0.44278	0.49806	0.44445	0.72391	0.45146	0.26057	0.43559	0.42721	0.42876	0.20811	0.19718	0.15550	0.29833	0.37938	0.46901
153410	0.09313	0.10771	0.06968	0.44271	0.49704	0.44380	0.72970	0.44599	0.25952	0.43430	0.42598	0.42777	0.20976	0.19677	0.15686	0.29942	0.37829	0.46718
153570	0.09631	0.11215	0.07394	0.44400	0.49908	0.44648	0.72818	0.45064	0.26446	0.43564	0.42877	0.42892	0.21045	0.19964	0.15820	0.30136	0.38184	0.47010
153740	0.09510	0.10845	0.07245	0.44223	0.49653	0.44341	0.71920	0.44791	0.25951	0.43105	0.42473	0.42587	0.20692	0.19648	0.15651	0.29479	0.37695	0.46637	24.60	6.0	0.00	6.88	0.01279	0.01295	0.01672	0.00800	0.00596	0.00652	0.00472	0.01274	0.01696	0.00692	0.00711	0.00912	0.01498	0.01102	0.01204	0.00224	0.00636	0.00891
153900	0.09446	0.10909	0.07154	0.44282	0.49882	0.44654	0.73541	0.44952	0.26248	0.43452	0.42783	0.42817	0.21011	0.19800	0.15908	0.30312	0.38150	0.47038
154060	0.09539	0.10677	0.07069	0.44171	0.49652	0.44326	0.72912	0.44513	0.25847	0.43089	0.42529	0.42529	0.20751	0.19457	0.15474	0.29673	0.37679	0.46644
154230	0.09519	0.10776	0.06910	0.44205	0.49811	0.44447	0.73367	0.45217	0.26306	0.43282	0.42581	0.42766	0.20856	0.19781	0.15654	0.29950	0.37965	0.46823
154390	0.09404	0.10625	0.06943	0.44026	0.49540	0.44275	0.72487	0.44505	0.25970	0.43021	0.42333	0.42517	0.20712	0.19498	0.15383	0.29423	0.37565	0.46510
154550	0.09311	0.10540	0.06679	0.43677	0.49330	0.44056	0.72172	0.44295	0.25567	0.42894	0.42284	0.42308	0.20865	0.19891	0.15884	0.30043	0.38042	0.46969
154720	0.09407	0.10770	0.07295	0.44179	0.49715	0.44312	0.72511	0.44778	0.25884	0.43069	0.42513	0.42562	0.20840	0.19645	0.15822	0.29939	0.38038	0.46884
154880	0.09859	0.10970	0.07163	0.44232	0.49778	0.44527	0.73032	0.45128	0.26302	0.43217	0.42688	0.42693	0.20802	0.19413	0.15846	0.29935	0.37919	0.46812
155040	0.09488	0.10803	0.07076	0.44024	0.49502	0.44174	0.72543	0.44835	0.26013	0.42975	0.42421	0.42400	0.20858	0.20057	0.15658	0.29860	0.38066	0.46893
155210	0.09642	0.11012	0.07454	0.44291	0.49789	0.44473	0.72890	0.45068	0.26190	0.43159	0.42682	0.42706	0.21025	0.19841	0.15719	0.29729	0.37872	0.46702
155370	0.09309	0.10840	0.07161	0.43947	0.49421	0.44128	0.72314	0.44635	0.25826	0.43040	0.42460	0.42511	0.20999	0.19903	0.15756	0.29912	0.38117	0.46949	24.66	6.1	0.00	7.20	0.01279	0.01295	0.01672	0.00800	0.00596	0.00652	0.00472	0.01274	0.01696	0.00692	0.00711	0.00912	0.01498	0.01102	0.01204	0.00224	0.00636	0.00891
155530	0.09891	0.10816	0.07267	0.44373	0.49871	0.44442	0.73003	0.44948	0.26316	0.43356	0.42764	0.42736	0.20749	0.19582	0.15875	0.29905	0.37880	0.46720
155700	0.09418	0.10823	0.07007	0.43988	0.49405	0.44090	0.72620	0.44468	0.25918	0.42931	0.42437	0.42459	0.20795	0.19912	0.15757	0.29811	0.37995	0.46841
155860	0.09746	0.10898	0.07171	0.44213	0.49723	0.44399	0.73311	0.45204	0.26070	0.43258	0.42660	0.42745	0.20823	0.19474	0.15859	0.29864	0.37851	0.46672
156020	0.09642	0.10596	0.06781	0.43915	0.49481	0.44085	0.72522	0.44890	0.25872	0.42942	0.42433	0.42437	0.20957	0.19643	0.15906	0.29879	0.38086	0.46904
156190	0.09737	0.10986	0.07230	0.44265	0.49651	0.44385	0.72590	0.44972	0.26177	0.43291	0.42723	0.42634	0.20669	0.19507	0.15661	0.29539	0.37695	0.46581
156350	0.09517	0.10774	0.06991	0.43833	0.49420	0.44017	0.72194	0.44533	0.25644	0.42942	0.42456	0.42370	0.20944	0.19697	0.15595	0.29658	0.37934	0.46828
156520	0.09721	0.10836	0.07152	0.44151	0.49748	0.44322	0.72847	0.44839	0.26038	0.43283	0.42872	0.42682	0.20909	0.19402	0.15691	0.29539	0.37626	0.46550
156680	0.09752	0.10888	0.07334	0.44083	0.49806	0.44458	0.72906	0.44847	0.26180	0.43308	0.42844	0.42804	0.20839	0.19813	0.15927	0.29580	0.37746	0.46612
156840	0.09455	0.10830	0.07254	0.44027	0.49765	0.44295	0.72119	0.44939	0.25987	0.43125	0.42731	0.42657	0.20528	0.19423	0.15877	0.29610	0.37618	0.46468
157010	0.09807	0.11067	0.07444	0.44326	0.49982	0.44604	0.73366	0.45334	0.26523	0.43385	0.43065	0.42898	0.21090	0.20213	0.16215	0.30069	0.38067	0.46829	24.66	6.2	0.00	6.29	0.01278	0.01295	0.01672	0.00800	0.00596	0.00652	0.00472	0.01274	0.01696	0.00692	0.00711	0.00912	0.01498	0.01102	0.01203	0.00224	0.00636	0.00891
157170	0.09721	0.10948	0.07334	0.44195	0.49758	0.44312	0.72435	0.44875	0.26229	0.43153	0.42736	0.42679	0.20885	0.19750	0.15607	0.29490	0.37803	0.46653
157330	0.09562	0.10795	0.07086	0.43976	0.49713	0.44171	0.71954	0.44490	0.25824	0.43063	0.42697	0.42582	0.20781	0.19352	0.15583	0.29688	0.37693	0.46468
157500	0.09313	0.10635	0.07001	0.43925	0.49568	0.44249	0.72829	0.44479	0.25830	0.43038	0.42691	0.42564	0.20838	0.19579	0.15731	0.29676	0.37864	0.46602
157660	0.09547	0.10727	0.07187	0.44064	0.49801	0.44350	0.72027	0.44819	0.25879	0.43178	0.42871	0.42638	0.20627	0.19522	0.15648	0.29658	0.37773	0.46548
157830	0.09391	0.10792	0.06936	0.43919	0.49492	0.44053	0.72882	0.44345	0.25697	0.42970	0.42734	0.42508	0.20781	0.19723	0.15939	0.29889	0.38093	0.46882
157990	0.09706	0.10952	0.07205	0.44245	0.49828	0.44472	0.73897	0.44934	0.26088	0.43227	0.42890	0.42694	0.20619	0.19433	0.15398	0.29531	0.37766	0.46545
158150	0.09669	0.10841	0.07230	0.44301	0.49954	0.44602	0.73330	0.45230	0.26290	0.43425	0.43094	0.42936	0.20746	0.19734	0.16003	0.30072	0.38016	0.46840
158320	0.09551	0.10960	0.07084	0.44193	0.49760	0.44324	0.72741	0.44963	0.25899	0.43163	0.42807	0.42734	0.20663	0.19644	0.15623	0.29751	0.37860	0.46651
158480	0.09694	0.10915	0.07137	0.44295	0.49828	0.44404	0.72755	0.44770	0.26065	0.43184	0.42861	0.42801	0.20798	0.19422	0.15506	0.29662	0.37764	0.46579
158650	0.09424	0.11054	0.07461	0.44122	0.49999	0.44706	0.73762	0.45400	0.26471	0.43489	0.43160	0.43048	0.21074	0.20089	0.16163	0.30016	0.38199	0.47007	24.54	6.2	0.00	6.67	0.01279	0.01295	0.01672	0.00800	0.00596	0.00652	0.00472	0.01274	0.01696	0.00692	0.00711	0.00912	0.01498	0.01102	0.01203	0.00224	0.00635	0.00891
158810	0.09785	0.10911	0.07202	0.44443	0.49972	0.44453	0.73725	0.44826	0.26019	0.43323	0.42913	0.42876	0.21083	0.19735	0.15900	0.29877	0.38106	0.46952
158970	0.09859	0.11046	0.07162	0.44503	0.49972	0.44558	0.73153	0.44966	0.26375	0.43278	0.42896	0.42969	0.20783	0.19501	0.15810	0.29821	0.37851	0.46727
159140	0.09587	0.10843	0.07134	0.44178	0.49697	0.44321	0.72757	0.44764	0.25743	0.43029	0.42772	0.42669	0.20985	0.19765	0.16100	0.29922	0.38122	0.47071
159300	0.09897	0.11120	0.07265	0.44590	0.50015	0.44651	0.73324	0.45023	0.26301	0.43401	0.43048	0.43054	0.20751	0.19617	0.15926	0.29836	0.37954	0.46819
159460	0.09489	0.10768	0.07094	0.44367	0.49907	0.44473	0.72992	0.44975	0.26161	0.43352	0.42926	0.42895	0.20705	0.19539	0.15620	0.29706	0.37822	0.46687
159630	0.09446	0.10971	0.07244	0.44251	0.49808	0.44456	0.73006	0.44508	0.26049	0.43135	0.42850	0.42852	0.20742	0.19520	0.15685	0.29810	0.37862	0.46753
159790	0.09618	0.10371	0.06827	0.44144	0.49604	0.44270	0.71826	0.44507	0.25732	0.43069	0.42729	0.42640	0.20821	0.19834	0.15905	0.30132	0.38291	0.47279
