WetView ver 7.1	07-16-2018	13:02:21
AC9 Absorption and Attenuation Meter
00000266		; Serial number
2	; structure version number
Reserved
0.000000	0.000000		; Depth calibration
19200			; Baud rate
0.100000			; Path length (meters)
31			; number of temperature calibration bins
				12.59339	13.44920	14.48425	15.49668	16.50852	17.49564	18.50545	19.52458	20.50176	21.48889	22.47318	23.48707	24.50962	25.49370	26.49784	27.51372	28.50746	29.47237	30.47938	31.50214	32.50470	33.49235	34.50337	35.50914	36.50618	37.52058	38.51018	39.51308	40.49994	41.49866	42.47204	; temperature bins
a650	Blue	20.34952		-0.00383	-0.00415	-0.00430	-0.00391	-0.00363	-0.00317	-0.00269	-0.00237	-0.00179	-0.00130	-0.00099	-0.00071	-0.00015	0.00000	0.00004	-0.00001	0.00015	0.00036	0.00058	0.00101	0.00161	0.00132	0.00160	0.00169	0.00242	0.00273	0.00336	0.00365	0.00427	0.00566	0.00670		; offset and temperature correction info
a676	Green	20.51193		-0.00398	-0.00384	-0.00360	-0.00306	-0.00302	-0.00255	-0.00235	-0.00212	-0.00163	-0.00136	-0.00118	-0.00089	-0.00029	0.00000	0.00068	0.00082	0.00099	0.00137	0.00145	0.00212	0.00260	0.00252	0.00321	0.00354	0.00457	0.00535	0.00617	0.00648	0.00742	0.00887	0.01002		; offset and temperature correction info
a715	Brown	20.23230		-0.00421	-0.00394	-0.00391	-0.00291	-0.00264	-0.00192	-0.00204	-0.00179	-0.00188	-0.00239	-0.00180	-0.00187	-0.00099	0.00000	0.00084	0.00162	0.00188	0.00224	0.00321	0.00381	0.00466	0.00528	0.00588	0.00696	0.00859	0.01041	0.01148	0.01282	0.01333	0.01456	0.01617		; offset and temperature correction info
c510	Red	20.40042		-0.00261	-0.00247	-0.00258	-0.00225	-0.00203	-0.00197	-0.00199	-0.00203	-0.00154	-0.00103	-0.00069	-0.00019	-0.00007	0.00000	0.00011	-0.00021	-0.00042	-0.00056	-0.00040	0.00011	0.00036	0.00050	0.00077	0.00079	0.00050	0.00042	0.00043	0.00092	0.00147	0.00200	0.00232		; offset and temperature correction info
c532	Magenta	20.40760		-0.00248	-0.00265	-0.00278	-0.00279	-0.00296	-0.00292	-0.00238	-0.00206	-0.00129	-0.00096	-0.00092	-0.00052	-0.00009	0.00000	0.00007	-0.00049	-0.00136	-0.00107	-0.00079	-0.00065	-0.00074	-0.00105	-0.00152	-0.00192	-0.00236	-0.00269	-0.00252	-0.00233	-0.00172	-0.00128	-0.00067		; offset and temperature correction info
c555	Black	20.50654		-0.00053	-0.00063	-0.00106	-0.00094	-0.00068	-0.00055	-0.00053	-0.00039	-0.00028	-0.00025	-0.00011	-0.00035	-0.00007	0.00000	-0.00037	-0.00055	-0.00036	-0.00014	0.00019	0.00044	0.00032	0.00040	0.00050	0.00028	0.00014	0.00013	0.00030	0.00073	0.00117	0.00176	0.00241		; offset and temperature correction info
a412	LtBlue	17.15231		-0.01972	-0.01823	-0.01612	-0.01381	-0.01272	-0.01080	-0.00959	-0.00866	-0.00710	-0.00532	-0.00354	-0.00148	-0.00028	0.00000	0.00176	0.00297	0.00394	0.00440	0.00453	0.00487	0.00804	0.00856	0.01065	0.01248	0.01388	0.01439	0.01659	0.01881	0.02256	0.02450	0.02719		; offset and temperature correction info
a440	LtGreen	18.00171		-0.00729	-0.00642	-0.00581	-0.00502	-0.00426	-0.00349	-0.00244	-0.00218	-0.00179	-0.00101	-0.00046	-0.00006	0.00036	0.00000	0.00040	0.00045	0.00030	-0.00015	-0.00024	-0.00035	0.00012	-0.00013	-0.00033	-0.00089	-0.00142	-0.00189	-0.00231	-0.00205	-0.00140	-0.00140	-0.00146		; offset and temperature correction info
a488	Yellow	18.86491		-0.00113	-0.00102	-0.00106	-0.00064	-0.00027	-0.00020	-0.00030	-0.00037	-0.00047	-0.00059	-0.00052	-0.00012	0.00008	0.00000	0.00025	0.00012	-0.00013	-0.00043	-0.00065	-0.00076	-0.00025	0.00010	0.00090	0.00111	0.00113	0.00104	0.00073	0.00068	0.00120	0.00186	0.00258		; offset and temperature correction info
c650	Blue	20.46075		-0.00145	-0.00097	-0.00092	-0.00139	-0.00185	-0.00196	-0.00237	-0.00266	-0.00238	-0.00163	-0.00083	-0.00041	-0.00010	0.00000	0.00005	-0.00001	0.00015	0.00034	0.00029	0.00065	0.00101	0.00164	0.00126	0.00156	0.00175	0.00270	0.00287	0.00371	0.00407	0.00473	0.00534		; offset and temperature correction info
c676	Green	20.10118		-0.00170	-0.00144	-0.00149	-0.00177	-0.00188	-0.00194	-0.00198	-0.00196	-0.00177	-0.00156	-0.00140	-0.00091	-0.00033	0.00000	0.00050	0.00092	0.00110	0.00141	0.00167	0.00199	0.00216	0.00265	0.00269	0.00289	0.00315	0.00374	0.00367	0.00408	0.00486	0.00561	0.00646		; offset and temperature correction info
c715	Brown	19.91219		-0.01201	-0.01097	-0.00859	-0.00680	-0.00651	-0.00592	-0.00535	-0.00440	-0.00387	-0.00303	-0.00222	-0.00153	-0.00028	0.00000	0.00093	0.00149	0.00247	0.00322	0.00330	0.00427	0.00373	0.00464	0.00536	0.00551	0.00643	0.00733	0.00779	0.00884	0.00899	0.01021	0.01120		; offset and temperature correction info
a510	Red	19.21192		0.00201	0.00193	0.00158	0.00098	0.00089	0.00049	0.00011	-0.00016	-0.00016	-0.00005	0.00028	0.00025	0.00006	0.00000	0.00035	-0.00022	-0.00023	-0.00080	-0.00144	-0.00154	-0.00153	-0.00204	-0.00220	-0.00219	-0.00190	-0.00128	-0.00069	-0.00018	0.00068	0.00152	0.00241		; offset and temperature correction info
a532	Magenta	19.41084		-0.00097	-0.00072	-0.00060	-0.00081	-0.00062	-0.00071	-0.00040	0.00020	0.00028	0.00043	0.00000	-0.00035	0.00007	0.00000	-0.00011	-0.00059	-0.00080	-0.00098	-0.00137	-0.00162	-0.00163	-0.00130	-0.00073	-0.00018	0.00090	0.00185	0.00175	0.00247	0.00291	0.00327	0.00349		; offset and temperature correction info
a555	Black	19.69776		0.00171	0.00183	0.00183	0.00186	0.00191	0.00170	0.00115	0.00131	0.00097	0.00073	0.00060	0.00013	0.00015	0.00000	0.00014	-0.00029	-0.00066	-0.00082	-0.00116	-0.00139	-0.00134	-0.00167	-0.00119	-0.00093	-0.00048	0.00053	0.00111	0.00095	0.00178	0.00206	0.00273		; offset and temperature correction info
c412	LtBlue	19.91180		-0.02051	-0.01853	-0.01589	-0.01311	-0.01059	-0.00877	-0.00705	-0.00581	-0.00413	-0.00231	-0.00098	-0.00066	-0.00011	0.00000	-0.00013	-0.00085	-0.00170	-0.00170	-0.00302	-0.00330	-0.00429	-0.00551	-0.00626	-0.00775	-0.00978	-0.01181	-0.01113	-0.01108	-0.01116	-0.01192	-0.01291		; offset and temperature correction info
c440	LtGreen	20.06241		-0.01064	-0.00992	-0.00892	-0.00766	-0.00639	-0.00531	-0.00478	-0.00384	-0.00287	-0.00187	-0.00102	-0.00063	-0.00023	0.00000	-0.00007	-0.00053	-0.00090	-0.00119	-0.00169	-0.00197	-0.00226	-0.00257	-0.00260	-0.00289	-0.00394	-0.00470	-0.00481	-0.00493	-0.00520	-0.00580	-0.00620		; offset and temperature correction info
c488	Yellow	20.35984		-0.01125	-0.01082	-0.00966	-0.00833	-0.00726	-0.00661	-0.00579	-0.00500	-0.00389	-0.00278	-0.00167	-0.00113	-0.00041	0.00000	0.00055	0.00121	0.00187	0.00226	0.00222	0.00251	0.00281	0.00359	0.00414	0.00427	0.00401	0.00404	0.00486	0.00563	0.00638	0.00684	0.00718		; offset and temperature correction info
0.003500	0.004000	0.015000	0.020000	0.015000	0.020000	2500.000000	2000.000000	1000.000000	; maxANoise	maxCNoise	maxADifference	maxCDifference	minACounts	minCCounts	minRCounts	maxTempSdev	maxDepthSdev
0			; auxilliary capabilities
1			; acquisition binsize
0	1.41950	3.38399	3.72142	21.73894	12.05580	13.49424	12.58288	7.71559	3.42615	34.24224	18.60429	19.25984	4.06086	4.73778	3.53880	41.36846	20.83747	21.83382	30.57	6.0	0.00	7.48	0.01266	0.01288	0.01630	0.00774	0.00576	0.00632	0.00466	0.01263	0.01678	0.00671	0.00687	0.00870	0.01486	0.01091	0.01193	0.00216	0.00614	0.00861
160	5.06594	6.28591	6.09939	24.31247	17.81075	11.76022	16.41797	11.29819	6.00380	17.75477	15.86070	11.40755	5.18832	4.32573	3.92884	18.62417	13.09585	10.51663
320	5.12215	4.62740	3.13415	10.85731	9.56857	10.01887	12.75109	9.89529	6.43871	4.62425	5.57189	9.32843	5.16646	6.10556	5.90763	13.08553	8.93510	8.00368
490	5.14505	7.47105	7.47069	6.74652	8.67359	7.26936	12.09350	8.31261	6.65815	3.33700	3.58350	4.55799	6.04915	6.64961	5.84399	11.79749	11.02395	4.34878
650	2.65529	3.16092	4.77284	6.09489	4.43706	4.86913	17.00523	14.57858	10.32604	8.32445	10.15235	8.53185	10.84918	12.83329	12.88589	17.39208	12.68032	17.61453
810	8.76062	9.32435	8.58102	9.12614	11.85178	11.83838	14.99011	13.85706	15.92662	8.95443	8.36856	9.66426	11.69591	10.49005	9.09589	17.93392	13.59717	14.89096
980	5.51393	4.70728	7.47210	9.07315	8.42980	7.02345	19.90598	13.26849	11.57988	6.00198	4.97835	4.13168	14.31910	12.75058	10.56960	12.72486	8.47204	5.78012
1140	8.37409	10.23431	10.05742	4.77849	3.72433	2.07779	18.05941	12.67063	9.96522	3.38048	4.60464	2.31319	7.68664	10.44299	8.68227	10.11652	8.23625	5.24110
1300	6.56154	6.19490	6.65349	5.58955	4.17843	3.05104	17.11304	11.79365	7.53745	2.89134	4.07415	3.19505	5.70657	9.11406	8.40542	9.80242	8.06046	6.28687
1470	4.60805	3.29895	3.78073	4.21201	4.36236	3.03989	13.41777	11.57377	6.07270	0.99974	0.80279	0.96105	5.73005	5.80107	5.31572	9.57948	6.19330	4.02966
1630	5.70147	5.97740	3.95656	4.10145	3.71924	2.54107	13.94670	12.56022	9.84469	1.65075	1.53502	1.46267	5.20389	5.09124	6.97115	9.72681	5.70767	3.38535	30.57	6.0	0.00	7.60	0.01266	0.01288	0.01630	0.00776	0.00577	0.00633	0.00466	0.01263	0.01678	0.00672	0.00690	0.00872	0.01486	0.01091	0.01193	0.00216	0.00615	0.00862
1790	5.62819	3.31971	2.78477	2.70258	1.96345	2.31744	11.83144	7.68196	5.65261	2.01265	1.61132	2.34968	6.18186	5.39591	7.64179	9.66280	7.08574	3.96041
1960	7.22417	3.73043	3.91574	2.79089	4.55509	4.74133	13.41917	12.47335	10.42666	2.77434	2.82653	2.78336	11.61013	5.36200	5.53581	12.03840	9.61443	7.15405
2120	6.07985	4.91980	8.75798	6.93604	6.20725	7.92933	14.85286	13.06278	11.20809	4.44237	5.38185	5.91918	9.54960	9.33344	7.59363	11.27360	8.38545	5.81097
2280	5.79413	5.15736	4.41888	3.86194	3.03088	3.04785	18.70151	12.86675	8.84085	1.09939	1.30301	2.31319	6.35437	5.27469	3.97219	8.51163	5.49443	3.59261
2450	4.25640	3.02936	1.56215	2.29585	2.08331	2.01808	11.02885	9.52049	5.21928	0.93888	0.80329	0.62781	7.18250	5.12865	4.39839	9.31254	5.83463	2.63640
2610	3.95647	4.59304	4.53647	2.26977	1.53454	1.72200	11.20501	6.53542	3.38574	0.83190	0.86074	1.32724	3.45141	3.04225	2.51952	8.78207	5.36310	2.98081
2770	4.73867	4.70827	2.39938	2.60884	2.65682	3.31710	12.37661	7.57098	5.02488	2.01352	1.88536	1.18825	3.90940	4.23083	5.03380	8.66078	5.86700	3.19055
2940	1.55487	1.72145	2.04060	2.79524	1.94729	1.43436	13.61277	10.53243	9.34707	1.16487	1.02396	1.09602	7.51229	9.54112	9.04474	8.93847	5.42461	2.89387
3100	7.25020	5.88493	4.81088	2.36477	2.11557	1.68019	18.88808	12.24237	8.66981	1.02659	1.46665	1.43531	7.58646	3.55382	3.86998	9.45019	5.85714	3.94341
3260	2.91096	3.86148	5.72117	2.60037	4.69796	2.13155	16.69362	12.48480	8.62350	2.31345	2.69255	3.42004	9.33882	10.09811	7.22805	9.25958	5.91319	4.35275	30.51	6.0	0.00	7.50	0.01266	0.01288	0.01630	0.00776	0.00577	0.00634	0.00466	0.01263	0.01678	0.00673	0.00691	0.00873	0.01486	0.01091	0.01193	0.00216	0.00615	0.00863
3430	2.97885	5.18982	4.48822	5.94478	9.48390	4.04885	17.48945	10.85348	10.86279	9.39707	7.34159	11.69300	10.67581	10.25164	11.84291	27.26480	15.75383	9.41014
3590	12.52289	12.81914	12.21997	18.69982	14.42181	10.35374	21.67114	19.60977	14.64770	4.03208	6.79809	5.67385	14.74889	16.36518	13.03490	11.43256	7.95952	7.07523
3750	10.28958	10.66737	9.67107	4.44982	5.33588	4.17926	26.23472	19.68690	15.21959	3.77020	2.87763	2.82576	14.54932	12.72481	17.61678	16.90962	7.98497	4.50388
3920	13.06793	10.82178	12.45337	3.44873	2.65771	2.22383	23.59278	17.77925	19.04684	4.07684	3.28706	1.61444	15.43119	16.53700	17.88436	10.34123	6.69761	3.67381
4080	11.76243	12.39188	10.55373	3.09619	2.93608	1.62653	19.17970	14.45457	8.96927	2.26732	1.88848	2.12555	7.02512	11.06609	6.34495	10.59137	6.84302	4.44261
4240	7.51760	5.89491	4.51893	2.88803	2.56520	3.37548	18.29274	12.72656	12.75378	1.26572	1.23951	1.42794	7.56092	6.04897	6.82122	8.99503	5.91352	2.66416
4410	4.06562	5.36531	4.31199	3.40124	3.20025	2.05595	12.58565	8.47093	7.15957	1.68593	1.59115	1.25323	5.08261	6.48146	4.30692	8.60229	5.10107	2.42145
4570	3.99122	3.16921	1.90335	1.93231	1.72495	1.44626	11.58974	8.86453	4.32765	0.85424	0.64076	0.97289	5.20771	4.79702	3.50268	8.84074	5.59477	2.64393
4730	4.98005	2.72979	4.87393	2.35794	1.82340	1.34142	13.75764	9.14268	4.13417	0.89728	0.85490	0.74515	7.35187	5.73484	7.44131	8.94518	6.33018	2.89281
4900	3.47201	3.45861	3.21606	2.80489	2.07338	1.53793	14.30831	8.79494	5.09712	0.67533	0.58805	0.63807	6.48858	3.89430	3.04608	8.94380	5.72520	2.82590	30.51	6.0	0.00	7.49	0.01266	0.01288	0.01630	0.00777	0.00578	0.00634	0.00466	0.01263	0.01678	0.00674	0.00693	0.00874	0.01486	0.01091	0.01193	0.00216	0.00615	0.00863
5060	3.83066	4.22319	4.17534	2.89190	2.62518	1.74077	11.84108	10.25840	6.92385	2.73546	1.25102	2.44110	5.92351	8.85189	9.67887	9.38701	5.90924	3.31465
5220	4.88208	4.27823	6.80998	2.64324	3.14984	2.31245	14.31303	14.52989	11.44260	1.70591	2.54216	2.57570	9.40526	10.47116	10.07690	8.86702	5.75347	3.07081
5390	7.35690	7.54758	7.11087	2.74519	2.64181	2.02230	17.84959	10.81245	7.68062	1.29424	2.06046	1.55396	9.85610	9.91755	8.47271	8.82816	6.37359	3.61864
5550	9.15700	8.29393	4.50628	3.44383	2.17477	1.75442	13.46212	8.82953	10.12169	1.84219	1.31391	0.77531	9.18225	8.18994	5.98733	8.72061	5.55519	3.02979
5710	6.13445	7.86599	8.18773	2.21435	1.66491	1.71754	12.30611	9.80021	7.53657	1.12599	1.02232	1.11066	3.94439	5.88466	6.54256	9.36490	8.77735	3.79038
5880	4.94776	6.77965	9.18283	4.27155	4.84431	3.61277	16.04688	11.44577	8.99831	2.17216	2.56937	2.07325	10.09938	7.15665	9.85247	10.07315	7.22280	4.15746
6040	10.87215	8.29070	7.23232	3.08720	3.25587	2.62746	20.10571	16.09574	7.64076	1.99891	3.92102	3.48202	12.86803	9.10404	6.44020	11.05544	6.37409	4.38151
6200	6.99116	8.80299	9.29117	6.21528	3.51601	2.74939	17.26659	12.07511	11.47315	2.94107	2.68103	2.74767	9.48202	11.65428	12.19922	12.33251	6.74115	4.35549
6370	8.97866	10.10119	10.47698	3.60490	3.53518	4.41021	14.21721	14.12946	11.57543	2.66067	2.20002	1.04601	9.83163	11.65441	8.13958	10.65458	6.79574	6.49809
6530	9.28728	7.12921	10.61651	4.73593	3.41980	2.00495	18.10710	13.48981	14.31431	2.90346	2.92468	1.70791	9.67665	9.10512	10.36108	11.12707	8.57712	4.10671	30.57	6.1	0.00	7.47	0.01266	0.01287	0.01630	0.00777	0.00578	0.00634	0.00466	0.01263	0.01677	0.00674	0.00694	0.00875	0.01486	0.01091	0.01193	0.00216	0.00615	0.00863
6690	8.37961	6.82541	9.92718	2.86516	2.44300	1.67500	19.29289	14.83020	11.99987	0.88638	1.18491	0.83314	12.60131	12.07949	10.75320	8.82458	5.50789	3.36614
6860	9.08479	8.81416	4.70575	2.22967	2.11408	1.89261	13.40950	11.56679	11.80052	1.58715	2.07575	0.97377	5.94958	4.92637	5.82032	9.07858	7.05882	3.14310
7020	4.69689	5.46967	3.32750	2.88284	2.03884	2.00764	14.78997	8.65779	10.65461	1.08408	0.75869	0.72089	6.22550	6.95489	6.71331	9.38984	5.57339	3.00855
7180	6.97160	6.08580	5.18272	2.80179	2.37449	1.92412	14.11819	11.84939	9.16958	1.55971	1.11087	0.84594	8.94963	9.28988	7.68308	9.49928	5.44936	3.01523
7350	4.39841	4.94581	7.64269	2.31214	2.08072	1.43764	17.42355	13.40373	7.93402	1.16384	3.31896	1.04055	6.23499	8.37032	6.24951	8.81858	6.50308	3.06560
7510	4.14727	8.93065	5.04328	2.85943	2.17821	2.05525	17.86097	11.81694	11.78801	0.79504	1.81303	1.13832	9.25989	8.28684	6.89151	8.89456	5.74032	3.75911
7680	1.71040	2.92596	5.70274	2.47425	3.32742	3.92330	12.87056	7.70288	3.29051	2.26892	1.09335	0.72628	5.49943	5.88697	6.42621	8.83397	5.60363	3.08814
7840	5.59265	3.86743	5.34827	2.58922	1.69685	1.89274	15.57461	12.73452	7.67419	0.86940	0.72499	2.16915	8.48441	10.03371	11.18209	11.94613	7.92138	4.80946
8000	9.08448	9.15124	8.36761	3.13539	3.27600	3.01119	17.41199	15.55626	11.61761	1.44173	1.77982	1.73409	10.92112	6.48775	8.10729	9.45711	5.95270	3.40175
8170	9.04507	9.97169	8.02142	2.57495	1.94398	1.52620	14.55758	13.25320	8.01871	0.65860	0.47808	0.88634	5.82242	3.59256	2.90407	9.18584	5.43993	2.58402	30.51	6.2	0.00	7.60	0.01266	0.01287	0.01630	0.00778	0.00578	0.00635	0.00466	0.01263	0.01677	0.00675	0.00695	0.00875	0.01486	0.01091	0.01193	0.00216	0.00615	0.00864
8330	5.21804	3.52827	3.91121	1.90114	1.88700	1.92688	11.69305	9.59034	6.59735	1.25003	1.16575	0.72389	7.08230	6.17853	6.85205	8.79922	5.66785	2.84420
8490	5.93837	4.26545	6.20077	2.21846	1.78116	1.58377	18.76825	8.13019	4.28382	0.82539	0.82750	0.82022	11.08508	7.57022	6.06325	8.57254	5.48273	2.51927
8660	3.87113	6.18279	5.14967	2.34095	2.35253	1.79930	13.69837	10.98828	9.14074	1.35295	1.01058	0.84622	7.86228	6.16353	5.05335	8.70917	5.57317	3.63710
8820	4.00867	4.11419	4.19897	2.40307	2.00083	1.95330	11.59851	7.43747	6.66841	2.32145	1.41246	1.87132	9.32967	6.40102	7.09116	8.85682	5.72967	3.09460
8980	8.30100	5.59581	4.40255	2.62575	2.39815	2.18718	12.53264	8.23411	4.90771	1.34651	0.82782	1.90065	7.46401	6.24061	5.49154	9.99784	6.62560	4.90271
9150	7.47742	10.28858	9.78434	6.09733	5.31034	2.91145	16.74547	13.90867	10.65533	1.97751	2.13906	4.15576	11.90411	12.00592	9.14363	9.77581	7.12433	2.70740
9310	4.76253	6.15915	7.34461	2.15588	2.42801	2.05836	15.18148	14.93543	8.01387	0.85289	0.91495	1.44170	8.94176	7.40894	6.60067	9.34698	6.59161	3.99584
9470	7.49368	7.16671	4.81229	2.53132	2.68795	2.46276	15.85714	14.41625	8.56881	1.78097	0.87795	1.66716	13.83599	11.82973	10.07242	9.73608	5.98432	3.52499
9640	11.80519	10.72116	11.36097	3.44917	3.87818	1.86516	20.67795	18.08153	12.88488	1.47191	2.39363	2.78836	12.10878	10.76346	12.71940	12.30940	7.38646	5.00278
9800	8.39995	10.43667	11.29688	4.12555	3.20012	2.73944	16.29133	12.65224	11.73051	1.46797	1.74172	2.12389	12.95326	11.73836	11.34256	9.93678	5.78769	3.34006	30.57	6.1	0.00	7.63	0.01266	0.01287	0.01630	0.00778	0.00579	0.00635	0.00466	0.01263	0.01677	0.00675	0.00695	0.00876	0.01486	0.01091	0.01193	0.00216	0.00615	0.00864
9960	9.05291	5.74419	5.13510	2.51517	2.26121	1.85705	17.75566	15.13795	12.88247	1.50762	1.18743	1.12894	9.51510	8.68557	9.68913	8.87712	5.94583	3.21463
10130	7.71130	5.42130	4.43673	2.28556	2.04828	1.83562	10.70542	7.71958	6.28403	0.56262	2.22026	0.61506	4.82896	3.62703	4.91852	9.00796	5.32645	2.51630
10290	2.65420	1.57059	2.12291	2.19844	1.78070	2.28556	10.16954	8.81220	4.76120	1.24847	0.95384	0.69954	3.73945	2.53662	2.29442	8.95034	6.22747	3.58844
10450	1.59754	1.23157	1.42087	3.44488	2.57500	2.36901	14.71561	10.46662	5.37350	1.54825	1.80017	2.28183	6.26629	4.51627	7.71564	8.73661	6.13541	7.44849
10620	8.59875	8.70516	10.97249	5.40819	5.15210	4.30569	21.63886	17.06476	12.36805	1.88646	1.31202	1.60810	8.69330	7.87416	11.58279	10.00153	6.32198	2.92524
10780	8.83991	8.32995	7.88017	2.50163	1.95443	1.56625	16.51452	10.05847	7.14824	0.88666	0.73443	0.92030	8.10883	8.38356	11.73132	8.69676	5.24568	2.58057
10940	6.58756	8.76231	5.83046	2.36546	1.66863	1.45074	16.75569	11.40476	8.66378	2.71310	0.78445	0.71916	7.13463	7.48383	6.00078	12.08523	5.66100	3.19472
11110	7.64035	9.05786	6.90108	4.37666	3.20964	2.61922	14.51546	14.43145	8.98568	2.70744	1.50521	1.69225	7.66431	6.36290	9.36026	9.44741	6.43711	4.77288
11270	10.04795	9.76954	7.11267	3.22859	3.08939	2.89609	14.30095	12.49693	8.97124	0.80577	0.73500	1.36841	7.00153	6.88786	6.53813	9.30071	5.50885	3.90007
11440	7.14052	7.20389	5.63980	5.49133	3.47115	1.88080	14.76032	12.00167	12.28999	1.39424	2.22995	2.29655	5.70065	4.94890	5.97900	9.11308	6.20523	2.90658	30.57	6.0	0.00	7.48	0.01266	0.01287	0.01629	0.00778	0.00579	0.00635	0.00466	0.01263	0.01677	0.00675	0.00696	0.00876	0.01485	0.01091	0.01193	0.00216	0.00615	0.00864
11600	4.03526	5.37682	4.89071	2.52183	1.95279	1.63074	14.81068	11.99478	7.61567	0.69018	1.19143	1.71436	8.55598	6.77533	6.76030	9.37140	6.06982	3.26194
11760	3.75551	2.68958	4.34570	2.71181	2.64105	2.05732	14.63367	6.97220	6.09457	1.29396	1.09924	1.28815	6.11602	7.91121	8.33279	10.51748	5.96033	3.46648
11930	5.08859	5.18241	6.09231	4.23683	2.24321	3.57553	15.97006	16.25652	13.96775	4.11330	1.81831	2.71520	12.41365	10.94721	11.32867	9.46738	5.96305	3.57733
12090	9.77078	11.99583	10.85794	3.78519	4.54598	3.84522	16.27977	12.23567	11.54267	3.21833	1.24434	0.83422	7.88319	6.35379	5.31840	8.97816	5.30653	2.87670
12250	5.06618	2.60884	1.74891	2.40777	1.80838	2.15378	14.21548	12.13702	8.25020	0.78923	0.69183	0.65937	3.90167	6.39428	6.44399	9.23620	5.75069	2.74237
12420	6.55281	4.84017	3.79031	2.04667	2.15842	1.89508	15.93988	12.85860	11.24704	1.00873	0.86320	1.09870	10.04404	6.89376	6.96942	9.45605	5.64100	3.27559
12580	8.47140	6.09310	8.43167	3.25689	2.60041	1.87362	22.86660	19.23770	12.10973	1.56403	1.49130	1.60680	10.68859	10.19471	12.65321	8.86464	6.15433	3.18794
12740	6.37097	5.78421	6.52965	2.92590	2.32528	2.10514	18.65260	15.91058	11.06632	0.75084	1.08054	1.33900	10.88368	9.59922	6.55698	8.82630	5.68208	2.92367
12910	9.25499	9.62115	9.72194	2.40002	2.73863	2.33655	14.18578	15.99983	9.72796	1.31257	0.67499	0.65687	11.90191	10.36702	7.38281	8.80142	5.48027	2.66652
13070	7.63077	7.83229	7.39641	1.96349	1.81387	1.63749	18.99764	15.04525	7.77714	1.20267	0.93561	0.62273	10.97461	8.99963	6.97849	8.81703	5.20578	2.63529	30.57	6.0	0.00	7.62	0.01266	0.01287	0.01629	0.00778	0.00579	0.00635	0.00466	0.01263	0.01677	0.00675	0.00696	0.00877	0.01485	0.01091	0.01193	0.00216	0.00615	0.00864
13230	5.81525	5.44112	5.15657	2.02332	1.63508	1.34498	11.46689	11.94280	11.68553	1.14184	1.06112	1.09573	10.65101	8.50465	9.29331	9.35126	5.34604	2.73895
13400	8.31246	7.35720	5.89150	2.29890	1.92657	1.75838	14.61617	12.25896	5.56794	0.93791	1.14086	0.72987	4.82132	5.08963	1.93476	9.36334	5.42557	2.68277
13560	4.88552	4.86788	2.69523	2.16354	3.24699	1.46343	11.79114	9.64385	7.91724	2.22688	1.49360	1.01954	6.83496	6.20301	4.69884	10.19473	6.67750	2.74185
13720	4.26827	5.94096	8.19502	2.48083	1.95857	1.48202	17.68567	13.68892	8.82747	1.40820	1.61673	1.51219	6.96964	6.63279	8.32329	9.44347	6.15031	3.26437
13890	3.93954	2.89904	1.47534	2.51736	2.12059	1.67243	11.49242	8.95701	6.00490	1.72137	1.27936	1.57259	9.71131	6.58616	5.14423	9.34724	7.21017	3.53184
14050	6.37453	8.00010	6.93429	3.07331	2.44788	1.69733	10.54424	11.26195	6.14146	1.42503	1.55093	1.40137	10.15480	12.58753	8.95270	9.88237	5.67860	4.26534
14210	14.76798	11.15843	13.86595	3.76669	4.01195	5.15024	19.34999	13.08414	12.83043	2.11607	2.39915	2.84922	9.90803	10.94067	11.75973	11.63686	9.34559	5.24247
14370	7.88547	4.90009	5.58040	4.86140	2.83675	1.67611	14.23176	9.94536	7.01528	0.88517	1.26797	1.08220	5.40036	7.00192	6.34263	8.71465	5.38580	2.91045
14540	3.61327	5.79487	5.58069	2.19099	1.77931	1.56219	15.14391	9.78095	7.30833	1.14996	1.12178	1.11979	9.21914	8.86222	6.78670	8.84777	6.06941	4.92352
14700	5.39545	4.38156	6.57813	3.17866	5.11806	5.67111	13.06516	11.30963	9.30590	2.23845	2.01148	1.84735	10.14164	8.28017	7.88713	9.67591	6.89313	4.74431	30.51	6.1	0.00	7.53	0.01265	0.01287	0.01629	0.00778	0.00579	0.00635	0.00466	0.01262	0.01677	0.00675	0.00696	0.00877	0.01485	0.01091	0.01193	0.00216	0.00615	0.00864
14860	7.40910	7.57911	8.52995	2.78685	1.84278	1.46222	20.65615	12.49114	9.07736	0.93495	0.74710	0.64754	8.25045	8.29582	5.09935	8.87173	5.92475	2.86622
15030	5.95504	4.67444	5.02775	2.19053	3.11670	1.51948	12.32101	11.52353	6.95816	0.77938	0.65594	1.01662	4.70123	6.66344	7.67191	9.06188	6.30821	2.59369
15190	8.56577	7.11341	7.54301	2.57503	2.15593	1.93232	18.04947	14.10872	9.04219	1.00503	0.93830	0.93309	5.81184	4.24479	6.92262	8.84072	5.71543	3.06852
15360	4.15300	6.09858	4.69202	2.18009	2.27267	2.66516	15.65810	11.99625	8.62078	1.84078	1.29733	0.83810	7.53553	4.43058	5.30670	9.86650	6.57306	2.99681
15520	4.40349	5.32972	4.22207	2.00116	1.88940	1.30827	15.14390	9.58667	7.60675	0.59673	0.63988	0.62497	5.90548	8.74594	5.07396	8.96515	5.95702	2.77779
15680	6.91100	7.07590	5.17498	2.24848	2.14875	1.63086	14.69959	10.25642	5.66942	0.82027	1.29911	0.88643	6.62678	6.54747	8.22507	10.68961	5.78302	4.29361
15850	5.98793	6.72833	6.69614	2.86744	7.20010	5.06400	17.77130	15.74641	15.79951	2.10219	3.66280	5.50582	9.27405	11.19617	12.59304	15.22158	7.96029	4.37849
16010	9.53328	10.22570	9.77635	2.42921	2.58688	2.85274	17.83930	14.72329	9.21349	1.44338	1.40384	1.76751	10.32766	11.81698	14.32887	12.44929	7.22185	4.53377
16170	13.33532	11.37759	15.37296	3.75706	6.51184	5.55351	20.24560	16.85009	16.49671	1.32132	1.48137	1.98015	12.95805	10.45588	10.25971	10.45209	5.92225	3.57833
16340	8.32816	9.47048	8.73025	2.85307	2.49030	2.45123	15.51198	11.49632	5.01003	1.41099	1.32633	1.56188	8.44535	5.08865	6.11058	8.78404	6.42662	3.50981	30.57	6.2	0.00	7.50	0.01266	0.01287	0.01629	0.00778	0.00579	0.00635	0.00466	0.01262	0.01677	0.00676	0.00697	0.00877	0.01485	0.01091	0.01193	0.00216	0.00615	0.00864
16500	4.59215	5.05514	5.47482	2.93523	2.13727	1.58317	15.34732	11.96500	9.51282	0.84351	1.10148	0.88265	13.88408	11.92579	12.37913	9.53274	5.32833	2.70491
16660	9.13729	8.20884	8.04551	2.15285	1.88802	1.49413	16.84185	8.39605	5.17445	0.90338	0.92281	2.45752	4.92147	7.18372	6.36181	11.81075	5.67831	2.94584
16830	4.47627	8.43571	6.62660	5.48075	4.81239	4.80674	15.12080	11.04036	10.81032	1.55959	3.09318	2.94577	11.37735	11.14690	12.87998	9.63958	6.94202	3.74392
16990	10.46240	12.47237	11.67125	2.90960	2.31252	2.44403	21.46280	16.34159	10.91773	2.12498	1.42395	1.25307	6.90563	6.42679	6.20529	8.46222	5.83421	3.59443
17150	4.44646	5.30041	3.98259	2.01149	2.02378	2.37950	17.17490	14.39671	10.95514	0.86074	0.60562	1.15027	10.23782	9.20187	8.91857	9.10767	5.87246	3.00555
17320	9.35211	7.01548	7.42081	2.30965	1.87648	1.74986	15.04839	11.64767	9.12135	0.97194	1.22875	0.77774	4.53976	7.81066	5.89644	10.62476	7.48190	3.79476
17480	6.59770	5.69642	3.86942	3.07527	3.73385	2.85500	12.80719	7.74177	4.33140	1.06763	1.11808	1.32504	5.45992	3.94615	6.63809	9.31050	6.41221	4.51202
17640	5.08649	2.90548	2.58505	5.18143	2.50105	1.75848	14.03679	13.52134	11.90115	2.70317	1.11907	1.67350	12.60352	12.23663	16.21701	9.57983	5.79887	3.03624
17810	11.57440	9.86590	8.15110	2.28174	2.44322	2.54846	18.62573	18.68528	12.58882	1.50714	1.27301	1.48167	10.32726	10.86455	10.31675	9.16559	6.70601	3.13928
17970	9.75153	8.94635	5.98091	2.87826	2.18998	2.83552	15.55437	13.66358	9.59773	1.57088	1.70405	1.62632	9.47375	10.22392	12.50807	9.43591	5.86112	3.05389	30.57	6.1	0.00	7.85	0.01265	0.01287	0.01629	0.00778	0.00579	0.00635	0.00466	0.01262	0.01677	0.00675	0.00696	0.00876	0.01485	0.01091	0.01193	0.00216	0.00615	0.00864
18130	6.40929	6.23409	6.90305	2.28932	1.87567	2.18738	12.77854	9.22738	6.78803	1.31391	0.61575	0.49149	6.15936	7.71967	4.95797	8.96786	5.25915	2.92689
18300	4.30328	2.76959	4.61724	1.98699	1.54266	1.45365	13.80867	8.13714	7.85084	0.97877	0.84264	0.81518	4.06361	6.24469	8.20327	9.13008	5.66561	3.22612
18460	5.44228	3.74405	3.84223	3.56980	2.55010	4.99507	16.89783	14.62635	7.92574	2.40296	4.10165	2.25845	11.70857	13.24966	7.71687	12.00021	8.23793	5.09394
18620	9.52217	8.29290	5.83876	3.13197	2.71646	4.11322	18.10434	11.73751	13.01006	1.77581	3.76346	3.82570	9.45537	9.30571	9.63691	13.08633	8.87179	4.17264
18790	11.10570	8.63719	8.17987	3.02019	2.87877	2.52623	24.85689	12.88769	8.00163	4.68563	3.72021	2.33971	9.24524	7.91470	11.71906	11.94265	14.05062	12.31908
18950	6.99555	9.19841	5.58559	10.03431	9.36374	6.23419	21.70752	15.70945	15.95980	3.17693	5.04791	3.22521	13.46238	15.12198	13.65174	10.32251	7.17973	5.69855
19110	10.21987	10.27921	10.71583	5.13490	3.66178	2.56862	17.02498	12.87032	15.01467	2.27368	2.98332	7.64605	15.94965	13.51744	14.49012	10.88377	8.03825	4.86186
19280	12.27409	11.71974	11.18122	8.91355	5.97611	4.56078	13.11858	13.04670	9.44332	3.55238	3.88170	3.35992	10.57530	12.10046	11.30301	10.45910	11.70498	4.42034
19440	8.81251	8.36261	8.36875	3.36888	4.07451	2.53508	15.01503	15.33654	9.23855	1.89318	3.11956	3.10032	7.81508	8.39725	11.13662	9.40020	5.40087	3.32446
19600	8.14565	8.15789	7.81555	3.09803	2.32015	1.61094	18.11138	13.48036	11.37123	1.19429	1.28740	1.35496	9.77736	7.70099	6.73237	9.73642	6.31345	3.46873	30.57	6.1	0.00	7.51	0.01266	0.01287	0.01629	0.00778	0.00579	0.00635	0.00466	0.01262	0.01677	0.00675	0.00696	0.00876	0.01485	0.01091	0.01193	0.00216	0.00615	0.00864
19770	5.67822	9.35373	7.03212	2.57103	2.29507	2.05640	19.09751	16.61203	13.02948	1.53029	2.44316	1.50029	13.69857	19.36606	14.38789	10.60175	6.44911	5.71959
19930	16.66872	11.79604	12.09601	3.91654	3.35551	3.20856	21.62054	14.53165	12.73057	2.54608	2.63013	2.73805	11.02026	13.86473	13.40739	11.12622	7.01445	6.36131
20090	12.47530	11.53514	9.80937	4.81563	2.77481	2.27591	19.79256	15.46356	10.69257	2.68376	1.17152	0.71826	9.30430	6.20331	7.06780	8.78295	5.44425	3.06703
20260	8.95749	7.05456	6.78077	2.05301	1.76163	1.69923	17.21873	14.57262	9.24324	1.74180	1.41293	1.18828	11.17102	10.12010	7.68774	9.29781	5.85281	3.79146
20420	5.90145	7.87345	8.31682	2.73753	1.76752	1.66108	16.68259	10.03433	10.83421	1.31755	1.08010	0.71645	10.45026	8.28336	6.07061	8.75815	5.41637	3.18772
20580	8.19540	4.93631	4.97886	2.43611	1.94867	2.44739	15.02603	13.49479	7.06519	3.01769	0.82199	0.46003	7.83395	9.30243	6.70727	8.62713	6.29778	3.83806
20750	5.99418	6.30018	9.38746	3.03235	2.96642	1.86486	18.26794	12.51414	9.08077	1.30910	1.18008	0.96126	7.66533	6.59680	8.14478	9.11114	10.64176	4.02299
20910	7.04420	6.68757	5.89348	2.57160	3.94873	1.61315	16.01216	11.85217	5.43097	1.61297	1.86449	1.40808	5.79948	7.54483	8.17580	9.07730	5.61778	3.16141
21070	3.85666	3.76374	4.63245	2.60606	2.53019	1.52214	13.10462	10.07011	6.61301	0.95553	0.68074	0.84052	3.98962	5.05467	6.44859	8.72395	5.35873	2.69796
21240	2.69463	4.41248	3.28841	1.87266	2.04805	1.44040	12.82228	8.04889	7.48465	0.97757	1.50143	2.47764	4.76521	4.46852	8.62844	8.87372	5.40427	2.98613	30.63	6.1	0.00	7.51	0.01266	0.01287	0.01629	0.00778	0.00579	0.00635	0.00466	0.01262	0.01677	0.00675	0.00696	0.00876	0.01485	0.01091	0.01193	0.00216	0.00615	0.00864
21400	6.51988	6.76917	7.46919	2.92090	3.29079	3.38281	16.40638	11.00938	8.03715	1.32462	1.51065	1.06690	12.20995	9.74932	10.63343	8.80655	5.69556	4.08150
21560	11.85469	10.13059	11.32725	2.96815	3.47730	2.88293	18.44033	14.55361	13.48478	2.39091	1.91710	1.39252	10.26535	11.60320	11.06710	10.64784	7.80060	3.85131
21730	11.69215	15.98978	13.00024	7.29679	3.77500	3.92192	22.12083	16.46094	15.56894	3.47300	3.99476	3.99427	11.79597	11.52304	8.85292	10.02433	6.97190	5.15122
21890	13.10320	11.47504	8.13551	3.47046	3.45056	2.99329	18.23777	15.97620	12.97430	5.81471	2.87004	4.42615	11.81606	8.32261	9.30066	9.19910	7.03507	4.69744
22050	9.73372	8.84086	8.61259	3.59711	3.75849	1.33813	13.83975	12.71411	9.20322	0.79445	0.86164	0.77907	9.92576	8.24603	8.38861	8.71929	5.37525	2.97538
22220	9.12451	7.42200	7.21857	2.41551	1.82841	1.56412	16.95646	13.92901	10.89027	0.66155	0.81310	1.02104	9.44693	5.55873	5.19524	12.84369	6.32910	6.86362
22380	7.65282	7.46133	8.50609	2.69969	3.39430	3.06494	18.93329	16.27955	10.60856	2.77263	2.20883	2.04374	11.44974	10.90606	8.70497	12.80731	7.40682	3.23656
22540	8.07300	8.59877	8.81136	2.50312	3.13198	1.79407	15.49490	15.21494	8.40114	1.94146	1.34510	1.58808	6.55445	6.47400	8.70832	9.50449	5.81406	2.86042
22710	4.60927	6.86186	6.66390	2.72110	2.25726	1.81429	16.19813	12.40180	7.08309	0.78870	2.08819	0.70638	6.26746	7.75735	8.15790	8.67589	5.38389	3.00534
22870	5.36830	4.55995	5.10581	2.17292	2.23960	2.06815	13.76257	8.38573	7.36881	1.44656	0.83683	0.79660	8.42754	8.16547	7.40715	8.46008	5.35318	2.72782	30.51	6.1	0.00	7.62	0.01266	0.01287	0.01629	0.00777	0.00579	0.00635	0.00466	0.01262	0.01677	0.00675	0.00696	0.00876	0.01485	0.01091	0.01193	0.00216	0.00615	0.00864
23030	4.97223	5.09466	6.49341	2.05573	1.72220	1.40423	13.13913	8.71985	4.41184	1.03878	0.87650	0.57126	3.60847	4.09981	5.61837	8.91005	6.16987	3.37763
23190	3.49990	5.44098	6.02844	2.24699	1.99894	1.94136	12.84053	8.92371	4.35590	1.54397	2.66489	2.64629	5.23244	5.41558	3.18510	10.55178	5.84246	3.03955
23360	2.50875	2.62852	3.55115	4.25175	3.21162	3.15104	15.87197	11.00982	7.16444	0.93934	1.17120	1.37048	5.51493	6.51228	4.84031	8.73369	6.29749	4.03006
23520	5.46170	7.62069	5.67459	2.61054	2.06015	1.64123	17.25331	9.28531	10.44297	1.21583	0.82916	0.84662	9.48829	7.76922	8.89554	9.03589	5.67085	3.42744
23690	5.13373	5.33390	5.09956	5.01500	3.44591	1.81065	18.85486	12.22521	10.50067	2.69283	1.88566	1.86600	10.73517	8.76716	11.57564	9.48454	6.07706	3.56346
23850	11.77873	8.82526	9.76290	3.79133	2.41547	1.56107	17.43879	12.95173	11.15821	1.36055	1.85711	3.85074	8.75441	6.54451	5.69582	9.92548	7.55646	3.69135
24010	5.36818	3.44705	6.18327	5.19002	6.01752	10.62114	14.92531	16.08505	12.75091	3.07989	2.58780	4.68888	14.52402	13.25100	12.38522	11.83338	8.72557	9.12630
24180	9.65852	13.92749	15.98144	6.21554	5.69601	8.81020	16.64818	15.87549	11.65929	3.41945	4.57987	3.66848	11.77871	13.93527	10.34109	11.22203	9.16196	4.91677
24340	10.28473	11.26461	9.38985	3.19128	2.56310	2.54010	20.19019	11.33512	7.00945	4.82311	2.64194	3.18294	8.43148	8.89884	5.90421	10.42759	7.95137	4.80422
24500	7.70984	6.20277	5.01613	3.74657	2.87094	2.05027	14.47114	10.12881	9.81862	1.27831	1.05738	0.60200	9.02437	4.23543	6.02283	8.93268	5.55477	3.07321	30.57	6.0	0.00	7.51	0.01266	0.01287	0.01629	0.00778	0.00579	0.00635	0.00466	0.01262	0.01677	0.00675	0.00697	0.00877	0.01485	0.01091	0.01193	0.00216	0.00615	0.00864
24670	5.38495	9.37714	6.49767	2.43920	2.64823	2.08715	18.16523	15.19376	10.52189	1.58823	1.46390	2.64471	9.66155	7.43424	5.39046	9.31144	5.24737	2.69270
24830	6.44856	6.20133	6.57693	2.04585	1.88035	1.71738	15.83877	9.28662	5.85722	1.15317	1.13094	0.62478	3.73179	5.64734	5.98140	8.59909	5.31267	3.06393
24990	4.32083	3.06869	3.68896	2.62680	2.03760	1.49973	12.14109	9.92526	6.68338	1.03419	0.69107	0.55006	8.26015	8.92249	6.91777	8.68917	5.36330	2.77877
25160	5.82211	5.33059	6.71094	2.35894	2.31714	1.75981	15.92892	14.00303	11.82135	0.66776	0.79887	0.58309	9.86157	7.37933	6.96388	8.48982	5.73933	3.13594
25320	6.74022	7.63674	7.19171	2.18715	1.81418	1.24530	15.21667	10.97291	5.23638	0.63173	0.59245	0.60636	5.06493	4.15081	4.87341	8.66030	5.15813	2.64725
25480	3.51682	2.72291	5.81194	2.39367	1.52851	1.21752	13.98993	13.84327	8.97058	0.78653	0.91451	0.71898	4.62124	6.36346	4.26820	8.66621	5.15669	2.48416
25650	2.82374	4.87206	5.13026	1.89579	1.63883	1.34667	15.70802	9.44105	7.73421	0.92203	0.69719	0.72226	4.76016	5.87819	6.43305	8.85179	5.35771	2.82946
25810	5.08166	4.56871	6.74157	2.57955	2.22993	1.68678	15.95977	9.98781	9.72014	3.50929	1.77187	1.83977	12.12424	11.50821	10.46619	8.92302	6.99145	4.96905
25970	10.41505	8.67820	8.04461	3.71819	2.80796	2.13190	14.76233	13.26205	11.21592	2.23890	1.56448	1.07201	10.46707	8.42924	6.60362	9.39596	5.73713	2.93003
26140	6.02920	5.89723	4.37173	2.36980	2.11160	1.68929	15.07277	9.11104	10.23368	1.49238	1.12456	1.10643	7.93481	3.99097	8.27785	9.28606	6.12148	3.93129	30.57	6.0	0.00	7.47	0.01266	0.01287	0.01629	0.00778	0.00579	0.00635	0.00466	0.01262	0.01677	0.00675	0.00696	0.00876	0.01485	0.01091	0.01193	0.00216	0.00615	0.00864
26300	5.47328	5.89554	4.65074	2.97625	2.32011	1.60135	16.03026	10.52946	9.43915	2.39868	2.40093	2.12569	9.64717	9.90714	7.90187	8.90879	6.08348	4.37240
26460	9.35782	9.86681	8.90116	2.87343	4.96717	3.94342	17.33269	14.95604	10.12535	2.15348	1.98289	1.15943	6.49258	7.30992	4.80204	8.57253	5.55305	3.30373
26630	5.42301	4.52031	5.45787	2.66048	1.97638	1.71875	14.19063	13.31620	10.29605	1.12179	2.15834	1.86966	5.49575	8.54553	9.96056	10.61372	6.17874	3.17769
26790	9.38990	8.90881	9.14192	2.47034	2.21306	2.54534	20.83865	13.57124	8.68128	1.82009	1.30790	1.11264	7.54190	5.76754	4.01887	9.10673	5.81080	3.86886
26950	7.85184	7.94778	8.30010	3.28483	2.76305	2.68194	15.68787	12.02103	11.43323	1.30120	2.51077	1.94691	9.89422	9.34410	7.03936	10.66357	7.51143	3.83570
27120	5.23226	4.71063	5.87986	6.23190	2.34113	4.73458	16.10406	12.93181	11.49773	3.73631	5.01640	3.18725	11.42691	12.36192	11.41030	10.00539	6.62600	5.10015
27280	11.00236	9.92641	9.86846	2.79738	2.52743	2.25980	21.43068	15.36651	11.71768	1.59746	2.34972	1.15894	10.96054	8.62724	11.31330	9.17859	5.73889	3.20637
27440	9.20938	6.49503	4.33817	2.09815	1.62473	1.41637	16.58972	9.37343	3.39609	0.91947	0.98520	2.05547	8.77997	4.44367	7.73418	8.72676	5.55772	2.93697
27610	4.70433	5.64856	5.65034	2.25935	2.25057	1.67706	18.38530	12.27761	10.93232	1.58530	1.08163	1.90666	12.87851	11.39716	13.32839	9.19963	6.37789	4.12367
27770	8.74425	7.78040	5.99780	2.92768	3.03642	2.32009	16.55776	15.05967	9.29197	1.25669	2.01317	2.82868	8.14142	10.57478	8.16558	10.11273	6.92426	3.75040	30.57	6.1	0.00	7.55	0.01266	0.01287	0.01629	0.00778	0.00579	0.00635	0.00466	0.01262	0.01677	0.00675	0.00696	0.00877	0.01485	0.01091	0.01193	0.00216	0.00615	0.00864
27930	7.08791	7.79586	6.56579	3.23534	2.84395	2.54051	15.62444	8.94314	8.52974	2.83152	1.61401	1.42035	6.04953	5.14575	6.76645	10.55074	7.06037	3.91479
28100	5.78831	6.91994	2.87206	4.62479	3.07010	1.82149	15.36161	13.02285	12.16331	2.66108	1.69912	1.88866	10.93863	11.33752	11.21377	8.89444	6.57766	2.94240
28260	8.93151	10.03640	11.69855	2.43057	1.86974	1.49808	14.35005	11.05525	10.28871	1.05542	1.14091	0.92163	7.36699	5.74162	7.70890	9.22331	7.28681	3.58421
28420	3.20342	5.00585	7.41816	2.62913	3.07345	2.53168	17.58604	12.35280	13.60209	2.11910	2.17073	2.18554	9.76117	11.36094	10.09378	9.40646	5.74795	3.02836
28590	8.44676	7.55533	10.42779	2.83730	2.67718	3.79465	13.58131	10.49400	10.20311	2.10891	2.60009	2.33629	12.06151	13.39544	9.04118	10.15105	5.65832	3.79270
28750	5.79985	7.61343	6.49985	2.80372	2.89907	2.73245	19.04277	11.62461	11.50005	1.21910	2.24615	3.29692	9.41276	6.78449	8.45715	10.99455	6.24302	4.88063
28910	7.37156	5.77192	5.82386	2.98800	3.64525	2.35947	21.00322	14.19116	9.22455	2.46765	2.02517	1.20461	10.69853	10.91897	13.36569	10.19411	5.88138	2.93324
29080	10.89286	13.02753	10.50504	4.43796	2.89633	3.18274	21.55189	15.58349	13.20883	1.00266	1.23697	1.04161	12.05276	11.10737	9.08048	9.31734	6.13298	6.33605
29240	10.55700	8.95714	11.53944	3.25964	2.99717	2.49143	20.42702	13.40451	8.82332	1.53846	1.10622	0.82584	5.54870	6.23949	6.83339	8.65841	5.41462	2.84708
29400	5.95231	6.82345	6.54547	2.04540	1.58796	1.41893	11.19626	8.62597	9.47001	1.06919	1.13418	0.86693	5.04555	8.13873	8.22804	8.75876	5.45848	2.93950	30.57	6.3	0.00	7.46	0.01265	0.01287	0.01629	0.00778	0.00579	0.00635	0.00466	0.01262	0.01677	0.00676	0.00696	0.00877	0.01485	0.01091	0.01193	0.00216	0.00615	0.00864
29570	4.77482	6.21560	6.53366	2.47276	1.83655	1.56516	16.00702	12.41715	9.30103	1.41411	1.14421	1.06249	6.02675	4.38316	5.11962	8.65210	5.55339	2.91440
29730	5.88813	6.31521	5.37106	2.75463	3.02482	1.58001	15.52389	9.28038	9.26256	1.07641	1.27230	1.64877	5.71258	8.28041	6.86159	9.09162	5.49061	3.30882
29890	8.69177	8.69337	7.32787	2.74840	3.18803	2.09523	16.69725	13.98500	7.98831	1.11142	1.43527	0.77208	8.73407	7.88422	5.67732	8.71419	5.49165	3.03520
30060	5.05920	4.60178	6.18278	2.72574	1.92614	1.61484	14.52391	13.11576	8.20394	1.38677	1.49002	1.27829	11.29041	7.48439	7.28170	10.06059	6.40577	3.16263
30220	6.28434	3.20789	8.41167	3.56932	3.39481	1.53988	14.69187	13.00596	7.37503	1.14289	2.30942	2.40940	9.36706	8.05689	5.63636	10.57946	6.06400	3.35627
30380	5.42693	4.93399	4.00836	2.37095	2.24602	1.64763	15.35581	11.05150	7.01555	0.78826	1.33988	0.91384	5.48922	6.17186	6.43622	9.11754	5.89318	3.31985
30540	7.85253	9.16961	9.02975	2.67198	2.11126	1.61714	18.02514	12.83441	12.75596	1.03860	1.29915	1.94786	11.35262	11.35434	10.91334	8.73744	5.85686	3.75656
30710	8.32883	10.13129	7.68330	3.12127	3.18879	3.09196	15.86663	14.67966	12.44952	1.70863	1.58411	0.64381	11.15822	11.70436	7.70763	8.86922	5.68069	2.88054
30870	5.60847	5.64289	5.83308	2.74966	1.84347	1.50815	12.57773	7.49662	6.51823	1.02355	0.97844	1.22355	8.48103	9.81402	9.05056	8.62120	5.60068	2.97207
31040	4.87145	5.18046	2.62137	2.12591	1.76902	1.76812	11.08994	8.08592	4.98331	1.51114	2.09445	1.14395	3.63093	5.27946	5.51715	9.65246	6.55106	3.61836	30.63	6.0	0.00	7.52	0.01265	0.01287	0.01629	0.00778	0.00579	0.00635	0.00466	0.01262	0.01677	0.00675	0.00696	0.00877	0.01485	0.01091	0.01193	0.00216	0.00616	0.00864
31200	2.66345	6.17286	4.73459	2.12809	2.92052	1.92664	14.52046	9.80363	6.24856	0.96357	1.07965	1.11117	6.46639	5.52246	3.79154	9.14813	5.26340	3.34267
31360	5.55492	4.33175	3.97092	2.70022	2.36526	1.79678	14.11679	9.03069	6.16610	0.83976	1.03076	1.07266	7.55308	7.14419	6.78489	9.64831	6.01280	3.28909
31530	8.15911	7.99371	8.94183	3.85155	3.03829	2.03658	13.30735	11.02543	7.52286	1.93833	4.46311	2.52841	10.86509	7.18196	10.09159	10.61628	8.79814	7.20859
31690	12.16847	10.88084	8.94971	5.25178	7.17489	6.32658	14.86744	11.78783	14.67300	2.49720	1.92835	3.29310	10.08279	14.83492	13.90431	10.11505	6.90265	3.24723
31850	10.91698	12.31816	8.60756	3.93404	2.84105	2.32906	17.15528	11.72202	8.08990	0.80658	0.81566	1.07736	4.91174	5.39626	5.06939	8.62530	5.64877	3.45567
32020	4.56687	3.02438	3.24775	2.68338	2.01742	1.55452	15.00273	9.86025	6.59333	1.13324	0.97408	0.83855	5.28291	8.27538	5.64880	8.63958	5.75711	2.75438
32180	4.55419	2.27034	5.97361	2.07764	1.99609	1.48808	15.26972	11.88048	6.88639	1.07927	0.81498	1.00481	9.61463	7.44619	6.13780	8.66533	5.64460	3.05969
32340	3.99709	4.79233	4.69035	2.47996	2.13414	2.32099	13.14912	10.44326	7.87623	2.21470	1.54902	1.48601	9.58835	5.37533	6.42508	8.94511	6.71037	3.79209
32510	7.75228	4.54626	7.43033	2.87448	2.48194	2.13109	15.53815	11.23633	10.55336	2.23825	1.44076	1.77426	9.18615	8.34323	9.98543	9.51693	7.33643	4.15880
32670	12.34164	7.54666	8.85083	3.99164	3.71081	4.52884	20.92275	17.67793	13.56031	4.52113	7.82408	4.37554	13.34781	13.97684	13.34560	13.86885	10.00187	4.34322	30.57	6.2	0.00	7.57	0.01265	0.01287	0.01629	0.00778	0.00579	0.00635	0.00466	0.01262	0.01677	0.00675	0.00696	0.00877	0.01485	0.01091	0.01193	0.00216	0.00616	0.00864
32830	9.94424	9.27348	9.86107	5.34479	2.72249	2.13106	13.50078	16.14684	10.30291	0.95127	1.08792	1.17971	9.77947	12.14133	9.94784	9.04763	5.41313	3.19946
33000	4.62243	2.95456	3.86057	2.34883	1.84210	1.72391	10.69127	8.94833	6.30125	1.11648	0.59878	0.82788	7.09915	4.36386	8.47049	9.31342	5.22970	2.93649
33160	6.66669	4.93200	6.25640	2.86717	2.33931	1.88024	17.87543	10.54121	6.61044	1.48303	2.76273	1.46944	11.81851	8.80388	10.80552	9.60541	6.74806	5.74803
33320	11.37980	9.68562	12.21777	3.23834	3.31586	2.44470	19.83589	15.23192	15.42073	3.62194	1.18797	0.91511	16.25937	11.06325	11.87549	9.15594	6.07032	3.95665
33490	10.69550	11.52175	12.36986	2.82482	3.41391	3.90338	19.31708	15.08327	13.44892	2.13061	2.30351	2.75670	11.23975	7.11016	8.05773	10.12375	5.92030	6.08287
33650	3.69091	4.09000	6.27971	2.55416	2.14962	1.31739	14.41491	9.57810	6.13542	1.40708	1.32605	0.56417	5.73674	4.09308	4.36344	9.40162	5.94458	3.15306
33810	2.56875	2.12364	4.95504	2.12767	1.68249	2.11469	12.98429	9.36838	6.26217	1.42193	1.13428	1.06523	5.59554	5.88570	4.89187	8.79316	6.02850	3.35042
33980	6.09756	5.51200	4.58270	2.41929	2.10193	2.36847	19.38034	12.67540	10.98613	0.84329	1.45449	1.35169	9.94055	6.34657	6.83514	8.95107	5.27711	3.22907
34140	6.97474	4.01283	5.28343	2.40980	2.04106	1.84189	12.28297	7.40159	8.78959	1.09028	0.79207	0.80025	7.15338	5.81872	5.62737	9.06577	5.35156	2.58193
34300	6.56704	6.55649	4.42995	2.23481	1.77859	1.25456	14.29943	11.31440	10.45293	0.88462	0.80227	0.90035	6.25102	5.89263	8.06898	8.72474	5.24718	2.88066	30.63	6.1	0.00	7.45	0.01265	0.01287	0.01629	0.00778	0.00579	0.00635	0.00466	0.01262	0.01677	0.00675	0.00696	0.00877	0.01485	0.01091	0.01193	0.00216	0.00616	0.00864
34470	6.61718	4.62958	5.31895	1.98224	1.67660	1.36826	13.91548	10.15950	5.73727	0.95781	1.07146	1.93248	3.45223	3.69301	5.42499	9.85001	7.06586	4.06449
34630	6.02477	5.05791	6.71160	5.64481	3.67878	3.59227	14.91241	11.04305	7.78556	2.91584	1.16279	1.68053	5.07656	2.67704	2.13440	8.55669	6.04703	3.54344
34800	2.53300	2.42613	1.59755	2.20279	2.10213	1.65639	11.65717	7.66571	6.04791	0.79308	1.83147	0.89577	6.98286	6.77077	5.03102	9.06572	5.82054	4.01579
34960	6.28903	3.88495	6.05074	3.46551	4.14478	2.88248	12.52854	8.30498	7.42604	1.99910	2.57261	2.34537	6.38151	8.26114	9.54658	11.00317	9.00742	6.08558
35120	10.03116	10.72457	8.85332	3.94010	2.63550	3.04887	13.51874	9.36770	7.53665	1.98151	2.05638	2.13731	8.80760	9.48945	6.60489	9.07708	6.26952	2.72587
35290	4.87852	4.65010	8.53144	2.19633	1.89034	1.61544	12.20544	14.20661	7.48691	0.78864	1.00969	1.53056	6.96742	9.16988	8.36343	9.18321	5.31871	2.89154
35450	8.67879	9.44989	7.61662	3.06903	2.32371	1.44400	17.50864	13.34752	10.69295	1.46357	1.33436	0.61421	9.33878	10.85740	7.09987	9.49200	6.18828	3.09832
35610	8.44682	6.50455	6.02248	2.23208	1.84878	1.66111	11.98646	6.97611	6.39479	1.01597	1.28992	0.93651	7.02479	5.71222	6.31765	10.35710	6.15644	3.35956
35780	5.47038	8.55026	6.52495	2.98988	3.93868	2.89924	16.29869	15.29187	15.43792	2.85514	2.37374	1.33139	7.51459	10.50503	13.12696	10.69593	7.09825	4.80564
35940	11.93394	4.92301	4.93518	4.51523	6.88742	6.24481	18.34221	15.61876	13.52196	5.76452	3.88371	1.56036	13.02440	11.90024	8.97751	10.60520	7.01474	3.83666	30.63	6.1	0.00	7.46	0.01265	0.01287	0.01629	0.00778	0.00579	0.00636	0.00466	0.01262	0.01677	0.00675	0.00696	0.00877	0.01485	0.01091	0.01193	0.00217	0.00616	0.00864
36100	6.88478	9.91996	11.07137	3.56045	2.66770	3.19931	20.21170	11.63699	8.18017	1.30516	0.57266	0.62958	7.11475	7.62293	6.05327	9.20768	5.87868	2.89801
36270	7.50188	6.94765	4.74215	2.34300	1.83915	2.44593	14.28386	8.80144	8.35071	1.30715	1.72844	1.67341	7.49344	4.23237	6.62586	8.99025	5.45208	4.51509
36430	5.03088	4.91645	5.84817	2.65416	2.79332	2.22679	13.63467	9.66076	10.32250	1.69903	1.38868	0.84760	11.36577	7.73542	7.55127	9.00955	6.13383	4.18360
36590	4.22584	6.19285	5.21826	3.17764	2.34829	2.14224	17.82042	11.16692	12.16030	3.37804	1.56773	0.85171	12.31084	10.47372	6.50333	8.63162	5.17506	7.15374
36760	7.75648	6.22222	4.16159	2.53996	1.98427	1.61434	17.15105	12.53495	10.61881	2.20233	3.28575	2.77496	8.88046	9.58801	10.13263	8.66281	5.77937	3.16366
36920	5.92932	4.10756	6.82428	2.08756	2.00693	1.52794	13.53924	11.11741	7.81985	1.08152	0.68436	0.63186	7.18878	7.09087	5.58441	9.43795	6.43833	3.05935
37080	7.50117	5.61407	3.11655	2.26584	2.83324	2.01674	12.63273	10.54094	5.58345	0.70574	1.23779	1.46174	10.51672	7.65338	5.42061	10.82304	10.78287	4.58383
37250	9.76322	9.16630	6.10881	3.01166	4.53539	5.79201	13.98199	12.22164	7.81767	1.81169	1.36907	2.62466	5.66315	3.61118	4.43739	9.13134	5.52216	2.99352
37410	5.13188	4.10663	3.48896	3.01528	2.42281	3.05836	13.10203	8.88075	6.64109	2.15009	2.82198	2.74847	6.87886	6.88434	8.17463	8.87644	6.99284	4.46433
37580	4.53740	6.61341	5.69468	4.06935	2.84068	1.86174	12.60373	11.89090	5.15348	1.80083	1.18729	1.19698	6.16615	7.68269	7.39510	13.04817	8.81205	5.27026	30.57	6.2	0.00	7.52	0.01265	0.01287	0.01629	0.00778	0.00580	0.00636	0.00466	0.01262	0.01677	0.00675	0.00696	0.00876	0.01485	0.01091	0.01193	0.00217	0.00615	0.00864
37740	12.56960	14.35399	13.60618	4.59400	5.31074	5.10142	20.95032	16.34157	14.82322	3.87071	6.04676	4.25038	14.40461	11.83012	13.33219	12.92268	9.37504	5.27896
37900	14.16650	14.50007	13.92299	2.85520	2.72329	2.76332	21.82065	14.36271	15.43305	3.18615	3.74999	3.12990	10.60840	7.30697	7.03341	17.45559	11.47605	4.09433
38070	10.90464	11.03567	8.30448	12.32329	4.46500	9.88894	20.96210	14.85868	13.10923	6.44471	5.38056	5.56818	15.89730	12.30689	9.41959	13.76765	7.48524	6.27193
38230	11.93119	8.88929	8.94272	3.22247	2.39327	2.14095	20.78164	12.40635	8.69035	0.99545	1.06983	1.00252	8.48582	9.41411	9.98964	9.58907	5.65688	2.66636
38390	5.60382	6.60643	6.54516	2.38070	1.98480	1.32979	16.35009	15.50897	10.95234	1.31912	0.79916	0.52439	7.91680	8.37506	6.72863	8.62509	5.35429	3.01851
38560	6.14678	5.19638	6.81226	2.13462	2.03239	1.86683	14.75820	10.63167	6.81877	0.80983	1.13827	1.08427	7.79788	7.20255	4.73342	9.42782	6.07283	2.95732
38720	8.49849	5.13132	3.37771	3.57810	2.15549	1.84307	17.03894	14.15271	9.35219	2.64900	4.16804	4.52883	7.06747	9.39991	9.19589	10.74359	7.76875	4.57985
38880	10.95190	12.63564	8.94127	4.65316	3.97457	2.67120	16.91981	14.38241	13.05539	1.18061	1.37468	1.22717	12.53738	11.13359	7.84767	10.50866	5.74678	2.94591
39050	8.74345	10.22238	6.68774	2.04414	2.52244	2.51623	18.08987	12.64323	7.53862	1.12759	1.37103	1.00628	10.64000	9.23102	9.32620	9.70424	6.33496	3.83716
39210	8.89826	8.60621	11.10908	2.64302	4.36942	2.85374	16.30529	16.39451	14.67474	2.58523	1.39824	2.23165	8.95190	10.61885	9.54860	9.60508	7.21167	4.61904	30.57	6.0	0.00	7.58	0.01265	0.01287	0.01629	0.00779	0.00580	0.00636	0.00466	0.01263	0.01677	0.00675	0.00696	0.00877	0.01485	0.01091	0.01193	0.00217	0.00616	0.00864
39370	8.00750	5.14714	9.55047	3.24323	2.09638	1.72096	14.13156	15.58226	12.71135	1.98607	1.11596	1.38892	12.45203	10.85892	9.41988	9.23434	5.87174	3.39587
39540	7.96188	7.87726	7.71520	3.09296	2.18157	2.73133	16.08754	11.85669	8.50591	2.30937	2.13172	2.04486	8.96853	8.87032	6.53870	9.68703	6.20796	3.37984
39700	7.27337	8.66967	7.40292	2.70789	2.78111	1.96866	19.64594	10.43805	9.93747	1.22093	1.06715	1.30034	9.51838	9.91246	7.83840	9.25579	5.67426	3.57035
39860	7.05296	9.38727	8.78348	2.56184	2.00833	1.81905	19.44551	14.93631	10.17602	0.66290	0.62209	0.53379	9.41263	10.62963	9.97006	8.86064	6.18635	2.83517
40030	9.81808	4.68037	4.77193	3.19724	2.73871	1.96210	13.92880	12.33657	5.24730	1.22812	1.53677	2.09058	7.16146	9.58710	7.78146	11.52866	6.22775	4.92038
40190	6.96535	8.55686	6.29410	2.19986	2.23687	3.19104	14.39579	11.78897	8.98337	2.09694	1.37438	1.52783	10.46881	7.43633	6.21854	10.90742	6.89313	4.62902
40350	5.32773	4.90464	6.31554	2.68931	2.32263	1.55220	14.91925	12.51852	10.23433	4.35412	3.48837	2.13472	6.84745	6.89304	7.39174	10.06215	8.55091	4.92822
40520	5.66108	8.28300	7.84679	3.02103	2.37183	2.16469	19.91565	15.17456	8.32812	1.07166	2.05564	1.17652	15.00100	9.89464	10.07618	11.02010	6.16023	4.16501
40680	10.15313	5.56661	8.04695	4.55042	3.77428	2.37290	17.49690	16.36693	12.43549	2.02728	1.85271	1.87354	11.61025	8.77061	7.89820	8.75840	5.81589	2.89785
40840	8.45185	5.65957	4.52354	2.55432	1.93065	1.62155	17.30815	10.20856	7.35519	1.46159	1.03178	1.60774	7.29249	6.78496	5.69869	9.24680	5.73788	2.98239	30.57	6.3	0.00	7.57	0.01265	0.01287	0.01629	0.00778	0.00580	0.00636	0.00466	0.01262	0.01677	0.00675	0.00696	0.00877	0.01485	0.01091	0.01193	0.00216	0.00615	0.00864
41010	7.48060	8.15595	4.02593	2.78106	2.46907	1.60968	13.33657	10.04552	10.20295	1.61771	1.44119	1.52520	8.98059	8.72036	8.14768	8.84318	6.07327	3.79160
41170	9.07723	8.72535	5.31095	4.85021	5.10722	3.42430	13.10546	11.27467	8.87819	1.57393	1.65851	0.99948	7.39178	11.39752	8.64712	9.25561	5.88367	3.61618
41330	12.90247	12.97145	12.30906	2.34116	2.14957	2.13242	20.97152	15.12350	12.31689	0.74999	1.36948	1.77059	10.49720	9.77259	10.36375	8.86049	5.49626	3.08758
41500	12.37777	10.41679	8.06732	2.48095	1.92169	1.56572	22.04219	16.99723	12.65727	0.95151	2.29295	0.86848	12.07443	9.18817	9.85400	8.88952	5.51995	2.96491
41660	4.74695	6.25613	5.44101	2.27589	1.74080	2.63414	13.45204	10.50963	7.77291	1.20409	0.82801	0.96484	3.73896	5.21533	5.11320	8.90718	5.38114	2.65452
41820	2.50556	2.48679	1.51859	2.15545	2.07537	1.39251	13.93050	9.43208	4.89562	0.97914	0.94125	0.80364	3.96039	6.34895	4.52271	8.46968	5.30957	3.21451
41990	6.02327	4.90515	4.83813	2.07455	2.14649	1.66564	12.04821	9.59318	8.58032	0.89560	0.60788	0.85970	5.08512	5.12734	3.56469	8.55711	5.27297	2.75456
42150	3.24672	3.48996	1.46368	2.22295	1.90480	1.39635	10.70822	6.94935	3.90048	1.31609	1.61635	0.83111	6.54640	6.16704	6.72380	9.42508	5.83250	3.42572
42310	4.68493	8.91749	7.48591	2.60496	2.05222	1.65936	18.35109	16.75989	13.58298	1.24506	1.22173	1.06083	13.56487	12.44741	8.18136	8.97896	5.91826	3.37391
42480	9.19419	8.34505	5.81432	2.48829	1.82973	1.48596	20.82859	15.94386	10.19469	1.16969	0.65279	0.53071	8.63345	6.92399	6.44196	8.88566	5.41156	2.75010	30.57	6.3	0.00	7.55	0.01265	0.01287	0.01629	0.00778	0.00579	0.00636	0.00466	0.01262	0.01677	0.00675	0.00696	0.00877	0.01485	0.01091	0.01193	0.00216	0.00615	0.00864
42640	7.57910	3.18065	3.19583	2.39727	2.46431	2.54474	14.82681	11.73257	7.00324	0.85868	1.31426	2.12925	4.30989	4.35385	3.52835	10.32109	6.33767	5.19401
42800	3.98499	3.10835	4.82105	6.79844	4.96930	3.89557	15.45693	9.59300	8.96211	1.72341	2.06644	0.89096	8.16855	8.61728	6.01437	9.07487	5.50051	3.70805
42970	5.28410	6.88420	5.76210	2.89071	2.64275	2.49319	13.48501	12.96458	7.85097	1.11671	0.91983	1.06564	7.58011	7.60377	7.21734	9.30265	5.93711	2.69434
43130	5.10107	7.26924	4.59696	2.66053	1.99641	1.52902	16.92317	11.06848	10.89124	1.54693	1.12401	1.18104	10.34092	12.86229	7.51742	9.54160	5.81589	3.44915
43290	11.11632	9.46628	10.53240	2.30364	2.07819	2.16670	17.73889	16.93029	11.16372	1.40520	1.86866	1.07232	13.38854	13.27677	10.55851	9.31123	6.86814	3.41002
43460	7.88155	8.89241	10.63027	3.39214	2.67266	2.12661	22.01677	18.11506	12.61575	2.34885	2.52277	1.10688	12.56143	9.57690	6.80661	12.82961	8.59392	3.97007
43620	7.74308	7.36512	7.01122	3.99977	2.32473	1.91390	13.49725	11.69210	12.03413	1.73904	1.67311	2.56637	11.53811	11.09856	9.76820	9.03999	5.51562	2.94192
43780	7.76751	8.32814	10.54680	2.40487	2.45687	1.76137	15.38391	13.81786	8.96249	1.75518	1.89436	1.57479	7.93159	9.33661	6.04298	8.80670	6.60411	3.29141
43950	9.76541	9.85221	10.66328	4.03250	2.91450	2.53676	17.77761	12.76629	10.18586	3.00334	2.69419	2.43345	11.90114	8.80180	8.30663	10.27970	6.43460	3.62825
44110	9.74171	8.62542	9.63595	3.63655	2.63763	2.15049	18.87332	13.87869	9.04380	2.48679	2.33258	1.93080	4.63105	3.68691	7.32194	10.96568	7.67916	4.89957	30.57	6.2	0.00	7.61	0.01265	0.01287	0.01629	0.00778	0.00579	0.00635	0.00466	0.01262	0.01677	0.00675	0.00696	0.00877	0.01485	0.01091	0.01193	0.00216	0.00615	0.00864
44270	8.42016	7.13423	6.73071	3.83912	3.46664	3.20333	18.68749	13.33857	7.97357	3.02274	3.38716	2.18339	10.64267	10.98179	8.72417	10.04628	6.18260	3.65500
44440	9.40586	6.41094	6.73955	3.26254	3.30188	1.87533	17.74794	16.25379	11.31575	0.67056	0.98671	1.46163	7.85063	5.54791	5.30439	8.93028	5.39388	3.04523
44600	8.88951	8.50474	5.05971	2.33907	3.00718	1.92871	14.23167	10.07450	7.91615	0.99762	1.18142	1.62140	6.03232	5.34261	5.66369	11.00474	6.89681	4.14074
44760	6.04092	4.74853	4.91236	3.20868	1.82563	2.32266	15.56676	11.56562	7.71949	4.56237	5.23501	1.37492	9.10426	5.63200	4.63765	12.02398	6.32277	3.31157
44930	7.93215	4.54509	3.81982	2.90906	2.56089	2.03053	23.14071	14.58481	9.46512	2.37425	3.35389	1.48403	10.28327	9.22594	11.19294	9.73575	6.44738	3.95662
45090	6.15020	6.87236	7.17315	3.24402	2.52305	3.28577	14.47551	14.32562	8.05344	1.85619	1.70783	1.10234	7.00284	8.36862	7.31229	10.58108	5.42708	3.35517
45250	4.33450	3.99871	2.51521	2.58201	2.28786	2.78936	15.02407	10.95660	6.91984	1.83007	2.20593	1.89138	8.45692	5.80273	4.75744	11.05395	6.11062	4.09268
45420	2.45800	6.52484	5.85064	3.84274	2.83444	1.82240	13.61295	13.64355	10.99154	0.98585	0.73447	1.79188	12.24088	13.15854	11.74841	10.96185	8.22413	4.21330
45580	11.17490	12.49028	11.96532	2.97349	3.00826	2.74943	17.59254	14.53288	11.91060	1.15517	1.76007	3.32739	10.12801	13.90223	9.98779	10.26163	7.38463	4.05988
45740	8.51181	9.41281	9.53462	6.53222	9.13965	8.79677	14.90163	11.39771	13.70343	4.41158	3.83767	3.37185	9.56304	7.53213	8.56954	10.86586	7.74956	4.69825	30.57	6.0	0.00	7.53	0.01265	0.01287	0.01629	0.00778	0.00579	0.00635	0.00467	0.01263	0.01677	0.00675	0.00696	0.00876	0.01485	0.01091	0.01193	0.00217	0.00615	0.00864
45910	9.33679	8.38439	4.90391	2.94945	2.38806	3.17886	13.37825	8.38657	3.68512	1.21575	1.10089	1.25232	5.82982	5.52202	3.46655	10.37697	7.25548	3.82866
46070	4.61547	7.76164	5.73742	2.57591	3.55653	4.48876	21.55451	16.14482	13.13761	4.19074	3.08276	5.93182	12.90545	14.19498	10.86275	13.78205	10.80139	5.98499
46230	13.83859	10.11156	11.39601	4.32923	7.49545	4.36961	20.79114	17.40827	13.73622	3.56996	3.55563	4.20741	11.95926	13.34641	10.92467	13.45393	7.79258	3.74537
46400	7.99674	8.79037	9.17869	4.78873	3.47181	3.09333	17.72593	12.39205	11.43938	1.89922	1.85279	1.27999	4.50316	7.41904	7.70245	9.15415	6.05046	2.98875
46560	7.11155	4.63741	6.48626	2.26133	2.16928	2.61500	17.53526	10.63304	8.80116	0.89823	1.30318	1.05676	10.41556	9.18816	8.17334	9.20926	6.29545	4.23503
46720	6.99922	9.22209	5.63454	3.39980	3.27987	2.90656	16.29432	9.99077	9.20287	3.14219	2.67048	1.23511	7.71924	9.63655	9.13603	8.82337	6.66116	3.43269
46890	6.95990	6.84708	7.97085	2.45859	2.69163	2.16348	15.97726	10.24162	5.31268	1.17121	1.14430	1.26029	3.86649	4.65926	2.80651	9.55992	9.34527	4.90463
47050	4.63354	8.27747	9.18605	3.11626	2.42450	3.86849	16.58680	11.43410	11.54726	3.40013	2.14170	2.47287	7.72860	8.22130	8.26929	11.72994	6.63874	3.58008
47210	6.71662	9.69315	7.28768	2.58343	1.66587	1.41857	18.27761	14.02250	9.04891	0.85345	0.95185	1.24725	6.32607	5.18436	3.82749	8.92396	5.28743	2.54162
47380	2.17426	4.36905	4.26812	2.38831	2.57228	1.79536	15.37143	9.54051	8.87460	1.27553	2.07213	1.44319	11.89372	9.88377	6.98121	9.22243	7.67668	4.53035	30.57	6.0	0.00	7.52	0.01265	0.01287	0.01629	0.00778	0.00579	0.00635	0.00466	0.01263	0.01677	0.00675	0.00695	0.00876	0.01485	0.01091	0.01193	0.00217	0.00615	0.00864
47540	8.68945	7.57188	8.44867	2.36089	2.16106	4.27379	17.05364	13.12791	9.44212	2.56661	2.48645	1.88167	14.72310	8.87646	9.99563	8.79508	5.50557	3.45592
47700	8.86142	12.13303	6.58262	2.37953	1.72826	1.63941	15.66013	14.59341	10.84103	2.18749	2.01632	1.65164	9.20347	8.09339	8.05859	9.48627	6.60852	4.00411
47870	7.72446	9.07661	9.60134	5.71840	6.81333	3.48950	16.88333	14.49054	10.35725	5.10574	4.26291	4.12689	11.87117	11.78430	8.04742	12.31778	9.45843	9.09406
48030	10.96891	10.26917	12.09478	3.22248	2.22432	2.86295	20.30401	14.55983	11.59837	1.78953	1.80812	1.64596	9.25281	6.49853	7.68540	9.34091	6.27283	2.95708
48190	6.38277	7.93755	6.66431	2.40406	2.10730	2.40673	18.10651	11.50155	7.97505	5.29942	1.91080	0.90946	7.38491	5.99381	6.77822	10.71766	8.81618	4.21231
48360	6.59237	7.46829	5.98599	2.52286	3.54754	2.28267	17.21905	13.07611	8.51426	3.53689	4.31575	4.53171	12.06155	7.10949	8.00310	12.16882	6.51353	3.68496
48520	6.26364	7.37288	8.36213	3.78698	3.63284	2.96790	13.84205	9.29891	7.78271	1.11989	1.00212	1.44546	8.26967	7.39933	8.10170	8.74588	5.36113	2.82024
48680	4.96265	6.23603	4.07544	3.85648	2.89703	2.47619	15.31734	11.62057	10.15403	2.41100	2.71937	1.70583	6.17553	10.86713	9.81869	9.21016	6.29490	5.36646
48850	4.67508	8.42774	12.49278	3.21279	2.97036	1.97946	15.05035	16.66036	12.49928	2.15508	1.79141	1.58328	11.67853	11.95947	9.81166	11.33844	8.58056	5.26189
49010	10.51569	6.59290	7.44355	4.12203	3.42072	3.85039	16.36471	14.14399	11.40175	3.02752	2.19771	2.04995	12.75390	12.31535	12.32272	9.50827	8.77248	5.93686	30.57	6.1	0.00	7.50	0.01265	0.01287	0.01629	0.00778	0.00579	0.00636	0.00466	0.01263	0.01677	0.00675	0.00696	0.00876	0.01485	0.01091	0.01193	0.00217	0.00615	0.00864
49170	11.48202	8.22422	10.14612	3.59119	3.27544	3.16983	18.54513	15.15007	11.70379	3.11623	1.94916	3.12214	8.51036	8.98292	9.02343	10.46609	6.92563	3.40861
49340	6.34360	6.47255	5.22808	3.72583	2.36761	3.14960	15.56639	13.33433	11.27831	0.90245	1.40226	1.00068	8.74230	6.81795	3.62803	10.25110	6.16370	3.35566
49500	2.97694	4.09433	1.76055	2.87721	2.80811	2.18338	11.04274	7.54403	6.95355	1.02579	0.82564	0.84175	9.21285	7.35691	6.12714	8.91205	5.36495	2.82880
49660	9.04460	8.15948	8.40990	1.98577	1.66627	1.18951	13.36118	10.11913	4.86352	0.54686	0.65701	0.54402	6.24074	8.26153	3.83345	8.64840	5.19399	2.58196
49830	4.33297	7.97020	3.73542	1.96814	1.64751	2.26511	14.49700	9.12303	7.61914	0.67242	0.99660	1.23516	7.34613	7.48557	8.04541	8.89485	5.70876	3.29388
49990	9.91197	10.27385	10.28025	3.25668	2.20346	1.72863	21.21237	14.51029	9.79188	1.28427	0.93134	1.03061	5.23020	7.35303	6.68385	9.32102	5.71180	2.72450
50160	5.36241	5.86967	7.24512	2.44660	2.06144	1.66614	16.52926	14.76130	9.65038	1.02155	1.05170	1.14916	8.59397	11.12390	6.87321	9.58544	5.85124	2.81637
50320	9.39373	9.39859	11.68727	2.19449	1.81066	1.46116	19.84341	14.24127	12.35981	0.98263	1.13331	1.52950	8.68484	10.80866	9.78214	9.73670	5.85620	3.30752
50480	8.43230	6.32982	10.65653	3.51368	2.44294	2.55678	18.56028	13.48985	8.65485	3.28966	2.67660	2.40718	7.69485	11.35709	13.49314	17.81189	11.58767	8.87672
50650	10.25078	5.37397	5.21197	5.53397	6.02937	3.51477	17.48586	13.19940	8.98412	1.71569	1.65099	1.59769	4.48085	4.94316	7.48841	8.88958	5.50316	2.82073	30.57	6.1	0.00	7.52	0.01265	0.01287	0.01629	0.00778	0.00579	0.00636	0.00466	0.01262	0.01677	0.00675	0.00696	0.00877	0.01485	0.01091	0.01193	0.00217	0.00616	0.00864
50810	7.66189	9.04143	5.42279	2.06720	2.22181	1.57284	11.27079	8.94801	8.16953	0.74748	0.99399	0.78189	4.50510	6.31063	7.64957	9.06889	5.50325	2.82692
50970	7.86388	4.53088	6.64505	2.28893	1.99591	1.87605	14.71116	9.53665	7.85400	1.28115	1.78109	1.43071	6.68111	7.42083	5.86390	9.02143	5.94260	3.59518
51140	5.65801	3.98557	4.17849	3.48631	2.76813	1.97342	11.93644	10.40633	8.50665	3.43455	3.05918	2.56894	6.79910	10.17221	10.01558	10.06444	6.60028	8.92919
51300	9.89158	8.25041	8.19327	3.88174	3.00272	3.44357	17.52494	11.75973	16.07330	2.18933	2.19253	2.05244	9.91748	11.96680	10.64585	10.54064	6.47292	4.63730
51460	7.58543	8.49385	13.26669	2.87402	2.43143	2.48935	18.05297	17.02733	15.03423	4.02767	3.43798	2.32966	12.52715	12.21533	10.64351	9.96983	6.59396	4.53491
51630	9.26919	8.09888	9.50147	2.72725	3.44351	2.97148	16.51840	13.02097	13.95741	1.83148	1.58562	1.98707	13.99871	9.53150	8.75882	9.60744	7.10979	6.00773
51790	11.86253	9.25567	9.82451	5.72446	2.83545	2.52444	21.26054	15.35015	11.52785	3.67107	1.13370	1.39533	12.61264	14.40085	10.81646	10.01396	6.44781	4.69078
51950	8.75573	7.45466	5.19878	3.05334	2.67001	2.45707	17.29804	10.28688	5.34158	2.85746	0.93002	1.00949	6.12943	7.45596	6.83117	8.97483	5.63552	3.15940
52120	7.72571	8.32111	8.88949	1.99719	1.76696	1.44772	22.10769	17.44574	12.95740	1.02100	1.06513	0.96757	8.14355	9.22498	7.42005	8.99999	5.65241	3.81048
52280	8.14839	8.22927	3.78379	2.33770	2.16075	1.87370	16.08487	10.95256	9.02399	1.05948	0.77055	1.13973	6.34265	7.56543	3.79541	9.27578	5.85994	2.72655	30.51	6.1	0.00	7.55	0.01265	0.01287	0.01629	0.00778	0.00579	0.00636	0.00466	0.01262	0.01677	0.00675	0.00696	0.00877	0.01485	0.01091	0.01192	0.00216	0.00616	0.00864
52440	5.99057	3.89721	5.95997	3.30392	3.40972	2.92076	12.06988	9.47891	9.17890	1.06047	1.44154	1.19496	5.73316	5.97921	8.22537	10.51178	5.84101	3.55790
52610	5.87490	5.28792	6.75691	2.28535	1.94759	1.92997	15.10446	11.23355	10.95956	2.03154	1.66696	1.19361	8.44993	6.06602	6.00982	10.06992	7.15075	4.48940
52770	4.67732	7.31978	6.05806	2.84207	3.28906	3.63600	16.57706	13.75737	12.04783	1.42827	1.08624	1.70091	11.27341	14.38910	10.11104	8.70304	5.41812	3.36071
52930	9.38571	9.88790	7.14338	2.27091	1.86020	1.60308	13.66958	9.42015	6.68500	0.75543	0.84052	0.91805	7.85979	7.13737	8.11577	9.06900	5.62087	2.76168
53100	6.94770	7.10097	7.10480	2.60348	2.47632	4.11588	17.04817	10.91033	11.55822	2.57611	2.09229	2.07832	13.53991	14.28880	11.56888	11.84888	7.62483	5.59527
53260	13.36800	10.38650	10.55660	2.75326	2.69508	2.20627	20.62157	15.49925	8.68181	2.41092	1.66138	0.75176	6.24596	9.01788	9.08105	8.58042	5.25248	4.55633
53420	8.41103	6.65246	5.65696	2.49720	2.38720	1.89071	16.69500	10.41164	9.07624	0.99653	1.53224	2.30147	9.97160	11.01703	5.93981	10.49695	9.09540	2.89408
53590	6.92567	8.32742	8.49916	3.25062	4.12426	3.78703	15.32095	14.84581	11.68886	1.39914	1.09318	0.89221	8.50942	9.04939	7.57873	9.12359	5.59359	3.14234
53750	6.75691	4.50996	7.24323	2.88754	1.81657	1.50193	12.33401	10.33750	11.37106	1.25204	1.41802	1.17081	9.19352	9.82133	8.47786	8.93568	6.20276	3.58402
53920	7.69879	9.62748	5.79851	3.81607	3.26367	4.82592	15.90463	12.63308	9.75574	3.43515	3.08948	6.06212	12.12115	11.53209	11.31568	9.44443	6.91841	3.50422	30.57	6.1	0.00	7.53	0.01265	0.01287	0.01629	0.00778	0.00579	0.00635	0.00466	0.01262	0.01677	0.00675	0.00696	0.00877	0.01485	0.01091	0.01193	0.00217	0.00615	0.00864
54080	11.53581	9.18907	11.18478	1.98425	2.44676	1.68873	19.71627	16.78342	14.64383	1.41353	1.89278	0.80668	10.73722	10.53504	10.00908	8.76187	5.60773	2.99834
54240	8.56344	6.60952	5.71081	3.08291	2.17559	3.20355	19.75435	17.39567	12.31256	1.07313	1.00286	0.92906	10.81270	11.27435	11.87900	10.04598	7.60970	4.00846
54410	9.78612	8.60202	7.67012	3.63712	1.91273	2.04537	18.21275	13.93506	7.99702	2.31342	2.20498	1.24628	8.78893	7.36765	7.31924	9.04703	5.63099	3.51769
54570	8.58468	7.62835	5.82835	2.55167	1.80467	1.54501	16.28052	10.80567	7.61773	1.44794	1.16237	0.72315	4.83432	6.50585	4.47049	9.25157	6.01355	2.80536
54730	3.66291	2.89667	6.60882	2.24502	1.90031	1.75294	17.56675	13.10457	9.92185	1.42477	1.14281	0.72070	6.72158	6.44479	6.83556	9.68354	8.52906	3.97443
54900	7.75214	6.47972	8.80088	2.91046	2.42322	3.20591	14.20061	12.29560	11.68816	1.48385	1.02893	1.02174	6.78313	6.06869	4.56132	9.12325	6.00087	2.80067
55060	9.28520	9.41578	7.99490	3.12021	2.32102	1.63131	12.43404	11.16418	8.50282	0.94968	0.68589	0.74984	9.73973	9.55803	7.86015	9.79596	5.82702	2.92764
55220	6.45287	6.23746	8.37077	2.71842	2.32364	2.36312	16.64469	12.74309	10.11555	0.86440	1.05496	0.95524	6.47159	5.35388	5.35863	8.60771	5.61602	2.79362
55380	5.19664	4.86929	3.64981	3.73502	3.94626	3.95705	15.72961	10.97706	9.48683	3.81369	2.30586	2.05944	6.07842	6.91820	8.10492	9.53136	6.43626	4.00992
55550	5.52127	4.74171	7.29784	3.27277	2.49391	1.23702	12.54713	11.30329	6.86417	1.20475	1.33939	1.31924	4.83922	3.75467	4.33506	8.65714	5.25605	2.46797	30.63	6.2	0.00	7.61	0.01265	0.01287	0.01629	0.00778	0.00579	0.00635	0.00466	0.01262	0.01677	0.00675	0.00696	0.00877	0.01485	0.01091	0.01193	0.00216	0.00615	0.00864
55710	3.89921	3.45295	4.36430	1.99972	1.49256	1.30439	12.04518	8.40426	4.39938	1.51535	0.84010	1.18294	6.58479	6.86113	6.04313	8.76815	5.54300	2.95320
55880	4.88004	6.36214	8.40976	2.15234	1.75191	2.20179	16.75663	11.23204	8.64993	0.68607	0.92913	1.37127	8.66181	7.29100	6.40708	8.91480	5.39696	3.43277
56040	3.00076	3.87577	4.61790	2.40698	2.01895	1.50474	15.63336	9.97148	12.51951	0.86942	0.92745	1.04613	7.06924	6.71634	8.03384	9.59977	6.19994	3.47601
56200	7.46169	10.16376	8.71887	3.24029	2.46688	2.22352	19.64673	17.48441	13.33650	1.38952	1.33814	1.25173	11.15951	6.64753	9.14330	8.85841	5.78042	3.43522
56370	12.92966	11.32659	8.49887	3.00465	3.83362	3.45508	17.55556	13.97144	9.74707	1.72415	1.80835	2.17767	7.56703	9.55266	7.13099	10.23810	5.76135	3.43475
56530	9.32028	9.14288	7.15128	2.40384	2.06367	1.94669	16.30793	9.47852	10.54274	2.39447	1.26556	3.00245	11.34553	9.78009	5.84554	14.62972	20.41727	7.18994
56700	7.98521	6.01248	4.86378	11.81793	11.37320	3.86823	13.81562	12.45110	12.28716	3.74570	6.79539	6.37228	10.92624	9.16688	11.21330	12.29575	10.09376	6.43079
56860	9.80934	9.69581	12.87491	5.31347	3.24056	4.22649	24.74110	15.64565	11.08912	1.18474	2.67585	2.81621	15.42050	11.93976	10.45776	10.17158	6.72278	2.75568
57020	8.69560	6.08078	6.23634	2.13088	1.96020	1.99690	11.58245	14.38453	12.51433	0.79524	0.67873	0.74847	8.22698	11.18254	9.94942	8.78876	5.29231	2.61363
57190	8.85419	10.23239	8.38032	2.06429	1.88657	1.82804	17.07909	14.51654	8.07514	1.21139	1.73636	2.95161	9.84450	6.51047	6.17546	9.48581	7.12452	4.74116	30.57	6.1	0.00	7.47	0.01265	0.01287	0.01629	0.00778	0.00579	0.00635	0.00466	0.01262	0.01677	0.00675	0.00696	0.00877	0.01485	0.01091	0.01193	0.00216	0.00615	0.00864
57350	9.34373	10.30680	10.64769	4.44241	3.44955	3.12304	17.00938	11.64231	9.95643	1.34197	1.67816	2.58768	9.44613	6.53055	5.43116	9.41490	6.62459	3.15190
57510	4.60206	10.03114	8.85540	2.49031	2.08331	1.63340	16.67978	14.67477	12.78928	0.68660	0.76995	0.92547	12.91427	11.21716	9.00243	9.29429	5.31349	2.95052
57680	9.63431	6.89500	6.77105	2.31084	2.18212	1.79601	13.37436	10.17371	7.70361	1.38225	1.37919	0.98332	7.84741	7.04787	6.54937	8.72395	5.55502	3.90388
57840	8.47630	9.32844	5.50625	2.47704	2.77308	3.22508	16.89082	10.45099	6.79301	1.89445	1.36784	1.63168	5.24142	3.96146	3.80687	9.07964	5.67484	2.86807
58000	6.81940	5.44376	7.13442	4.65227	4.67794	5.88602	16.65931	13.35238	8.65011	3.87524	2.41252	1.54344	9.35638	9.49854	8.85785	10.02106	7.01415	3.83997
58170	11.59532	8.21862	6.57282	2.91773	2.67492	2.26245	16.08016	13.58411	8.92303	1.80909	2.08349	1.43473	8.69910	4.89734	8.96001	9.23647	5.81524	3.27560
58330	4.63462	10.21384	7.47557	3.20481	2.29824	2.73760	18.94194	14.21241	12.58189	3.69608	1.49889	2.54601	9.01804	8.22182	8.39422	9.41799	5.56831	2.61052
58490	7.60979	7.59807	7.10198	2.90887	2.17910	1.74682	16.04197	15.93467	10.99525	1.54006	4.34757	2.78944	10.49879	11.39347	7.74430	8.86201	6.10771	4.47755
58660	8.31753	7.93185	5.77495	3.23185	1.94951	1.92370	18.18928	12.13236	8.37071	1.38152	1.52604	0.99579	13.08629	9.25608	7.87627	8.94869	5.49046	2.84347
58820	6.99039	6.49940	3.41934	2.06800	1.91296	1.76263	12.22439	11.86724	6.50668	1.19351	0.86921	4.30480	5.90824	4.06064	5.75295	9.78876	7.87290	8.82351	30.57	6.1	0.00	7.58	0.01265	0.01287	0.01629	0.00778	0.00579	0.00635	0.00466	0.01262	0.01677	0.00675	0.00696	0.00877	0.01485	0.01091	0.01193	0.00216	0.00615	0.00864
58980	8.34742	3.69507	7.98533	6.65687	5.06198	4.51007	19.05435	17.50005	14.54423	7.07677	5.64459	5.10265	13.19560	14.78515	13.26047	10.62465	8.24889	4.55646
59150	12.66625	9.79504	10.31727	3.58399	3.23599	2.49918	18.19224	13.47190	11.46230	1.86640	1.30307	1.47482	7.55782	10.05547	11.39341	9.05120	5.64479	2.71902
59310	8.46127	6.56316	5.86975	2.49781	1.66103	1.53961	12.47405	12.40654	9.27133	1.06952	0.82734	2.04642	5.44682	6.97484	4.75528	8.84066	5.90301	2.74093
59470	6.19808	5.65832	5.29773	2.45572	1.94998	1.85252	14.74950	9.17357	5.85133	1.58048	0.80238	0.75891	5.80021	5.39407	6.63060	8.63642	5.43965	2.73022
59640	5.29583	6.94837	5.67140	2.38742	2.04387	1.56603	15.81221	12.69695	7.92070	1.41085	0.84183	0.68717	7.61628	9.70254	10.06434	8.66477	5.64601	2.85175
59800	5.37090	7.31181	6.63645	2.33353	2.38203	2.05492	14.99959	16.34196	10.27825	1.16896	0.98432	0.75862	9.42865	7.27206	9.36930	8.74181	5.49778	3.27103
59960	8.56601	8.61000	6.36302	2.38797	2.13061	1.54111	12.10595	9.61037	10.02311	1.16399	0.99074	1.17198	4.66545	5.81701	7.97784	8.90127	5.48682	3.29102
60130	6.07631	5.40022	3.00860	2.23553	2.44952	1.68423	13.78392	9.59787	8.55245	0.69726	1.04175	1.65083	7.57972	9.22415	9.52017	9.21108	6.71745	2.88333
60290	10.00767	10.46088	7.94648	3.25259	2.81897	2.42637	17.53824	16.31297	13.04074	1.32516	0.98753	1.11553	7.20429	9.35512	7.80918	9.39318	5.50457	2.72619
60450	6.75806	5.75337	3.57572	1.98093	1.77648	1.37684	15.20548	12.06434	9.37662	0.85080	1.04474	1.22675	7.88747	6.45546	7.93281	8.51154	5.24507	2.71949	30.57	6.1	0.00	7.53	0.01265	0.01287	0.01629	0.00778	0.00579	0.00635	0.00466	0.01262	0.01677	0.00676	0.00696	0.00877	0.01485	0.01091	0.01193	0.00216	0.00615	0.00864
60610	4.74506	4.94289	7.62362	1.99348	1.80664	1.39727	15.49464	11.31760	9.79574	0.75032	0.88317	0.60429	6.00905	6.43597	6.36046	8.72449	5.34925	3.37552
60780	2.41637	2.66587	2.35224	2.24268	2.35300	1.38342	12.09311	8.17393	7.11231	0.86892	2.06943	1.73536	5.11207	9.60193	7.22246	12.81494	8.09465	3.57622
60940	5.86700	6.95277	6.94776	3.98499	2.28410	1.84375	16.13254	11.85829	7.81058	1.01161	0.94057	1.06153	9.15536	8.61512	6.73787	9.10439	5.24292	2.77158
61100	6.54465	6.82948	6.89436	2.27067	2.24822	1.42680	12.18150	10.24749	6.34490	1.42504	1.16573	0.74664	6.36917	4.75293	6.57782	8.72422	5.62333	2.73874
61270	8.45810	5.24519	5.13187	2.55514	2.47037	2.27454	11.99128	8.98553	6.17182	1.78678	1.95586	2.12351	5.85324	6.10330	3.93111	9.77999	6.36250	4.37977
61430	5.04011	5.67074	5.42852	2.45075	3.24133	3.63284	14.66585	13.11021	10.31527	0.96950	1.07945	1.08319	7.08483	7.35648	6.69129	9.08036	5.56301	3.16461
61600	4.86176	4.72080	4.46807	2.51672	1.97818	1.55789	13.85434	7.89353	5.40982	1.32428	1.16593	1.40601	6.66854	7.78623	5.84042	8.86838	6.02002	3.10010
61760	4.21765	3.44867	4.11525	3.03518	2.05151	1.62164	16.37752	7.95544	6.03392	1.58517	1.12239	1.55046	5.16363	5.04824	6.81808	9.05424	5.59120	2.77266
61920	6.59581	5.14554	6.73019	2.26111	2.06770	1.91451	14.78618	12.92756	10.10522	1.01445	0.92252	0.94673	11.59882	11.19555	8.89039	9.32312	5.57105	3.55891
62090	7.31132	8.26726	7.35060	2.67109	3.00274	4.24376	20.72133	15.12505	14.51177	2.42465	2.07041	1.90620	13.68827	9.18825	9.18667	9.79779	5.98876	2.79027	30.51	6.1	0.00	7.49	0.01265	0.01287	0.01629	0.00778	0.00579	0.00635	0.00466	0.01262	0.01677	0.00675	0.00696	0.00877	0.01485	0.01091	0.01193	0.00216	0.00615	0.00864
62250	7.12256	7.52588	7.12790	2.94393	2.65435	2.03352	17.30069	11.23795	7.14680	1.63642	1.26545	1.59762	5.82746	8.47980	7.00372	9.20543	5.96527	3.03413
62410	7.33873	3.72170	4.02707	2.38870	1.86156	1.56724	15.00331	8.56542	5.98261	0.77199	2.08439	0.89650	7.46593	5.23814	6.84894	9.53780	6.07353	3.75997
62580	7.78271	7.82354	5.40902	4.31834	3.28406	2.87713	14.81799	12.15757	9.51935	1.60596	3.16728	2.01047	8.05322	7.13553	7.07269	8.60124	5.62499	3.02388
62740	6.22856	3.64306	1.73234	3.63410	2.43852	2.23982	14.51132	8.84874	11.70905	1.50101	4.39012	5.39767	10.89915	8.94781	12.11800	10.37515	8.01472	3.63411
62900	6.61628	10.51198	7.62027	3.94417	2.99293	3.21664	20.32344	13.71733	11.64712	3.24659	1.96436	1.80300	10.49811	10.04387	13.81001	9.33359	6.99332	4.22538
63070	12.24728	10.46995	9.67455	5.87274	4.29299	3.24552	20.20767	17.91540	13.65428	3.51175	2.03454	2.06861	10.33411	12.62074	8.48732	10.45314	5.83435	3.35231
63230	9.43796	9.91324	7.22746	2.38912	1.83985	1.40974	15.27183	12.23696	8.27093	1.78208	1.04928	1.24236	10.55387	9.29680	8.95115	9.84858	7.13924	5.02269
63390	10.59262	9.17312	7.81811	3.07921	3.22599	1.60647	18.43333	12.41707	7.63165	1.05868	1.32536	1.78293	9.38162	7.20357	4.01395	9.61225	5.74075	3.16103
63560	6.57305	5.99909	6.42068	2.92907	2.64217	1.74179	21.42425	11.28579	13.32633	1.33605	1.31201	0.96057	11.23966	12.26819	10.38372	9.51925	6.47960	3.59189
63720	6.74220	4.52783	7.64915	2.83214	2.23025	2.07109	18.69324	13.19441	8.51285	2.17824	3.19209	1.04933	10.60739	7.50946	7.22812	11.23964	10.23147	5.73836	30.57	6.1	0.00	7.55	0.01265	0.01287	0.01629	0.00778	0.00579	0.00635	0.00466	0.01262	0.01677	0.00675	0.00696	0.00877	0.01485	0.01091	0.01193	0.00216	0.00615	0.00864
63880	7.21403	11.68214	10.66317	7.11442	7.42239	5.55086	22.17283	12.46347	8.91250	5.46519	5.07152	1.79061	11.80342	9.71532	6.51607	11.72216	11.07317	3.88961
64050	9.87789	10.34308	17.48730	2.88710	3.51664	2.36896	23.39994	19.97952	15.23153	2.40386	3.68303	2.69596	11.62490	10.17091	9.29295	10.48026	7.77340	6.14028
64210	8.67289	8.08563	9.09929	4.03438	4.18930	4.26867	14.68041	11.45748	10.59738	1.66409	1.64249	4.40951	9.28457	8.30597	5.50127	9.51170	6.53063	3.51924
64370	7.86039	10.33119	10.56816	2.43842	2.47293	1.67235	21.03669	14.75171	8.96283	1.15147	1.53266	1.48029	10.25300	9.63529	7.87184	10.28313	7.24840	3.31819
