WetView ver 7.1	07-16-2018	12:22:48
AC9 Absorption and Attenuation Meter
00000266		; Serial number
2	; structure version number
Reserved
0.000000	0.000000		; Depth calibration
19200			; Baud rate
0.100000			; Path length (meters)
31			; number of temperature calibration bins
				12.59339	13.44920	14.48425	15.49668	16.50852	17.49564	18.50545	19.52458	20.50176	21.48889	22.47318	23.48707	24.50962	25.49370	26.49784	27.51372	28.50746	29.47237	30.47938	31.50214	32.50470	33.49235	34.50337	35.50914	36.50618	37.52058	38.51018	39.51308	40.49994	41.49866	42.47204	; temperature bins
a650	Blue	20.34952		-0.00383	-0.00415	-0.00430	-0.00391	-0.00363	-0.00317	-0.00269	-0.00237	-0.00179	-0.00130	-0.00099	-0.00071	-0.00015	0.00000	0.00004	-0.00001	0.00015	0.00036	0.00058	0.00101	0.00161	0.00132	0.00160	0.00169	0.00242	0.00273	0.00336	0.00365	0.00427	0.00566	0.00670		; offset and temperature correction info
a676	Green	20.51193		-0.00398	-0.00384	-0.00360	-0.00306	-0.00302	-0.00255	-0.00235	-0.00212	-0.00163	-0.00136	-0.00118	-0.00089	-0.00029	0.00000	0.00068	0.00082	0.00099	0.00137	0.00145	0.00212	0.00260	0.00252	0.00321	0.00354	0.00457	0.00535	0.00617	0.00648	0.00742	0.00887	0.01002		; offset and temperature correction info
a715	Brown	20.23230		-0.00421	-0.00394	-0.00391	-0.00291	-0.00264	-0.00192	-0.00204	-0.00179	-0.00188	-0.00239	-0.00180	-0.00187	-0.00099	0.00000	0.00084	0.00162	0.00188	0.00224	0.00321	0.00381	0.00466	0.00528	0.00588	0.00696	0.00859	0.01041	0.01148	0.01282	0.01333	0.01456	0.01617		; offset and temperature correction info
c510	Red	20.40042		-0.00261	-0.00247	-0.00258	-0.00225	-0.00203	-0.00197	-0.00199	-0.00203	-0.00154	-0.00103	-0.00069	-0.00019	-0.00007	0.00000	0.00011	-0.00021	-0.00042	-0.00056	-0.00040	0.00011	0.00036	0.00050	0.00077	0.00079	0.00050	0.00042	0.00043	0.00092	0.00147	0.00200	0.00232		; offset and temperature correction info
c532	Magenta	20.40760		-0.00248	-0.00265	-0.00278	-0.00279	-0.00296	-0.00292	-0.00238	-0.00206	-0.00129	-0.00096	-0.00092	-0.00052	-0.00009	0.00000	0.00007	-0.00049	-0.00136	-0.00107	-0.00079	-0.00065	-0.00074	-0.00105	-0.00152	-0.00192	-0.00236	-0.00269	-0.00252	-0.00233	-0.00172	-0.00128	-0.00067		; offset and temperature correction info
c555	Black	20.50654		-0.00053	-0.00063	-0.00106	-0.00094	-0.00068	-0.00055	-0.00053	-0.00039	-0.00028	-0.00025	-0.00011	-0.00035	-0.00007	0.00000	-0.00037	-0.00055	-0.00036	-0.00014	0.00019	0.00044	0.00032	0.00040	0.00050	0.00028	0.00014	0.00013	0.00030	0.00073	0.00117	0.00176	0.00241		; offset and temperature correction info
a412	LtBlue	17.15231		-0.01972	-0.01823	-0.01612	-0.01381	-0.01272	-0.01080	-0.00959	-0.00866	-0.00710	-0.00532	-0.00354	-0.00148	-0.00028	0.00000	0.00176	0.00297	0.00394	0.00440	0.00453	0.00487	0.00804	0.00856	0.01065	0.01248	0.01388	0.01439	0.01659	0.01881	0.02256	0.02450	0.02719		; offset and temperature correction info
a440	LtGreen	18.00171		-0.00729	-0.00642	-0.00581	-0.00502	-0.00426	-0.00349	-0.00244	-0.00218	-0.00179	-0.00101	-0.00046	-0.00006	0.00036	0.00000	0.00040	0.00045	0.00030	-0.00015	-0.00024	-0.00035	0.00012	-0.00013	-0.00033	-0.00089	-0.00142	-0.00189	-0.00231	-0.00205	-0.00140	-0.00140	-0.00146		; offset and temperature correction info
a488	Yellow	18.86491		-0.00113	-0.00102	-0.00106	-0.00064	-0.00027	-0.00020	-0.00030	-0.00037	-0.00047	-0.00059	-0.00052	-0.00012	0.00008	0.00000	0.00025	0.00012	-0.00013	-0.00043	-0.00065	-0.00076	-0.00025	0.00010	0.00090	0.00111	0.00113	0.00104	0.00073	0.00068	0.00120	0.00186	0.00258		; offset and temperature correction info
c650	Blue	20.46075		-0.00145	-0.00097	-0.00092	-0.00139	-0.00185	-0.00196	-0.00237	-0.00266	-0.00238	-0.00163	-0.00083	-0.00041	-0.00010	0.00000	0.00005	-0.00001	0.00015	0.00034	0.00029	0.00065	0.00101	0.00164	0.00126	0.00156	0.00175	0.00270	0.00287	0.00371	0.00407	0.00473	0.00534		; offset and temperature correction info
c676	Green	20.10118		-0.00170	-0.00144	-0.00149	-0.00177	-0.00188	-0.00194	-0.00198	-0.00196	-0.00177	-0.00156	-0.00140	-0.00091	-0.00033	0.00000	0.00050	0.00092	0.00110	0.00141	0.00167	0.00199	0.00216	0.00265	0.00269	0.00289	0.00315	0.00374	0.00367	0.00408	0.00486	0.00561	0.00646		; offset and temperature correction info
c715	Brown	19.91219		-0.01201	-0.01097	-0.00859	-0.00680	-0.00651	-0.00592	-0.00535	-0.00440	-0.00387	-0.00303	-0.00222	-0.00153	-0.00028	0.00000	0.00093	0.00149	0.00247	0.00322	0.00330	0.00427	0.00373	0.00464	0.00536	0.00551	0.00643	0.00733	0.00779	0.00884	0.00899	0.01021	0.01120		; offset and temperature correction info
a510	Red	19.21192		0.00201	0.00193	0.00158	0.00098	0.00089	0.00049	0.00011	-0.00016	-0.00016	-0.00005	0.00028	0.00025	0.00006	0.00000	0.00035	-0.00022	-0.00023	-0.00080	-0.00144	-0.00154	-0.00153	-0.00204	-0.00220	-0.00219	-0.00190	-0.00128	-0.00069	-0.00018	0.00068	0.00152	0.00241		; offset and temperature correction info
a532	Magenta	19.41084		-0.00097	-0.00072	-0.00060	-0.00081	-0.00062	-0.00071	-0.00040	0.00020	0.00028	0.00043	0.00000	-0.00035	0.00007	0.00000	-0.00011	-0.00059	-0.00080	-0.00098	-0.00137	-0.00162	-0.00163	-0.00130	-0.00073	-0.00018	0.00090	0.00185	0.00175	0.00247	0.00291	0.00327	0.00349		; offset and temperature correction info
a555	Black	19.69776		0.00171	0.00183	0.00183	0.00186	0.00191	0.00170	0.00115	0.00131	0.00097	0.00073	0.00060	0.00013	0.00015	0.00000	0.00014	-0.00029	-0.00066	-0.00082	-0.00116	-0.00139	-0.00134	-0.00167	-0.00119	-0.00093	-0.00048	0.00053	0.00111	0.00095	0.00178	0.00206	0.00273		; offset and temperature correction info
c412	LtBlue	19.91180		-0.02051	-0.01853	-0.01589	-0.01311	-0.01059	-0.00877	-0.00705	-0.00581	-0.00413	-0.00231	-0.00098	-0.00066	-0.00011	0.00000	-0.00013	-0.00085	-0.00170	-0.00170	-0.00302	-0.00330	-0.00429	-0.00551	-0.00626	-0.00775	-0.00978	-0.01181	-0.01113	-0.01108	-0.01116	-0.01192	-0.01291		; offset and temperature correction info
c440	LtGreen	20.06241		-0.01064	-0.00992	-0.00892	-0.00766	-0.00639	-0.00531	-0.00478	-0.00384	-0.00287	-0.00187	-0.00102	-0.00063	-0.00023	0.00000	-0.00007	-0.00053	-0.00090	-0.00119	-0.00169	-0.00197	-0.00226	-0.00257	-0.00260	-0.00289	-0.00394	-0.00470	-0.00481	-0.00493	-0.00520	-0.00580	-0.00620		; offset and temperature correction info
c488	Yellow	20.35984		-0.01125	-0.01082	-0.00966	-0.00833	-0.00726	-0.00661	-0.00579	-0.00500	-0.00389	-0.00278	-0.00167	-0.00113	-0.00041	0.00000	0.00055	0.00121	0.00187	0.00226	0.00222	0.00251	0.00281	0.00359	0.00414	0.00427	0.00401	0.00404	0.00486	0.00563	0.00638	0.00684	0.00718		; offset and temperature correction info
0.003500	0.004000	0.015000	0.020000	0.015000	0.020000	2500.000000	2000.000000	1000.000000	; maxANoise	maxCNoise	maxADifference	maxCDifference	minACounts	minCCounts	minRCounts	maxTempSdev	maxDepthSdev
0			; auxilliary capabilities
1			; acquisition binsize
0	0.51789	0.46331	0.31379	2.79699	2.37028	1.98561	9.48145	5.71513	2.72023	1.16685	1.08765	0.94536	2.05930	1.59658	1.23577	9.81901	6.31330	3.47081	28.34	6.1	0.00	7.41	0.01271	0.01290	0.01650	0.00784	0.00584	0.00641	0.00467	0.01266	0.01684	0.00682	0.00702	0.00894	0.01489	0.01095	0.01197	0.00218	0.00620	0.00872
160	0.50368	0.45483	0.31641	2.80159	2.38248	1.94980	9.45487	5.71386	2.69831	1.15611	1.08826	0.92132	2.05044	1.57384	1.22840	9.82090	6.30647	3.48574
320	0.49674	0.47157	0.32689	2.80386	2.34016	1.93782	9.45676	5.71614	2.69447	1.14664	1.05929	0.96486	2.06344	1.58928	1.25059	9.82907	6.30079	3.51968
490	0.51654	0.46869	0.32265	2.85948	2.38654	1.97987	9.45818	5.71936	2.70702	1.18793	1.05903	0.93757	2.04731	1.58485	1.23048	9.82309	6.33403	3.48948
650	0.51766	0.46195	0.32526	2.81080	2.40659	1.95613	9.47286	5.71540	2.71568	1.16777	1.08852	0.91130	2.05048	1.58143	1.25224	9.84972	6.35810	3.48744
810	0.50227	0.45834	0.31756	2.83253	2.39374	2.00055	9.46214	5.70386	2.70329	1.14385	1.07924	0.94248	2.04655	1.57323	1.23028	9.82907	6.32879	3.48175
980	0.50959	0.46451	0.31565	2.80253	2.41037	1.96664	9.47712	5.72024	2.70590	1.13004	1.04721	0.90241	2.04473	1.57813	1.21878	9.82200	6.30598	3.43828
1140	0.50821	0.45368	0.31025	2.78177	2.36099	1.96479	9.47511	5.71962	2.71230	1.13689	1.04838	0.94045	2.05552	1.59774	1.22247	9.79484	6.30941	3.46753
1300	0.51931	0.46779	0.32045	2.77695	2.35590	1.94199	9.45505	5.72224	2.72239	1.12833	1.04824	0.92354	2.06023	1.58870	1.23884	9.87563	6.34273	3.47762
1470	0.51421	0.46224	0.32082	2.78209	2.38124	1.96769	9.45936	5.71775	2.70876	1.15995	1.06204	0.93564	2.04986	1.57025	1.22833	9.79732	6.33188	3.46665
1630	0.51051	0.46943	0.32007	2.83069	2.38284	1.98557	9.50283	5.71089	2.71807	1.21311	1.07653	0.93120	2.05664	1.61211	1.23368	9.82260	6.33266	3.51363	28.28	6.2	0.00	7.43	0.01271	0.01290	0.01650	0.00784	0.00584	0.00641	0.00467	0.01266	0.01684	0.00682	0.00702	0.00894	0.01490	0.01095	0.01196	0.00218	0.00620	0.00872
1790	0.52877	0.48649	0.32837	2.80852	2.41602	1.97746	9.47821	5.72613	2.72828	1.18436	1.06931	0.94269	2.06882	1.59533	1.24732	9.83068	6.33055	3.50215
1960	0.51263	0.46330	0.33012	2.81187	2.36650	1.96242	9.49790	5.73234	2.71301	1.14045	1.06268	0.90025	2.04644	1.58431	1.21596	9.83527	6.32269	3.47592
2120	0.50929	0.45381	0.31425	2.78427	2.34875	1.96553	9.45933	5.71940	2.71467	1.16139	1.06806	0.94285	2.03845	1.58144	1.23896	9.83118	6.29977	3.47657
2280	0.49785	0.47140	0.31669	2.79845	2.35765	1.96506	9.43990	5.71668	2.71264	1.15284	1.02212	0.93216	2.06177	1.58215	1.21566	9.81643	6.32096	3.48090
2440	0.50422	0.45883	0.32298	2.82569	2.36764	1.95341	9.45732	5.71840	2.73318	1.15910	1.05500	0.89296	2.06484	1.59644	1.23842	9.80438	6.27943	3.45669
2610	0.50417	0.46790	0.30945	2.80437	2.37132	1.94704	9.46193	5.72491	2.70812	1.14996	1.03178	0.91200	2.05440	1.58196	1.22124	9.82978	6.31824	3.46417
2770	0.51873	0.46575	0.31956	2.81341	2.36840	1.97271	9.48645	5.71908	2.71085	1.16864	1.07101	0.95532	2.06130	1.58207	1.23212	9.85704	6.35494	3.48050
2940	0.50869	0.47929	0.33688	2.81462	2.41078	1.99829	9.47780	5.74013	2.71684	1.15866	1.10742	0.97593	2.08297	1.59339	1.24260	9.83626	6.34724	3.49581
3100	0.52907	0.47497	0.32653	2.83877	2.37001	1.93690	9.48295	5.73738	2.71300	1.16391	1.09117	0.96129	2.05736	1.59702	1.22145	9.85624	6.34587	3.48803
3260	0.51219	0.47383	0.32055	2.79230	2.37368	1.96197	9.46064	5.72843	2.70564	1.15690	1.07687	0.96010	2.06070	1.59796	1.24024	9.85560	6.33027	3.48805	28.28	6.1	0.00	7.40	0.01271	0.01290	0.01650	0.00784	0.00584	0.00641	0.00467	0.01266	0.01684	0.00682	0.00702	0.00894	0.01490	0.01095	0.01196	0.00218	0.00620	0.00872
3430	0.52373	0.48457	0.32618	2.83057	2.37016	1.95800	9.48195	5.72023	2.71232	1.18010	1.04487	0.96765	2.07071	1.58931	1.24498	9.82136	6.32777	3.51549
3590	0.52144	0.47598	0.32190	2.87588	2.42279	2.00281	9.46075	5.75193	2.71688	1.24372	1.06903	0.94635	2.07564	1.60894	1.24685	9.84320	6.34925	3.52593
3750	0.51435	0.48069	0.31414	2.83514	2.44633	2.04157	9.48308	5.74072	2.72314	1.20863	1.10417	0.95422	2.07180	1.58635	1.23854	9.82654	6.36876	3.47985
3920	0.51475	0.47099	0.33046	2.83947	2.39057	1.97048	9.48723	5.72572	2.70774	1.17072	1.07914	0.95105	2.07002	1.59455	1.23484	9.86330	6.33010	3.46200
4080	0.51208	0.46467	0.31406	2.80427	2.38564	1.98153	9.46951	5.72750	2.71323	1.17761	1.08203	0.96958	2.05841	1.58877	1.23165	9.83991	6.37445	3.50051
4240	0.53312	0.48125	0.35911	2.84574	2.41552	2.00671	9.48877	5.73858	2.72578	1.21916	1.12012	1.00244	2.09775	1.60052	1.25274	9.85760	6.35565	3.51634
4410	0.53901	0.46777	0.33484	2.90662	2.42222	1.96749	9.48485	5.73768	2.71342	1.17395	1.07875	0.92033	2.05992	1.61417	1.24676	9.85350	6.31215	3.47811
4570	0.51894	0.45825	0.32537	2.82449	2.37900	1.96440	9.47863	5.72973	2.72617	1.16503	1.06928	0.94622	2.07131	1.60676	1.23767	9.88473	6.34267	3.51436
4730	0.51740	0.48461	0.33961	2.83923	2.38527	1.99099	9.49808	5.73326	2.74514	1.17179	1.08565	0.96451	2.08245	1.59989	1.25498	9.92070	6.38108	3.57859
4900	0.54473	0.49135	0.35589	2.94351	2.49277	2.11837	9.53150	5.80229	2.79809	1.35825	1.39129	1.17458	2.17225	1.71643	1.36739	10.15861	6.66122	3.82882	28.34	6.2	0.00	7.31	0.01271	0.01290	0.01650	0.00784	0.00584	0.00641	0.00467	0.01266	0.01684	0.00682	0.00702	0.00894	0.01490	0.01095	0.01196	0.00218	0.00620	0.00872
5060	0.69110	0.64376	0.49546	3.24236	2.84097	2.50886	9.82075	6.01222	2.97909	1.79798	1.47078	1.50867	2.38000	1.92745	1.54807	10.35948	6.92554	4.02921
5220	0.81817	0.77282	0.67020	3.50957	2.94634	2.70266	9.81389	6.08557	3.11503	1.92702	1.76590	1.70625	2.42467	1.94559	1.57208	10.42156	6.91237	4.02325
5380	0.77898	0.72913	0.58975	3.30334	2.93384	2.56673	9.69755	5.96462	2.93418	1.63005	1.42935	1.31228	2.24609	1.76650	1.40889	10.15954	6.61028	3.72423
5550	0.65707	0.59514	0.47629	3.07852	2.62752	2.23902	9.66738	5.86069	2.84299	1.44238	1.27326	1.16237	2.13831	1.67032	1.33670	10.05462	6.47121	3.69229
5710	0.57680	0.50781	0.35791	3.00652	2.52024	2.08904	9.51324	5.76102	2.75372	1.24670	1.12739	1.00586	2.08761	1.61635	1.25256	9.91314	6.38443	3.51972
5870	0.51660	0.48884	0.33568	2.85053	2.37553	1.98296	9.49239	5.76334	2.73737	1.16696	1.07437	0.91379	2.08969	1.60958	1.26488	9.82211	6.32174	3.48973
6040	0.53513	0.50088	0.35022	2.81619	2.37886	1.95139	9.47662	5.72478	2.71512	1.17249	1.09435	0.92419	2.05082	1.58795	1.22536	9.82371	6.31014	3.46766
6200	0.49917	0.47405	0.32159	2.79844	2.35666	1.94675	9.47609	5.74116	2.71752	1.16581	1.03163	0.96620	2.05917	1.59899	1.22582	9.81196	6.33424	3.48070
6360	0.51903	0.45946	0.31451	2.80330	2.36063	1.94280	9.48522	5.73790	2.69849	1.16130	1.04706	0.92886	2.05940	1.60378	1.22461	9.80321	6.29405	3.47147
6530	0.50347	0.47335	0.31224	2.79673	2.34506	1.95219	9.48047	5.72752	2.69996	1.11137	1.03347	0.91065	2.05978	1.60377	1.23771	9.83684	6.29986	3.44791	28.34	6.1	0.00	7.51	0.01271	0.01290	0.01650	0.00784	0.00584	0.00641	0.00467	0.01266	0.01684	0.00682	0.00702	0.00893	0.01489	0.01095	0.01196	0.00218	0.00620	0.00872
6690	0.52651	0.47929	0.32451	2.78239	2.34697	1.93549	9.50022	5.73525	2.72322	1.14245	1.03486	0.91759	2.04591	1.59200	1.22877	9.84752	6.32700	3.46376
6860	0.51947	0.47833	0.33101	2.78218	2.36687	1.96898	9.48503	5.72899	2.72461	1.15031	1.03089	0.90898	2.06165	1.59961	1.22385	9.82209	6.33440	3.46003
7020	0.52038	0.45702	0.30859	2.81058	2.35053	1.94140	9.48118	5.72187	2.70838	1.12917	1.04283	0.93514	2.05161	1.57962	1.24168	9.81781	6.32654	3.46627
7180	0.51574	0.46608	0.32660	2.80136	2.37232	1.96722	9.46940	5.72436	2.71492	1.12962	1.05603	0.90415	2.06267	1.59625	1.24054	9.84153	6.34832	3.46968
7350	0.52067	0.47486	0.32015	2.82228	2.38840	1.96869	9.47461	5.73238	2.73060	1.18672	1.07288	0.93710	2.07088	1.61601	1.24173	9.87232	6.33209	3.47797
7510	0.51720	0.46255	0.32786	2.77536	2.34856	1.93745	9.48723	5.72925	2.70770	1.16599	1.05441	0.94105	2.06549	1.59268	1.23307	9.84044	6.30607	3.47341
7670	0.52333	0.49203	0.34449	2.81277	2.40778	1.96481	9.47917	5.74337	2.72827	1.16625	1.03910	0.94194	2.05921	1.58509	1.22499	9.82877	6.30403	3.44910
7840	0.51381	0.46278	0.32351	2.79754	2.34684	1.93546	9.47733	5.72547	2.72266	1.15176	1.05595	0.93810	2.06961	1.59722	1.23992	9.82100	6.32632	3.46455
8000	0.51065	0.47018	0.32122	2.80216	2.35784	1.94634	9.48954	5.73840	2.71776	1.14055	1.07504	0.90655	2.05079	1.59064	1.22792	9.78124	6.33107	3.49418
8160	0.52281	0.46976	0.32854	2.81907	2.36435	1.94289	9.48268	5.73536	2.71282	1.14992	1.05110	0.92003	2.06860	1.59303	1.22154	9.82354	6.41393	3.47627	28.34	6.2	0.00	7.38	0.01271	0.01290	0.01650	0.00784	0.00584	0.00641	0.00467	0.01266	0.01684	0.00682	0.00702	0.00893	0.01489	0.01095	0.01196	0.00218	0.00620	0.00872
8330	0.50549	0.44995	0.30965	2.77941	2.36523	1.92462	9.45776	5.71632	2.70533	1.15553	1.03407	0.90972	2.04903	1.58024	1.21194	9.82862	6.31927	3.44141
8490	0.52648	0.45395	0.31283	2.78158	2.39712	1.90368	9.47990	5.70620	2.71753	1.13254	1.06165	0.95287	2.04970	1.57940	1.24096	9.80801	6.33105	3.44903
8650	0.51886	0.47637	0.32629	2.81571	2.41412	1.97039	9.48476	5.73396	2.71216	1.18061	1.08802	0.98643	2.08572	1.59447	1.23689	9.87226	6.33563	3.49984
8810	0.52791	0.50101	0.34431	2.83273	2.36816	1.98104	9.49336	5.73056	2.71400	1.15540	1.04615	0.92973	2.05271	1.58079	1.22463	9.84597	6.34116	3.48633
8980	0.50918	0.46548	0.31924	2.82750	2.36709	2.00425	9.47936	5.73224	2.71804	1.15980	1.05392	0.91255	2.06526	1.58745	1.22664	9.86316	6.31023	3.45277
9140	0.50365	0.46070	0.32119	2.81819	2.34730	1.96486	9.48019	5.74182	2.70579	1.17931	1.05990	0.94195	2.06793	1.60557	1.23264	9.82214	6.30721	3.46413
9300	0.52153	0.47160	0.31864	2.79618	2.35671	1.93943	9.45385	5.72355	2.70997	1.14334	1.04684	0.93687	2.06404	1.59292	1.21870	9.80552	6.28433	3.47566
9470	0.49722	0.45258	0.31205	2.75961	2.34913	1.94315	9.47474	5.70954	2.70308	1.15044	1.02916	0.91409	2.06448	1.58002	1.22979	9.83470	6.34499	3.45941
9630	0.50703	0.45941	0.32284	2.81501	2.36832	1.95176	9.50945	5.72463	2.71963	1.15197	1.06081	0.92954	2.06621	1.59823	1.23132	9.81448	6.29566	3.42789
9790	0.52056	0.46557	0.31482	2.77326	2.31537	1.91653	9.47619	5.73385	2.72653	1.17312	1.03416	0.89606	2.05416	1.59066	1.23644	9.76442	6.28205	3.44705	28.28	6.0	0.00	7.43	0.01271	0.01289	0.01650	0.00784	0.00584	0.00641	0.00467	0.01266	0.01684	0.00682	0.00702	0.00893	0.01489	0.01095	0.01196	0.00218	0.00620	0.00872
9960	0.50278	0.46873	0.32199	2.78541	2.36007	1.93007	9.48182	5.73264	2.70410	1.11929	1.02835	0.90099	2.05164	1.59331	1.22794	9.83613	6.32491	3.48915
10120	0.50855	0.46453	0.32222	2.79035	2.36218	1.95396	9.46530	5.73597	2.74200	1.10356	1.05667	0.92432	2.06673	1.58696	1.24808	9.81419	6.30879	3.47373
10280	0.53370	0.48593	0.33009	2.80924	2.35148	1.98932	9.51014	5.75997	2.75265	1.21510	1.11952	0.94201	2.08194	1.60851	1.27348	9.88997	6.35277	3.51484
10450	0.54367	0.51545	0.32761	2.86052	2.42651	1.99057	9.50538	5.76429	2.76180	1.22369	1.14014	0.96863	2.07072	1.60181	1.24135	9.87763	6.34687	3.49153
10610	0.55235	0.47715	0.32809	2.85058	2.38673	2.00336	9.50010	5.72643	2.74196	1.17728	1.08483	0.95690	2.08386	1.60872	1.24004	9.84811	6.34096	3.46760
10770	0.52318	0.47119	0.33467	2.81635	2.41445	2.00214	9.48740	5.74536	2.74162	1.20523	1.06727	0.92204	2.07207	1.61563	1.24625	9.85971	6.32367	3.46921
10940	0.52604	0.47436	0.32350	2.82535	2.34843	2.00975	9.47856	5.73061	2.73342	1.13558	1.02525	0.91744	2.04977	1.59059	1.24783	9.84681	6.30041	3.48246
11100	0.51385	0.46811	0.32006	2.81258	2.34997	1.95873	9.47222	5.72611	2.72570	1.18407	1.07589	0.93709	2.05516	1.58611	1.26057	9.82326	6.33100	3.45182
11260	0.52318	0.46798	0.32293	2.84515	2.37499	1.94964	9.47507	5.72828	2.72971	1.15516	1.04057	0.91929	2.08169	1.60300	1.25182	9.82406	6.27728	3.45437
11430	0.52170	0.47193	0.32246	2.79527	2.39462	1.97406	9.48064	5.73624	2.71385	1.16725	1.08380	0.94874	2.07030	1.60188	1.23118	9.81255	6.33173	3.46531	28.28	6.0	0.00	7.40	0.01271	0.01290	0.01650	0.00784	0.00584	0.00641	0.00467	0.01266	0.01683	0.00682	0.00702	0.00893	0.01489	0.01095	0.01196	0.00218	0.00620	0.00872
11590	0.51498	0.46517	0.31702	2.82979	2.40154	1.99814	9.48615	5.71207	2.71490	1.17402	1.05009	0.92718	2.05304	1.59681	1.21725	9.83050	6.28808	3.47039
11750	0.50950	0.48085	0.32376	2.82615	2.38727	1.98847	9.48266	5.72891	2.71622	1.16367	1.05167	0.92963	2.07330	1.59951	1.25077	9.82561	6.31326	3.47010
11920	0.51961	0.48106	0.32892	2.81528	2.36075	1.96098	9.48924	5.76306	2.71779	1.12524	1.05024	0.89786	2.07099	1.59025	1.23294	9.83100	6.31593	3.45387
12080	0.50464	0.48081	0.35094	2.80299	2.32808	1.97370	9.48206	5.72848	2.71766	1.15943	1.01446	0.89032	2.06201	1.57611	1.21844	9.76456	6.28530	3.45175
12240	0.50440	0.46882	0.30990	2.80894	2.34338	1.95463	9.47371	5.74105	2.71895	1.14099	1.05519	0.89585	2.04326	1.57793	1.21204	9.79066	6.27824	3.43165
12410	0.50406	0.44851	0.30383	2.79063	2.33404	1.91436	9.44916	5.70830	2.71874	1.11213	1.04199	0.89490	2.03997	1.57141	1.20946	9.80737	6.30677	3.45462
12570	0.51023	0.44551	0.30380	2.80850	2.39423	1.97030	9.47632	5.70940	2.72048	1.14826	1.05872	0.92277	2.03713	1.58165	1.20929	9.82042	6.31980	3.46661
12730	0.50872	0.46926	0.31265	2.77155	2.33692	1.93273	9.48900	5.72466	2.70179	1.13318	1.02375	0.88719	2.05571	1.57657	1.23044	9.79742	6.29245	3.46941
12900	0.50326	0.44465	0.29688	2.80167	2.36993	1.93754	9.49915	5.75504	2.71626	1.15525	1.05540	0.91289	2.08113	1.58337	1.22880	9.85607	6.29764	3.47288
13060	0.51833	0.45645	0.31703	2.78221	2.33432	1.93987	9.47895	5.73269	2.71281	1.12529	1.03936	0.91811	2.07414	1.59184	1.22356	9.79695	6.29933	3.45547	28.40	6.0	0.00	7.74	0.01271	0.01290	0.01650	0.00784	0.00584	0.00641	0.00467	0.01266	0.01683	0.00682	0.00702	0.00893	0.01489	0.01095	0.01196	0.00218	0.00620	0.00872
13220	0.50128	0.45746	0.30299	2.77140	2.33364	1.92926	9.47658	5.71615	2.70774	1.12835	1.04044	0.89399	2.04994	1.57735	1.22868	9.79586	6.29690	3.47119
13390	0.49936	0.45749	0.29684	2.80278	2.36178	1.95523	9.48008	5.73643	2.69807	1.14357	1.03655	0.90447	2.04041	1.56899	1.20532	9.82593	6.29407	3.45203
13550	0.49063	0.45032	0.30695	2.77067	2.32550	1.91031	9.47569	5.71335	2.69853	1.11117	1.05199	0.94324	2.05423	1.57799	1.21660	9.83591	6.31226	3.42804
13710	0.50893	0.46695	0.31786	2.76442	2.34055	2.03964	9.49520	5.72791	2.71809	1.16172	1.09178	0.88742	2.06376	1.58031	1.22436	9.81915	6.29237	3.43347
13880	0.50813	0.47200	0.31652	2.82242	2.38158	1.98161	9.47409	5.73054	2.70935	1.20762	1.07428	0.95296	2.04278	1.57991	1.22301	9.81487	6.31396	3.48347
14040	0.50559	0.45417	0.30899	2.81561	2.39855	1.95543	9.48144	5.73939	2.71206	1.16032	1.04397	0.91515	2.05393	1.58763	1.22143	9.83092	6.34799	3.48016
14200	0.49987	0.46414	0.31932	2.80499	2.36288	1.94778	9.49882	5.74123	2.74204	1.16495	1.09133	0.89937	2.04468	1.57902	1.23526	9.84490	6.32698	3.53905
14370	0.53310	0.46886	0.31296	2.78250	2.36854	1.97248	9.49033	5.73920	2.72759	1.16464	1.13618	0.98475	2.05775	1.59210	1.23081	9.79267	6.33226	3.48831
14530	0.51649	0.47072	0.31179	2.78170	2.36358	1.96762	9.47611	5.73054	2.71264	1.15806	1.06646	0.92165	2.05671	1.58816	1.22259	9.81955	6.29746	3.50422
14690	0.51851	0.46323	0.31930	2.82035	2.42272	1.99776	9.46991	5.72838	2.71916	1.16272	1.09590	0.97198	2.06608	1.61326	1.23019	9.82015	6.34671	3.48615	28.34	6.1	0.00	7.43	0.01271	0.01290	0.01650	0.00784	0.00584	0.00641	0.00467	0.01265	0.01683	0.00682	0.00701	0.00893	0.01489	0.01095	0.01196	0.00218	0.00620	0.00872
14860	0.52030	0.49026	0.34973	2.83061	2.36642	1.98269	9.49053	5.73878	2.72863	1.17250	1.08179	0.96060	2.06503	1.61616	1.24024	9.82563	6.32819	3.51230
15020	0.53850	0.49609	0.34039	2.81972	2.38191	1.93934	9.49273	5.74499	2.73520	1.11356	1.05395	0.95452	2.07249	1.59744	1.23280	9.82304	6.32276	3.45469
15180	0.52378	0.47078	0.32257	2.82086	2.38999	1.97327	9.46772	5.72191	2.73752	1.12825	1.05113	0.90675	2.05939	1.57916	1.23059	9.79267	6.29146	3.45282
15350	0.50642	0.46429	0.30974	2.74721	2.32709	1.92389	9.50246	5.74234	2.69730	1.11210	1.02032	0.88981	2.06003	1.59406	1.22601	9.79546	6.28773	3.43632
15510	0.50085	0.45640	0.30665	2.77267	2.35199	1.92161	9.47127	5.74311	2.70477	1.12164	1.02513	0.88469	2.04751	1.58325	1.22638	9.79586	6.27995	3.40258
15670	0.48663	0.47084	0.30864	2.79827	2.33568	1.92196	9.47429	5.71841	2.70330	1.11694	0.98967	0.88077	2.03882	1.58109	1.24337	9.78423	6.29753	3.43334
15840	0.50154	0.45727	0.30662	2.79399	2.33458	1.92190	9.48591	5.74176	2.69837	1.14126	1.01993	0.86314	2.05617	1.58855	1.22271	9.80859	6.26569	3.42540
16000	0.51191	0.46696	0.31519	2.74104	2.30981	1.89632	9.48324	5.72797	2.72785	1.12237	1.04241	0.88136	2.05661	1.59191	1.21924	9.80879	6.27864	3.44350
16160	0.50448	0.45655	0.30632	2.76586	2.35097	1.94716	9.47968	5.73287	2.72174	1.11908	1.02350	0.89786	2.04568	1.59007	1.22389	9.83911	6.32675	3.44108
16330	0.53344	0.46570	0.31748	2.77415	2.39177	1.95007	9.46322	5.71178	2.69842	1.13029	1.03855	0.88390	2.06112	1.61179	1.23579	9.82124	6.29706	3.45220	28.34	6.0	0.00	7.33	0.01271	0.01290	0.01650	0.00784	0.00584	0.00641	0.00467	0.01266	0.01683	0.00682	0.00701	0.00893	0.01489	0.01095	0.01196	0.00218	0.00620	0.00872
16490	0.53143	0.46984	0.32176	2.79210	2.36797	1.95721	9.48804	5.72130	2.71930	1.11566	1.03679	0.93993	2.05236	1.58751	1.22053	9.82413	6.30279	3.46698
16650	0.49249	0.45502	0.31678	2.80404	2.37750	1.94157	9.50834	5.73739	2.70674	1.15917	1.08469	0.94896	2.05060	1.60211	1.22103	9.81985	6.29197	3.42833
16810	0.51473	0.47185	0.31281	2.77937	2.35832	1.94558	9.49160	5.72786	2.70789	1.15375	1.04456	0.88422	2.05093	1.57735	1.22808	9.80859	6.30607	3.44706
16980	0.50650	0.45850	0.30069	2.78840	2.33137	1.89828	9.50270	5.72907	2.72338	1.13640	1.03910	0.91292	2.04613	1.58183	1.22904	9.81566	6.31965	3.43794
17140	0.51418	0.45857	0.31503	2.77617	2.35513	1.94574	9.50810	5.72582	2.70064	1.13087	1.02933	0.93326	2.04967	1.58636	1.24589	9.83770	6.34049	3.50676
17300	0.50871	0.46379	0.30418	2.78512	2.36290	1.93044	9.47388	5.74534	2.72972	1.17682	1.04644	0.93292	2.06143	1.58053	1.22726	9.80222	6.30624	3.48913
17470	0.49977	0.51835	0.35139	2.91886	2.46806	2.17803	9.57535	5.77776	2.74485	1.57158	1.58837	1.23664	2.17469	1.68403	1.29005	10.03656	6.53318	3.67887
17630	0.71000	0.62604	0.48438	2.96544	2.53255	2.04896	9.57996	5.81918	2.83107	1.22005	1.10626	1.04385	2.19967	1.69590	1.29550	9.80222	6.37858	3.53494
17790	0.57744	0.48194	0.32982	2.84149	2.35557	1.94584	9.60536	5.76195	2.73770	1.13789	1.06696	0.92657	2.07942	1.59613	1.22363	9.81805	6.38008	3.48508
17960	0.52609	0.47313	0.31267	2.80460	2.37419	1.95260	9.48747	5.79384	2.74280	1.12563	1.03688	0.91910	2.06524	1.58846	1.21231	9.83662	6.30237	3.46205	28.34	6.2	0.00	6.75	0.01271	0.01290	0.01649	0.00784	0.00584	0.00641	0.00467	0.01265	0.01683	0.00682	0.00701	0.00893	0.01489	0.01095	0.01196	0.00218	0.00620	0.00872
18120	0.51012	0.46760	0.33069	2.81434	2.37967	1.93248	9.48255	5.73821	2.70653	1.18108	1.05851	0.93946	2.07494	1.60159	1.25294	9.83463	6.30978	3.46495
18280	0.50349	0.48287	0.30676	2.79584	2.35548	1.93327	9.51996	5.74587	2.71270	1.12485	1.04629	0.89127	2.07234	1.57340	1.21290	9.81917	6.30179	3.46241
18450	0.51336	0.47221	0.31507	2.81177	2.39036	1.95621	9.50628	5.72391	2.73436	1.11074	1.03719	0.90254	2.06291	1.60106	1.25784	9.82525	6.35063	3.46759
18610	0.52331	0.48446	0.35116	2.79248	2.35146	1.94541	9.50100	5.72935	2.72681	1.16987	1.02471	0.89631	2.08065	1.59063	1.23575	9.85991	6.33601	3.47225
18780	0.50515	0.45942	0.31134	2.76296	2.35199	1.91429	9.48237	5.72464	2.70772	1.10732	1.05326	0.91869	2.05493	1.58255	1.22154	9.80632	6.29135	3.45737
18940	0.52000	0.46502	0.31574	2.79609	2.36557	1.94639	9.48747	5.73350	2.72271	1.10715	1.03171	0.89836	2.06363	1.60333	1.23426	9.83872	6.30557	3.46797
19100	0.50790	0.46800	0.31171	2.80876	2.44040	1.95681	9.47686	5.73642	2.72342	1.15540	1.02711	0.91141	2.05700	1.59716	1.24322	9.82954	6.31337	3.46430
19270	0.53130	0.46858	0.31080	2.79741	2.34210	1.95916	9.48350	5.72732	2.72155	1.15482	1.06549	0.94223	2.07690	1.58371	1.22248	9.83004	6.33710	3.45120
19430	0.50212	0.44772	0.30648	2.76904	2.34795	1.93524	9.46283	5.72514	2.72315	1.13114	1.04318	0.89541	2.05203	1.58661	1.22203	9.83892	6.31231	3.46301
19600	0.50851	0.45373	0.30318	2.77311	2.32317	1.93429	9.48238	5.71401	2.69713	1.13740	1.03286	0.92411	2.03948	1.57982	1.21996	9.80712	6.28885	3.47007	28.40	6.1	0.00	7.36	0.01271	0.01290	0.01650	0.00784	0.00584	0.00641	0.00467	0.01266	0.01683	0.00682	0.00701	0.00893	0.01489	0.01095	0.01196	0.00218	0.00620	0.00872
19760	0.50701	0.46065	0.32597	2.79324	2.33731	1.91177	9.48765	5.74371	2.71313	1.14290	1.06139	0.90078	2.07253	1.60956	1.23021	9.81449	6.34165	3.48618
19920	0.51717	0.47304	0.31661	2.84300	2.36664	1.92099	9.48125	5.76781	2.72103	1.12791	1.02002	0.90779	2.04719	1.59480	1.22462	9.84321	6.31239	3.46794
20090	0.51615	0.47210	0.32375	2.79606	2.37373	1.94523	9.47213	5.73205	2.72098	1.13850	1.03831	0.90630	2.06230	1.58905	1.24115	9.84321	6.31392	3.45885
20250	0.49830	0.45432	0.32993	2.80536	2.35281	1.96558	9.49145	5.73173	2.71018	1.13900	1.07836	0.92409	2.06608	1.60275	1.23858	9.82993	6.30192	3.50777
20410	0.51150	0.46569	0.30463	2.83319	2.36311	1.98852	9.46817	5.71257	2.70997	1.17470	1.08979	0.93222	2.07086	1.57480	1.22609	9.86230	6.34338	3.44189
20580	0.51266	0.46593	0.32175	2.79409	2.35589	1.94346	9.48688	5.72819	2.72751	1.15284	1.04180	0.90033	2.05891	1.60476	1.25826	9.81718	6.34904	3.44949
20740	0.50403	0.46017	0.32782	2.81067	2.36447	1.98107	9.50457	5.73994	2.71289	1.17503	1.09634	0.91108	2.06562	1.58662	1.22569	9.86841	6.35335	3.43495
20910	0.50841	0.45363	0.30938	2.79626	2.36746	1.95375	9.47166	5.71540	2.70578	1.11773	1.02439	0.90310	2.07056	1.57531	1.22818	9.81718	6.31524	3.47072
21070	0.51412	0.46784	0.32416	2.81401	2.35415	1.95870	9.48504	5.72922	2.70821	1.11406	1.07251	0.95731	2.05908	1.58300	1.22834	9.80752	6.30914	3.45172
21230	0.49756	0.47482	0.32568	2.78357	2.35434	1.97844	9.47390	5.71993	2.69994	1.14255	1.05137	0.93745	2.05967	1.58069	1.23672	9.84972	6.30820	3.45696	28.40	6.1	0.00	7.36	0.01271	0.01290	0.01650	0.00784	0.00584	0.00641	0.00467	0.01266	0.01683	0.00682	0.00702	0.00893	0.01489	0.01095	0.01196	0.00218	0.00620	0.00872
21400	0.50853	0.45250	0.31663	2.78168	2.38354	1.95147	9.47485	5.77131	2.73370	1.14952	1.06266	0.94127	2.07261	1.57996	1.22405	9.86282	6.33152	3.46947
21560	0.51551	0.46277	0.30806	2.82219	2.36726	1.92445	9.48000	5.72195	2.70573	1.13392	1.03509	0.90726	2.04434	1.57862	1.22351	9.85601	6.34078	3.47399
21730	0.51502	0.47272	0.31592	2.77601	2.34983	1.93233	9.48457	5.72963	2.70944	1.16346	1.06710	0.91287	2.03951	1.57486	1.21407	9.83584	6.28303	3.45295
21890	0.51433	0.46368	0.32233	2.76217	2.32793	1.92788	9.49874	5.74690	2.70803	1.12229	1.01911	0.86750	2.07252	1.58849	1.23024	9.78468	6.28577	3.44817
22050	0.53293	0.47928	0.31665	2.78508	2.34840	1.92531	9.49097	5.71751	2.70573	1.13292	1.06237	0.93114	2.06531	1.58714	1.22671	9.83594	6.31471	3.43795
22220	0.51704	0.47617	0.33073	2.76614	2.34078	1.96364	9.47526	5.73324	2.70626	1.13026	1.02453	0.88803	2.05044	1.58216	1.21599	9.83594	6.27168	3.44023
22380	0.50272	0.45474	0.30525	2.79335	2.34540	1.91916	9.48836	5.71223	2.70499	1.12929	1.01987	0.90840	2.05640	1.60119	1.23190	9.84382	6.31082	3.42905
22550	0.50074	0.46871	0.32058	2.78025	2.35662	1.92342	9.47290	5.74712	2.70504	1.11873	1.03446	0.89861	2.06928	1.58011	1.22636	9.83614	6.29094	3.46242
22710	0.51225	0.45030	0.30836	2.79028	2.34039	1.92696	9.47574	5.71917	2.70097	1.11202	1.04128	0.89559	2.06467	1.58457	1.23724	9.81421	6.29681	3.46267
22880	0.50311	0.46817	0.32409	2.78723	2.37089	1.98501	9.50058	5.72427	2.70056	1.15031	1.02947	0.89443	2.04016	1.58464	1.20513	9.82409	6.28912	3.45391	28.40	6.1	0.00	7.39	0.01271	0.01290	0.01650	0.00784	0.00584	0.00641	0.00467	0.01266	0.01684	0.00682	0.00702	0.00893	0.01489	0.01095	0.01196	0.00218	0.00620	0.00872
23040	0.49671	0.45831	0.31836	2.80112	2.40570	1.96651	9.49803	5.73801	2.72282	1.15573	1.04540	0.89414	2.04858	1.58193	1.22068	9.77846	6.29252	3.44082
23200	0.50464	0.46513	0.31367	2.78643	2.34328	1.95081	9.49162	5.71906	2.70049	1.13843	1.06876	0.93906	2.07253	1.58704	1.22778	9.86364	6.32014	3.47249
23370	0.53079	0.45429	0.32364	2.79419	2.38536	1.94079	9.47355	5.72819	2.71153	1.14460	1.03170	0.91754	2.06309	1.59451	1.23932	9.80995	6.28136	3.44567
23530	0.51716	0.47319	0.33271	2.81400	2.33612	1.91164	9.49827	5.73840	2.71367	1.10615	1.02813	0.89623	2.06324	1.58680	1.22481	9.82399	6.29620	3.43997
23690	0.53306	0.45762	0.31766	2.78906	2.37370	1.95133	9.50735	5.72596	2.71265	1.10334	1.02579	0.90117	2.04695	1.58605	1.21932	9.80866	6.30839	3.43215
23860	0.50655	0.45209	0.30514	2.79381	2.33019	1.91035	9.47941	5.72883	2.69372	1.12554	1.05069	0.90044	2.05366	1.57025	1.22243	9.80796	6.28939	3.47374
24020	0.51008	0.47066	0.30377	2.79250	2.36579	1.96047	9.47977	5.72267	2.71249	1.15076	1.07829	0.92697	2.04220	1.59432	1.23423	9.80239	6.29278	3.44617
24180	0.52241	0.46630	0.32641	2.79282	2.37116	1.96567	9.50510	5.73758	2.71693	1.14528	1.06322	0.90195	2.05258	1.58584	1.22000	9.82200	6.31885	3.47040
24350	0.51219	0.46088	0.31844	2.77238	2.35379	1.96538	9.47373	5.73021	2.71829	1.11871	1.03512	0.93950	2.04807	1.58042	1.22009	9.84295	6.31099	3.45031
24510	0.50735	0.45784	0.30924	2.82642	2.38483	1.94394	9.46867	5.72069	2.70334	1.12669	1.02901	0.87064	2.05831	1.57490	1.23159	9.83837	6.30426	3.44221	28.34	6.3	0.00	7.39	0.01271	0.01290	0.01650	0.00784	0.00584	0.00641	0.00467	0.01266	0.01684	0.00682	0.00702	0.00893	0.01489	0.01095	0.01196	0.00218	0.00620	0.00872
24670	0.49655	0.46901	0.30685	2.81370	2.35618	1.93573	9.47027	5.71909	2.71319	1.11838	1.01505	0.88970	2.04432	1.57374	1.23107	9.82361	6.30875	3.46329
24840	0.50962	0.47041	0.30824	2.81018	2.38475	1.94735	9.46785	5.74257	2.70894	1.15665	1.07037	0.91683	2.05170	1.58095	1.21982	9.83079	6.33861	3.46484
25000	0.49853	0.45064	0.32554	2.78400	2.36739	1.95399	9.50222	5.72309	2.70342	1.13996	1.07192	0.89325	2.05791	1.59173	1.22293	9.84706	6.31201	3.43445
25170	0.52617	0.48427	0.32658	2.78459	2.35379	1.93084	9.49095	5.73664	2.72367	1.11859	1.05715	0.92969	2.06565	1.60157	1.23325	9.83937	6.30059	3.49405
25330	0.51222	0.46416	0.30829	2.79726	2.36012	1.93058	9.47607	5.73703	2.72498	1.14525	1.07955	0.91300	2.05734	1.59536	1.24798	9.88029	6.32741	3.48572
25490	0.50624	0.47014	0.32249	2.82544	2.36369	1.94838	9.51481	5.74174	2.72057	1.12891	1.05162	0.91144	2.07121	1.60332	1.23911	9.82720	6.28676	3.43639
25660	0.51448	0.46913	0.31471	2.82527	2.33735	1.96283	9.47714	5.72685	2.71474	1.12643	1.03491	0.91329	2.07963	1.60122	1.22844	9.78917	6.32261	3.45318
25820	0.50592	0.46347	0.32040	2.80701	2.36974	1.91841	9.49415	5.73622	2.72036	1.11610	1.03055	0.88830	2.06684	1.58752	1.22240	9.81803	6.27682	3.45903
25980	0.52897	0.47115	0.32163	2.78535	2.35386	1.95341	9.48946	5.72812	2.71003	1.12949	1.04953	0.89836	2.05763	1.58429	1.22906	9.83388	6.31099	3.47629
26150	0.51878	0.47287	0.32141	2.79132	2.36125	1.94879	9.48910	5.72806	2.71556	1.14593	1.04090	0.90271	2.06027	1.59219	1.21606	9.80262	6.29932	3.46352	28.40	6.0	0.00	7.44	0.01271	0.01290	0.01649	0.00784	0.00584	0.00641	0.00467	0.01266	0.01683	0.00682	0.00702	0.00893	0.01489	0.01095	0.01196	0.00218	0.00620	0.00872
26310	0.50696	0.46486	0.33243	2.78804	2.35277	1.94068	9.50976	5.74040	2.73553	1.12652	1.04656	0.91039	2.07269	1.59783	1.23600	9.81466	6.29350	3.45398
26470	0.52899	0.46438	0.31057	2.80929	2.37284	1.97056	9.47546	5.72393	2.72077	1.14663	1.04735	0.89810	2.05279	1.57713	1.20898	9.78989	6.32390	3.44636
26640	0.51373	0.47075	0.30739	2.78910	2.38508	1.97284	9.47730	5.74473	2.71189	1.16123	1.03808	0.91204	2.07188	1.62032	1.23446	9.83300	6.33410	3.49456
26800	0.51051	0.46715	0.31872	2.81823	2.36372	1.95921	9.48044	5.73298	2.72412	1.15989	1.05128	0.98205	2.06756	1.58651	1.22162	9.83460	6.31045	3.47467
26960	0.51786	0.46094	0.31689	2.78779	2.37929	1.99986	9.48370	5.74503	2.72648	1.17076	1.09087	0.92521	2.07938	1.62741	1.25987	9.87750	6.33510	3.49220
27130	0.53663	0.48020	0.33978	2.85787	2.43162	2.00544	9.52391	5.74989	2.71443	1.16029	1.06259	0.96557	2.07015	1.61158	1.24781	9.82692	6.32495	3.48766
27290	0.53411	0.48481	0.33875	2.79129	2.37255	1.97317	9.50328	5.76165	2.73987	1.16275	1.04397	0.94321	2.06957	1.60165	1.23830	9.83300	6.33101	3.46656
27450	0.52041	0.47107	0.32526	2.78087	2.34374	1.91459	9.47866	5.73816	2.71877	1.14991	1.02276	0.89587	2.05463	1.58954	1.23052	9.81476	6.31094	3.46516
27620	0.49871	0.45756	0.30324	2.76130	2.31910	1.91741	9.47546	5.72127	2.70923	1.10193	1.02189	0.88075	2.05065	1.59951	1.22459	9.79138	6.29804	3.42291
27780	0.50972	0.46531	0.31962	2.77298	2.34623	1.93542	9.47137	5.70866	2.70025	1.13754	1.05209	0.91783	2.04807	1.58265	1.22786	9.81428	6.29095	3.43720	28.40	6.0	0.00	7.76	0.01271	0.01290	0.01649	0.00784	0.00584	0.00641	0.00467	0.01266	0.01683	0.00682	0.00702	0.00893	0.01489	0.01095	0.01196	0.00218	0.00620	0.00872
27940	0.50983	0.45602	0.31074	2.79082	2.34149	1.92392	9.48144	5.72652	2.70295	1.13264	1.04740	0.92604	2.06925	1.58241	1.23502	9.82544	6.33297	3.46140
28110	0.51607	0.46777	0.32383	2.84186	2.38651	2.04415	9.51510	5.72249	2.72634	1.16672	1.05320	0.94197	2.06141	1.59204	1.22467	9.86719	6.31180	3.51195
28270	0.51070	0.47131	0.31835	2.83648	2.40101	1.95353	9.51076	5.74954	2.72543	1.17633	1.07938	0.93396	2.08149	1.59828	1.24422	9.90972	6.33434	3.48511
28430	0.53396	0.47405	0.33396	2.82256	2.39796	1.98673	9.50577	5.72681	2.72613	1.18153	1.07403	0.93257	2.06599	1.60357	1.25747	9.83611	6.29541	3.48738
28600	0.53153	0.47276	0.32900	2.82412	2.34905	1.95363	9.47783	5.72811	2.69513	1.15030	1.06429	0.90567	2.04355	1.56805	1.21357	9.81468	6.28915	3.42615
28760	0.50150	0.45499	0.30885	2.77906	2.34184	1.94864	9.50850	5.74300	2.71654	1.11120	1.03675	0.90609	2.06312	1.59184	1.23049	9.83831	6.30869	3.47319
28930	0.51301	0.45835	0.30982	2.80447	2.36445	1.93444	9.48968	5.71514	2.71781	1.15162	1.06083	0.92412	2.06149	1.58341	1.23085	9.83043	6.32569	3.46833
29090	0.52722	0.48233	0.31792	2.80372	2.35863	1.95628	9.49852	5.75159	2.71585	1.13148	1.02875	0.90291	2.05718	1.58067	1.22889	9.80990	6.31161	3.46027
29250	0.50027	0.46473	0.31551	2.75553	2.33054	1.95809	9.49900	5.72653	2.70556	1.12317	1.01832	0.93353	2.06039	1.58998	1.22832	9.86549	6.32635	3.47989
29420	0.51281	0.45389	0.30711	2.80728	2.37368	1.92969	9.48887	5.74814	2.72552	1.14090	1.01917	0.88210	2.04949	1.57856	1.24231	9.81700	6.30271	3.43726	28.40	6.3	0.00	7.49	0.01271	0.01289	0.01649	0.00784	0.00584	0.00641	0.00467	0.01265	0.01683	0.00682	0.00702	0.00893	0.01489	0.01095	0.01196	0.00218	0.00620	0.00872
29580	0.51335	0.46013	0.31958	2.82352	2.33917	1.93452	9.50312	5.71913	2.71138	1.15923	1.05575	0.92596	2.08329	1.60691	1.23088	9.83035	6.32473	3.45860
29750	0.53092	0.46533	0.31787	2.82984	2.33125	1.97267	9.49083	5.73379	2.70857	1.13134	1.06102	0.93332	2.05583	1.58199	1.23507	9.83933	6.29465	3.46426
29910	0.51712	0.46951	0.32244	2.78963	2.34857	1.93828	9.50805	5.75791	2.72935	1.14310	1.08545	0.90556	2.07735	1.58629	1.23978	9.81043	6.33945	3.45407
30070	0.50483	0.46441	0.31267	2.82335	2.35960	1.93369	9.51078	5.74789	2.72348	1.13623	1.05225	0.92657	2.05357	1.59090	1.25827	9.81560	6.30246	3.48498
30240	0.52017	0.47981	0.34117	2.80039	2.42168	1.96202	9.48650	5.73603	2.71138	1.13207	1.04878	0.94119	2.05436	1.57721	1.23763	9.81531	6.29215	3.42370
30400	0.53244	0.49416	0.32052	2.77080	2.36895	1.96814	9.48229	5.75361	2.71926	1.13592	1.03830	0.91728	2.06539	1.59159	1.25026	9.87894	6.29372	3.47916
30570	0.51184	0.45495	0.31799	2.77000	2.35537	1.94552	9.49065	5.71850	2.71798	1.13183	1.03927	0.89159	2.06054	1.59811	1.21723	9.81282	6.28027	3.46833
30730	0.50850	0.45619	0.30802	2.78112	2.31937	1.94655	9.50241	5.72958	2.71951	1.14009	1.04893	0.89568	2.06051	1.58343	1.22157	9.82457	6.29246	3.43316
30890	0.50924	0.46355	0.30935	2.81667	2.33694	1.94421	9.48306	5.74021	2.71249	1.17489	1.08986	0.95734	2.04995	1.58282	1.22722	9.87623	6.34293	3.49024
31060	0.53782	0.48608	0.33144	2.80700	2.42858	1.96973	9.50921	5.75084	2.72363	1.18410	1.12693	0.97994	2.09877	1.60178	1.23993	9.89885	6.28950	3.48889	28.40	6.0	0.00	7.80	0.01271	0.01289	0.01649	0.00784	0.00584	0.00641	0.00467	0.01265	0.01683	0.00682	0.00702	0.00893	0.01489	0.01094	0.01196	0.00218	0.00620	0.00872
31220	0.53660	0.47094	0.32245	2.85946	2.41307	1.99463	9.52664	5.74864	2.73284	1.20022	1.09811	0.95179	2.07379	1.59261	1.24324	9.86477	6.32810	3.49032
31390	0.51548	0.47011	0.31847	2.82588	2.39484	2.01541	9.49953	5.73708	2.71876	1.16576	1.07594	0.91632	2.09468	1.60795	1.23774	9.87468	6.31810	3.49990
31550	0.53346	0.48670	0.33904	2.81338	2.35433	1.97045	9.49057	5.73616	2.71977	1.16284	1.04716	0.88727	2.06056	1.59027	1.24996	9.85607	6.34433	3.44774
31710	0.52487	0.47930	0.31765	2.80784	2.40351	1.98352	9.47995	5.73025	2.69478	1.16360	1.08276	0.94085	2.06140	1.59478	1.24000	9.88440	6.36350	3.51837
31880	0.52737	0.49346	0.33921	2.87899	2.39110	2.00052	9.51873	5.79129	2.77342	1.21411	1.12625	1.01252	2.09724	1.62668	1.26698	9.90458	6.37595	3.56141
32040	0.56421	0.52450	0.37366	2.90889	2.43296	2.00782	9.53748	5.78105	2.74039	1.32530	1.18687	1.05113	2.10165	1.62318	1.25014	9.92137	6.38344	3.51259
32210	0.54621	0.49255	0.35139	2.91518	2.44376	2.04314	9.50743	5.75992	2.75115	1.22341	1.12425	0.99903	2.09321	1.61381	1.25862	9.89735	6.36768	3.50186
32370	0.54062	0.47849	0.33398	2.84145	2.37081	1.95825	9.51813	5.74694	2.74088	1.17103	1.08330	0.94946	2.06311	1.58919	1.23228	9.84777	6.28307	3.45229
32540	0.52080	0.49078	0.37165	2.84612	2.42671	1.95949	9.49721	5.73505	2.72962	1.18097	1.11068	0.94753	2.05868	1.59298	1.25127	9.83330	6.31099	3.49295
32700	0.51951	0.46939	0.32400	2.81191	2.38853	1.95021	9.50868	5.74529	2.74006	1.17423	1.10143	0.98213	2.06994	1.59475	1.26758	9.99115	6.53969	3.76096	28.40	6.0	0.00	7.41	0.01271	0.01289	0.01649	0.00784	0.00584	0.00640	0.00467	0.01265	0.01683	0.00682	0.00701	0.00893	0.01489	0.01094	0.01196	0.00218	0.00620	0.00872
32860	0.57117	0.56692	0.47947	3.16759	2.98910	2.49378	9.74210	6.01012	2.99038	2.12892	2.16488	2.24981	2.51191	1.98315	1.72741	11.05984	7.38087	4.65455
33030	1.12069	1.09419	0.92105	4.28364	3.77344	3.24476	10.16343	6.26830	3.25621	2.65111	2.42791	2.32882	2.63764	2.18564	1.80875	10.90572	7.31507	4.61024
33190	1.01743	0.98238	0.80580	3.84525	3.50576	2.83987	10.02568	6.16314	3.22933	2.32894	2.04720	1.74403	2.50138	2.04318	1.75964	10.78100	7.28624	4.44685
33350	0.90587	0.91537	0.76003	3.90405	3.22022	2.73196	10.02887	6.21289	3.05373	2.01262	1.81571	1.61175	2.41415	1.98198	1.55493	10.45469	7.09827	4.07118
33520	0.79935	0.70188	0.55246	3.33757	2.73592	2.36840	9.83082	6.01298	2.95224	1.64315	1.45738	1.28378	2.25328	1.79562	1.43472	10.20029	6.65501	3.70622
33680	0.70111	0.65439	0.51024	3.13398	2.64218	2.22854	9.63186	5.85534	2.85521	1.49501	1.32099	1.14584	2.18080	1.73070	1.37266	10.05317	6.46083	3.58003
33850	0.61384	0.60020	0.43498	2.93743	2.46562	2.08795	9.58109	5.85739	2.76874	1.24237	1.12976	0.99747	2.12460	1.62876	1.27095	9.86916	6.31631	3.47736
34010	0.54157	0.49491	0.34648	2.83501	2.38119	1.94962	9.50505	5.73756	2.72681	1.15933	1.08749	0.93643	2.07235	1.59596	1.23242	9.80846	6.32879	3.45543
34170	0.53653	0.48961	0.32319	2.81326	2.36024	1.97803	9.46965	5.73125	2.72985	1.11000	1.05051	0.92555	2.08070	1.58598	1.23405	9.86045	6.30972	3.45799
34340	0.53592	0.46333	0.32242	2.81164	2.38887	1.95585	9.47772	5.75577	2.72218	1.15441	1.05065	0.92692	2.04749	1.57694	1.22793	9.83463	6.30686	3.44155	28.40	6.0	0.00	7.79	0.01271	0.01289	0.01649	0.00784	0.00584	0.00641	0.00467	0.01265	0.01683	0.00682	0.00702	0.00893	0.01489	0.01094	0.01196	0.00218	0.00620	0.00871
34500	0.51101	0.47028	0.32324	2.81575	2.37516	1.95384	9.47493	5.73822	2.70863	1.13496	1.05280	0.92297	2.05416	1.56995	1.21451	9.82167	6.31627	3.48459
34670	0.49797	0.44604	0.33070	2.80727	2.37939	1.95148	9.47552	5.72473	2.72766	1.11869	1.05595	0.90846	2.05353	1.58833	1.21981	9.81689	6.29698	3.45472
34830	0.50998	0.46398	0.31082	2.79614	2.34761	1.94712	9.47677	5.72715	2.70327	1.13784	1.03605	0.88745	2.06677	1.58887	1.22167	9.80605	6.31583	3.46069
34990	0.50502	0.45329	0.31169	2.77910	2.31721	1.92309	9.47274	5.71946	2.71506	1.14523	1.01929	0.89463	2.05012	1.58099	1.23240	9.87231	6.32228	3.48058
35160	0.52066	0.47807	0.32349	2.83799	2.38835	1.99642	9.50127	5.74193	2.71701	1.19120	1.06619	0.97083	2.07711	1.60408	1.22689	9.85300	6.39494	3.47266
35320	0.52811	0.48484	0.34716	2.82258	2.35278	1.99902	9.48536	5.74473	2.72257	1.18162	1.08286	0.93562	2.08491	1.59230	1.22751	9.85850	6.35987	3.47394
35480	0.51286	0.48498	0.34099	2.83094	2.38065	1.98631	9.49367	5.73481	2.72155	1.17566	1.07821	0.92920	2.08705	1.59428	1.23411	9.86460	6.34747	3.45384
35650	0.51188	0.46445	0.31573	2.79097	2.40105	1.98555	9.48412	5.71031	2.70336	1.16945	1.05914	0.94631	2.05379	1.57791	1.22018	9.85470	6.29598	3.46273
35810	0.51887	0.45300	0.30583	2.79310	2.40471	2.00381	9.46220	5.71258	2.71090	1.16101	1.12079	0.93346	2.06130	1.59897	1.23334	9.82486	6.32576	3.46381
35970	0.52484	0.47128	0.33255	2.80348	2.34335	1.92066	9.51964	5.74278	2.71337	1.15565	1.06727	0.95123	2.04758	1.57675	1.22313	9.82981	6.33507	3.46166	28.40	6.3	0.00	7.39	0.01271	0.01289	0.01649	0.00784	0.00584	0.00640	0.00467	0.01265	0.01683	0.00682	0.00702	0.00893	0.01489	0.01095	0.01196	0.00218	0.00620	0.00871
36140	0.50407	0.46007	0.31979	2.78892	2.37548	1.99047	9.46327	5.72479	2.70377	1.16488	1.08577	0.95302	2.06802	1.61224	1.22715	9.87540	6.41868	3.51536
36300	0.51447	0.47919	0.33765	2.86420	2.50206	2.11235	9.50727	5.76033	2.79092	1.29706	1.21957	1.07499	2.11159	1.65371	1.29069	10.00297	6.43929	3.61201
36460	0.55506	0.51390	0.35012	2.94185	2.43390	2.08595	9.56424	5.79347	2.78362	1.27970	1.17155	1.04852	2.10965	1.65733	1.27741	9.85318	6.47764	3.60572
36630	0.58777	0.50061	0.35491	2.87099	2.44360	2.03515	9.52958	5.76530	2.76555	1.20053	1.09658	0.99224	2.10044	1.60772	1.24464	9.85598	6.32721	3.46483
36790	0.53793	0.48962	0.33060	2.82937	2.43140	1.98417	9.49224	5.75789	2.74824	1.19870	1.16882	1.05148	2.06186	1.62781	1.26334	9.89948	6.41949	3.58075
36950	0.55575	0.50497	0.38226	2.90590	2.45438	2.07297	9.57309	5.79783	2.76399	1.29143	1.18381	1.01777	2.13393	1.62098	1.31999	9.86559	6.38752	3.53531
37120	0.55396	0.53580	0.35041	2.93722	2.46440	2.00428	9.51702	5.79711	2.77958	1.25607	1.12157	0.97878	2.08999	1.61546	1.24578	9.88432	6.34651	3.50583
37280	0.54049	0.47859	0.33792	2.84031	2.37723	1.93699	9.47606	5.74924	2.71420	1.16512	1.04419	0.91293	2.05968	1.60791	1.23744	9.84579	6.34041	3.50075
37440	0.50867	0.46489	0.32830	2.81888	2.39396	1.94544	9.51910	5.73753	2.72040	1.18015	1.09198	0.94899	2.07587	1.59278	1.24305	9.81496	6.32877	3.49061
37610	0.52817	0.46545	0.31235	2.80415	2.38292	1.97463	9.47885	5.72289	2.72894	1.12294	1.05504	0.93619	2.08077	1.59671	1.23181	9.84463	6.30391	3.47453	28.40	6.0	0.00	6.53	0.01271	0.01290	0.01649	0.00784	0.00584	0.00640	0.00467	0.01265	0.01683	0.00682	0.00701	0.00893	0.01489	0.01095	0.01196	0.00218	0.00620	0.00872
37770	0.51600	0.47696	0.32254	2.81971	2.37413	1.97613	9.53583	5.74496	2.72178	1.18444	1.06095	0.91714	2.06001	1.59709	1.22647	9.83046	6.37559	3.54862
37930	0.51693	0.47060	0.32114	2.83712	2.40375	1.99076	9.48128	5.74344	2.73586	1.14622	1.08692	0.94274	2.06177	1.59660	1.23291	9.84203	6.33872	3.48611
38100	0.52078	0.46770	0.31041	2.79609	2.34766	1.94480	9.49676	5.73184	2.70951	1.16772	1.05045	0.92774	2.06869	1.59878	1.23575	9.84443	6.33485	3.46143
38260	0.52165	0.47900	0.32943	2.81875	2.39353	1.97495	9.47554	5.73126	2.72537	1.15419	1.07637	0.94818	2.04944	1.59286	1.22442	9.86963	6.33159	3.46106
38420	0.51125	0.46513	0.32204	2.81943	2.37057	1.96482	9.48051	5.73700	2.71610	1.17201	1.08406	0.91993	2.06735	1.60169	1.24836	9.82427	6.30442	3.52170
38590	0.53263	0.48060	0.32594	2.79175	2.36643	1.98395	9.47962	5.71180	2.72289	1.14091	1.07254	0.93724	2.06741	1.59356	1.23070	9.85052	6.31820	3.50556
38750	0.49855	0.46616	0.31127	2.83414	2.39891	2.00046	9.48300	5.73127	2.72086	1.12896	1.06176	0.91840	2.06579	1.61021	1.23571	9.84014	6.31341	3.45517
38910	0.50993	0.46994	0.31302	2.79374	2.35026	1.95643	9.47720	5.71602	2.71697	1.13563	1.02404	0.88711	2.05879	1.58834	1.21656	9.81630	6.30158	3.44184
39080	0.50089	0.46188	0.32906	2.80645	2.36166	1.96732	9.46175	5.72198	2.70561	1.12703	1.05683	0.93658	2.06339	1.57560	1.23005	9.79968	6.30524	3.47153
39240	0.51802	0.47274	0.31490	2.81358	2.38624	1.97766	9.50824	5.73676	2.72621	1.20861	1.17550	1.04227	2.12048	1.60610	1.29749	10.03634	6.63786	3.77968	28.40	6.1	0.00	7.43	0.01271	0.01290	0.01649	0.00784	0.00584	0.00640	0.00467	0.01266	0.01683	0.00682	0.00701	0.00892	0.01489	0.01095	0.01196	0.00218	0.00620	0.00872
39400	0.62123	0.61959	0.54006	3.28203	2.89423	2.55154	9.76343	6.02848	3.00383	1.80610	1.93618	1.84264	2.43692	1.97191	1.64907	10.77792	7.06581	4.44456
39570	0.98283	0.96629	0.88299	3.91735	3.26973	2.85183	9.97089	6.06800	3.15754	2.07555	1.75552	1.62064	2.49400	2.02708	1.60283	10.42933	6.91622	3.99130
39730	0.80297	0.75837	0.56763	3.55695	3.04745	2.70725	9.78393	6.01823	3.01126	1.54530	1.58575	1.47272	2.26968	1.84465	1.43035	10.24202	6.73491	3.80715
39900	0.70310	0.67294	0.51695	3.20941	2.70575	2.41493	9.65662	5.86545	2.88149	1.52558	1.45854	1.27419	2.22415	1.74336	1.36087	10.11964	6.49145	3.76788
40060	0.61628	0.60516	0.44287	2.97696	2.58387	2.13037	9.56807	5.84282	2.78722	1.33739	1.23192	1.10456	2.16797	1.67253	1.34153	9.96949	6.52360	3.56352
40220	0.59469	0.52034	0.37698	2.90012	2.48520	2.01581	9.54342	5.79233	2.76490	1.20301	1.10511	1.04646	2.12638	1.66098	1.26753	9.83491	6.34979	3.47943
40390	0.52776	0.50215	0.35379	2.81684	2.39999	1.99561	9.53043	5.75834	2.74241	1.22222	1.09867	0.99877	2.08941	1.63583	1.25501	9.86308	6.34953	3.52143
40550	0.52977	0.49642	0.33344	2.86559	2.37834	1.98976	9.50141	5.73686	2.72168	1.19658	1.09316	0.94665	2.05307	1.58824	1.22835	9.84579	6.31601	3.50158
40720	0.51193	0.46910	0.30900	2.80593	2.37897	1.99043	9.51418	5.74015	2.71047	1.16596	1.07402	0.93646	2.07726	1.60801	1.23509	9.87409	6.36611	3.47621
40880	0.52786	0.46313	0.31582	2.78532	2.32716	1.93747	9.47535	5.72563	2.71674	1.14035	1.04125	0.92130	2.05744	1.59615	1.23436	9.80302	6.28640	3.45970	28.46	6.0	0.00	7.39	0.01271	0.01290	0.01649	0.00784	0.00584	0.00640	0.00467	0.01266	0.01684	0.00682	0.00701	0.00893	0.01489	0.01095	0.01196	0.00218	0.00620	0.00872
41040	0.49901	0.46061	0.30838	2.82340	2.33624	1.91067	9.47807	5.72397	2.69633	1.17540	1.05445	0.91478	2.05903	1.57950	1.22425	9.83162	6.30526	3.48207
41210	0.53752	0.48286	0.32860	2.82351	2.38370	1.94750	9.47541	5.72589	2.71084	1.20716	1.05504	0.91548	2.07007	1.57782	1.21887	9.85550	6.32203	3.49326
41370	0.51561	0.47106	0.31916	2.79080	2.38088	1.94441	9.45317	5.71992	2.71739	1.15325	1.04366	0.92878	2.06387	1.57104	1.23076	9.81606	6.31186	3.48905
41540	0.49889	0.46016	0.31075	2.80448	2.32774	1.94067	9.47926	5.73674	2.73190	1.15076	1.07673	0.91280	2.06428	1.59720	1.23043	9.83930	6.29339	3.43605
41700	0.50733	0.46436	0.32633	2.81256	2.33292	1.95280	9.47961	5.71466	2.71811	1.13661	1.04211	0.93008	2.05753	1.59938	1.21791	9.84610	6.34019	3.47356
41870	0.52137	0.47807	0.31478	2.78999	2.36627	1.96320	9.48922	5.73442	2.72569	1.14013	1.04594	0.91487	2.05844	1.58561	1.22259	9.83282	6.30751	3.46728
42030	0.50885	0.45809	0.31376	2.80379	2.34351	1.95365	9.48667	5.72437	2.71857	1.14113	1.08054	0.94217	2.07877	1.57887	1.23788	9.81387	6.33125	3.48546
42200	0.51878	0.47478	0.33886	2.83819	2.43769	2.00343	9.49996	5.74531	2.74904	1.23354	1.14810	0.98657	2.08997	1.61737	1.26429	9.92345	6.47441	3.63448
42360	0.59606	0.54737	0.38166	3.01956	2.54041	2.19783	9.59923	5.77078	2.82946	1.51585	1.39915	1.24876	2.24544	1.75291	1.38836	10.18745	6.76350	3.85256
42520	0.69209	0.64050	0.48270	3.23159	2.77326	2.46793	9.66409	5.91990	2.93905	1.77971	1.66212	1.40624	2.29758	1.82466	1.44142	10.30309	6.84459	3.98229	28.46	6.2	0.00	7.44	0.01271	0.01290	0.01649	0.00784	0.00584	0.00641	0.00467	0.01266	0.01684	0.00682	0.00701	0.00893	0.01489	0.01095	0.01196	0.00218	0.00620	0.00872
42690	0.71756	0.70808	0.51617	3.25922	2.79201	2.40312	9.78441	5.97820	3.00069	1.61371	1.42985	1.25667	2.30973	1.80217	1.44020	10.16098	6.62935	3.81558
42850	0.73059	0.66487	0.51245	3.22410	2.65631	2.25484	9.64552	5.90014	2.84487	1.54027	1.38423	1.23372	2.18512	1.71589	1.36476	10.01466	6.56060	3.66867
43020	0.63807	0.54982	0.41858	3.02732	2.60875	2.21218	9.59595	5.83194	2.83362	1.26921	1.26272	1.06597	2.14774	1.73011	1.34540	9.96410	6.46129	3.65764
43180	0.56817	0.52519	0.37417	2.97060	2.49186	2.07113	9.52952	5.80437	2.77472	1.22864	1.13583	1.01397	2.10127	1.64688	1.26527	9.92476	6.40346	3.52572
43340	0.53744	0.52387	0.36165	2.89918	2.45697	2.03972	9.51500	5.76551	2.73440	1.23109	1.19603	1.02224	2.06779	1.61145	1.27269	9.89480	6.38043	3.50518
43510	0.52884	0.49035	0.32897	2.81693	2.40191	2.01617	9.51161	5.72967	2.72543	1.18511	1.11929	0.94297	2.07897	1.59742	1.22806	9.82729	6.33599	3.46929
43670	0.53353	0.47980	0.31117	2.80282	2.42332	1.96508	9.48052	5.74383	2.73939	1.13432	1.04922	0.91760	2.06068	1.59234	1.21531	9.83576	6.31319	3.45391
43830	0.54236	0.48474	0.34409	2.80856	2.38378	1.94772	9.46341	5.72226	2.70072	1.12617	1.04759	0.88981	2.06333	1.58469	1.21573	9.83766	6.29930	3.46522
44000	0.49882	0.46895	0.30943	2.82111	2.42510	1.96164	9.46383	5.72842	2.70959	1.13740	1.02665	0.92609	2.05678	1.58195	1.20723	9.80657	6.28337	3.44597
44160	0.50135	0.47067	0.31785	2.81747	2.37280	1.93541	9.48286	5.71797	2.71064	1.12730	1.06220	0.91549	2.09001	1.59326	1.24200	9.79832	6.28572	3.45788	28.40	6.1	0.00	7.41	0.01271	0.01290	0.01649	0.00784	0.00584	0.00641	0.00467	0.01266	0.01684	0.00682	0.00701	0.00893	0.01489	0.01095	0.01196	0.00218	0.00620	0.00872
44330	0.50814	0.47230	0.31096	2.78405	2.32090	1.89799	9.47054	5.71434	2.70734	1.12319	1.04483	0.88739	2.07209	1.58733	1.24343	9.77330	6.31025	3.49850
44490	0.52884	0.45815	0.32032	2.80342	2.36529	1.95870	9.48143	5.74823	2.72042	1.15409	1.04922	0.93598	2.06094	1.58168	1.22126	9.84105	6.35701	3.49011
44650	0.52932	0.47787	0.33209	2.80947	2.39545	1.95225	9.49288	5.73083	2.70766	1.12595	1.03097	0.92854	2.06647	1.59509	1.23632	9.83656	6.30610	3.47029
44820	0.52601	0.49068	0.33244	2.78358	2.36593	1.98205	9.50000	5.72421	2.74491	1.18124	1.08895	0.96266	2.06890	1.61616	1.25676	9.84654	6.36786	3.51850
44980	0.53294	0.48077	0.32833	2.82232	2.38952	1.98310	9.48055	5.73413	2.71547	1.18468	1.08759	0.93619	2.05427	1.59002	1.24274	9.84255	6.30707	3.48058
45150	0.51560	0.47627	0.32766	2.79966	2.38811	1.94228	9.47889	5.73330	2.72438	1.11898	1.01546	0.90747	2.04948	1.62041	1.23648	9.79673	6.28547	3.46716
45310	0.50701	0.45858	0.31128	2.79471	2.36393	1.94811	9.48612	5.73383	2.72098	1.13463	1.03256	0.89267	2.06633	1.58227	1.21415	9.83985	6.33183	3.47254
45470	0.49745	0.45885	0.30459	2.78352	2.36133	1.93018	9.46929	5.71370	2.71242	1.11434	1.02994	0.90496	2.06387	1.58290	1.20886	9.80538	6.29843	3.47957
45640	0.51980	0.46572	0.31908	2.80255	2.38219	1.96405	9.47788	5.71888	2.70995	1.17830	1.09264	0.94338	2.06563	1.57962	1.22541	9.82549	6.31409	3.46082
45800	0.50387	0.47772	0.31067	2.78912	2.35281	1.92537	9.46899	5.72129	2.71528	1.12545	1.02250	0.90424	2.04287	1.59588	1.22268	9.81313	6.31393	3.49318	28.46	6.1	0.00	7.46	0.01271	0.01290	0.01649	0.00784	0.00584	0.00641	0.00467	0.01266	0.01684	0.00682	0.00701	0.00893	0.01489	0.01095	0.01196	0.00218	0.00620	0.00872
45970	0.50818	0.46997	0.31178	2.80177	2.38135	1.94407	9.46361	5.71557	2.70588	1.14083	1.05929	0.90582	2.04965	1.57634	1.22325	9.83844	6.33273	3.51045
46130	0.50300	0.47349	0.31080	2.86607	2.43608	1.94836	9.49139	5.75972	2.69731	1.14714	1.06025	0.90931	2.06548	1.60313	1.23415	9.85692	6.32314	3.49354
46290	0.50415	0.46900	0.31876	2.80108	2.37628	1.93723	9.45155	5.73579	2.72236	1.14401	1.06990	0.92221	2.06249	1.58233	1.22167	9.83904	6.32623	3.49673
46460	0.52679	0.47686	0.32160	2.81580	2.35032	1.98910	9.46521	5.71458	2.70898	1.16932	1.03748	0.93071	2.05974	1.57489	1.22193	9.84503	6.28608	3.46813
46620	0.50523	0.46076	0.31907	2.82122	2.37853	1.92224	9.46864	5.74244	2.72945	1.13951	1.04324	0.96141	2.05611	1.58661	1.23026	9.84972	6.32073	3.45669
46790	0.50788	0.47532	0.34165	2.82908	2.38135	1.96272	9.47278	5.74464	2.71161	1.14032	1.07435	0.95601	2.07043	1.59641	1.24406	9.82349	6.33120	3.46776
46950	0.52269	0.47626	0.32411	2.79866	2.39674	1.99508	9.49785	5.74443	2.72707	1.13263	1.07293	0.91735	2.05861	1.57895	1.22996	9.80866	6.32271	3.45238
47120	0.51170	0.47184	0.33048	2.84364	2.36289	1.94538	9.48398	5.74824	2.73240	1.14762	1.04400	0.91819	2.05562	1.59412	1.23478	9.77926	6.27695	3.47626
47280	0.51494	0.48359	0.33564	2.84142	2.40306	2.00167	9.48836	5.73276	2.71292	1.19798	1.11933	0.94174	2.07923	1.60738	1.24200	9.86632	6.30511	3.47568
47440	0.52463	0.48384	0.32904	2.80459	2.39489	1.98906	9.48519	5.72528	2.71258	1.14150	1.06055	0.93588	2.05993	1.58647	1.24457	9.82033	6.33175	3.45625	28.46	6.1	0.00	7.47	0.01271	0.01290	0.01649	0.00784	0.00584	0.00641	0.00467	0.01266	0.01684	0.00682	0.00702	0.00893	0.01489	0.01095	0.01196	0.00218	0.00620	0.00872
47610	0.51509	0.46679	0.32030	2.79438	2.36254	1.94255	9.50228	5.72945	2.71077	1.11317	1.02723	0.92393	2.06521	1.58322	1.24047	9.85106	6.29544	3.46669
47770	0.52509	0.46163	0.34541	2.81022	2.37991	1.94062	9.46926	5.74525	2.70984	1.14975	1.05887	0.93616	2.06209	1.59152	1.22567	9.83309	6.34937	3.50497
47930	0.51740	0.46378	0.30266	2.78227	2.34988	1.94027	9.45962	5.72652	2.71024	1.15708	1.06292	0.93768	2.05299	1.58209	1.24121	9.82960	6.35042	3.47802
48100	0.51125	0.47600	0.31935	2.80874	2.38994	1.94678	9.47305	5.72408	2.72308	1.15959	1.05263	0.89008	2.07855	1.60552	1.23231	9.82771	6.29777	3.46395
48260	0.50148	0.45984	0.30877	2.82826	2.37526	1.98642	9.46760	5.71068	2.71416	1.12941	1.09528	0.94891	2.05087	1.58316	1.22293	9.82043	6.33523	3.45282
48420	0.50241	0.46296	0.31088	2.78350	2.36557	1.97373	9.45755	5.71868	2.70965	1.14401	1.05879	0.95289	2.06588	1.58319	1.23021	9.81306	6.31392	3.44227
48590	0.50298	0.45586	0.31216	2.79470	2.34948	1.92926	9.48353	5.71921	2.70839	1.12547	1.02230	0.88773	2.05489	1.57897	1.22154	9.84027	6.32912	3.46663
48750	0.51873	0.46703	0.31233	2.83006	2.39465	1.94018	9.49344	5.73689	2.72267	1.15511	1.05607	0.93343	2.04930	1.58366	1.22449	9.85466	6.32576	3.47939
48910	0.50377	0.46504	0.32412	2.80463	2.38947	1.96060	9.48934	5.73555	2.72129	1.14877	1.05081	0.90562	2.06531	1.58086	1.22216	9.83718	6.31844	3.49060
49080	0.51323	0.47035	0.31365	2.80027	2.35997	1.95264	9.45349	5.72108	2.71004	1.14865	1.05300	0.90207	2.03952	1.57733	1.23041	9.82120	6.29381	3.45227	28.46	6.3	0.00	7.57	0.01271	0.01290	0.01649	0.00784	0.00584	0.00641	0.00467	0.01266	0.01684	0.00682	0.00702	0.00893	0.01489	0.01095	0.01196	0.00218	0.00620	0.00872
49240	0.50482	0.46040	0.29437	2.83500	2.37118	1.94384	9.45384	5.71022	2.69875	1.15280	1.01568	0.89076	2.04916	1.57498	1.22007	9.84294	6.31188	3.44337
49410	0.50971	0.47660	0.32115	2.81377	2.36943	1.94397	9.47159	5.70945	2.72950	1.14016	1.07627	0.89726	2.06190	1.59385	1.23964	9.84054	6.33896	3.46336
49570	0.50342	0.46584	0.34130	2.83887	2.38090	1.97687	9.50414	5.73234	2.72721	1.18374	1.11991	0.95113	2.07395	1.59064	1.24232	9.82578	6.33848	3.50023
49730	0.51329	0.46575	0.32468	2.83718	2.38608	1.97956	9.49606	5.72042	2.71094	1.15356	1.04699	0.90882	2.06391	1.58480	1.23560	9.80955	6.29748	3.44536
49900	0.51569	0.46353	0.32302	2.83670	2.36680	1.95625	9.48770	5.74093	2.71229	1.13442	1.05603	0.92158	2.08643	1.58409	1.23325	9.83635	6.32866	3.48482
50060	0.52793	0.47401	0.31459	2.81383	2.38534	1.98910	9.47638	5.73125	2.73308	1.17923	1.11570	0.97296	2.03984	1.59096	1.25746	9.82469	6.33248	3.46722
50230	0.52690	0.48823	0.32927	2.80001	2.41614	2.00193	9.47135	5.73692	2.73616	1.18051	1.08017	1.02328	2.08160	1.60004	1.25283	9.83206	6.34060	3.52003
50390	0.52493	0.47897	0.34155	2.84019	2.39140	1.98065	9.50942	5.75836	2.73653	1.22021	1.08653	0.95732	2.07778	1.58865	1.23349	9.83456	6.36862	3.52368
50550	0.52582	0.48022	0.33134	2.82145	2.45756	2.04216	9.49084	5.74002	2.71714	1.21189	1.08690	0.97587	2.06252	1.60112	1.24643	9.86793	6.36065	3.50643
50720	0.52187	0.47011	0.33708	2.86956	2.41887	1.98460	9.49145	5.75575	2.73110	1.21651	1.08019	0.95482	2.08102	1.60225	1.25899	9.85629	6.37834	3.53540	28.46	6.2	0.00	7.49	0.01271	0.01290	0.01649	0.00784	0.00584	0.00641	0.00467	0.01266	0.01684	0.00682	0.00702	0.00893	0.01490	0.01095	0.01196	0.00218	0.00620	0.00872
50880	0.52271	0.47374	0.33517	2.84225	2.41333	2.03417	9.44464	5.71875	2.71717	1.17718	1.08801	0.96929	2.05344	1.61780	1.24357	9.81313	6.31956	3.47340
51040	0.51755	0.46234	0.31937	2.79466	2.37851	1.99539	9.47249	5.71427	2.70923	1.14780	1.02499	0.90012	2.04279	1.58292	1.21814	9.84232	6.28929	3.45761
51210	0.50953	0.46138	0.30951	2.76710	2.34623	1.91999	9.46060	5.72015	2.72449	1.14347	1.07699	0.92808	2.05363	1.58178	1.22699	9.83723	6.33056	3.47159
51370	0.53330	0.49337	0.33823	2.80053	2.38427	1.96439	9.50599	5.72880	2.71645	1.18704	1.07726	0.98289	2.06309	1.60852	1.23118	9.82587	6.30141	3.49980
51540	0.51412	0.47343	0.31750	2.81568	2.39031	2.04922	9.48131	5.73497	2.73681	1.18027	1.08971	0.97893	2.07900	1.60814	1.25190	9.87109	6.34289	3.50707
51700	0.52782	0.47862	0.32633	2.84631	2.37766	1.95061	9.49489	5.75468	2.73765	1.14094	1.03232	0.89167	2.07707	1.58597	1.24036	9.84222	6.31504	3.48990
51860	0.51842	0.47377	0.33343	2.85850	2.39097	1.97349	9.48125	5.72815	2.71894	1.20985	1.13094	0.96916	2.06284	1.58339	1.24270	9.82617	6.34827	3.50397
52030	0.51202	0.47710	0.32358	2.84074	2.40113	1.95526	9.46142	5.74037	2.71792	1.16933	1.07812	0.94180	2.09099	1.59850	1.22377	9.85170	6.34469	3.51883
52190	0.51187	0.46827	0.32247	2.82979	2.38061	1.96161	9.46870	5.72717	2.70311	1.13474	1.05603	0.90443	2.06281	1.58634	1.22006	9.79792	6.30200	3.46606
52350	0.50675	0.45898	0.31566	2.79461	2.36648	1.96346	9.46998	5.71113	2.69769	1.15641	1.02723	0.90541	2.05366	1.58614	1.22914	9.83005	6.30302	3.50545	28.46	6.1	0.00	7.46	0.01271	0.01290	0.01649	0.00784	0.00584	0.00641	0.00467	0.01266	0.01684	0.00682	0.00702	0.00893	0.01490	0.01095	0.01197	0.00218	0.00620	0.00872
52520	0.51355	0.47734	0.33066	2.80778	2.37634	1.99020	9.47673	5.71936	2.71797	1.13886	1.04012	0.91454	2.07219	1.60029	1.24095	9.84501	6.33506	3.47202
52680	0.50961	0.47889	0.31230	2.88304	2.39115	1.98404	9.46968	5.70448	2.70823	1.17495	1.09911	0.95387	2.05162	1.58386	1.23468	9.86269	6.32287	3.48768
52850	0.51381	0.47013	0.32117	2.85529	2.42209	1.98753	9.47555	5.74538	2.71813	1.16553	1.09753	0.94396	2.07914	1.59293	1.24344	9.82706	6.31108	3.48991
53010	0.53276	0.48334	0.31810	2.79287	2.41236	1.96374	9.49718	5.73906	2.70366	1.21058	1.16213	0.97439	2.05600	1.58477	1.22533	9.80289	6.33855	3.50712
53170	0.51201	0.47757	0.30809	2.83399	2.36946	1.92940	9.44740	5.72261	2.72134	1.12533	1.06686	0.94258	2.07025	1.59213	1.22536	9.79842	6.29052	3.47302
53340	0.51077	0.47321	0.30680	2.81970	2.38933	2.00356	9.48846	5.74686	2.70500	1.16442	1.10319	0.92901	2.06079	1.58626	1.22840	9.87019	6.36880	3.47920
53500	0.50243	0.46544	0.31283	2.84536	2.40039	1.96566	9.48325	5.72033	2.70955	1.18902	1.08379	0.95787	2.04774	1.58712	1.24670	9.85549	6.33511	3.46788
53660	0.51336	0.48956	0.33103	2.81489	2.39896	2.01055	9.47649	5.72265	2.72394	1.20524	1.09542	0.94608	2.08394	1.59437	1.24242	9.82278	6.32542	3.48279
53830	0.51705	0.48040	0.32081	2.80432	2.38141	1.96525	9.49184	5.72738	2.74862	1.13991	1.02038	0.92329	2.08021	1.60084	1.23910	9.81969	6.31244	3.45078
53990	0.50762	0.47486	0.32201	2.82158	2.37180	2.00780	9.47259	5.72727	2.70702	1.19054	1.11411	0.93970	2.06158	1.59166	1.24546	9.84142	6.33191	3.46718	28.46	6.0	0.00	7.40	0.01271	0.01290	0.01649	0.00784	0.00584	0.00641	0.00467	0.01266	0.01684	0.00682	0.00702	0.00893	0.01490	0.01095	0.01197	0.00218	0.00620	0.00872
54160	0.52943	0.48039	0.31974	2.82267	2.39569	1.99689	9.47567	5.73613	2.71581	1.19401	1.06724	0.95424	2.06678	1.59935	1.23416	9.86861	6.36158	3.50740
54320	0.52754	0.47683	0.32050	2.83465	2.42218	1.97999	9.49351	5.75314	2.73029	1.18842	1.08068	0.95954	2.07021	1.58657	1.23816	9.85181	6.32590	3.47026
54480	0.51334	0.48338	0.32695	2.83280	2.39584	1.96649	9.48716	5.71521	2.70942	1.17067	1.07067	0.94736	2.04796	1.59224	1.24417	9.87772	6.35863	3.51465
54650	0.51525	0.46562	0.31238	2.80709	2.42928	2.05189	9.48799	5.73212	2.71565	1.17714	1.10116	0.97098	2.05950	1.58323	1.23247	9.84382	6.32488	3.44698
54810	0.53131	0.49650	0.34250	2.83354	2.38714	1.97055	9.48236	5.74651	2.72974	1.15986	1.08818	0.96310	2.09855	1.61585	1.23935	9.82327	6.34601	3.48436
54980	0.51616	0.47387	0.32951	2.86475	2.41197	2.03546	9.45106	5.74422	2.70565	1.21489	1.07573	0.95157	2.06664	1.59157	1.24519	9.85890	6.35489	3.48829
55140	0.51463	0.47156	0.32324	2.84647	2.38451	2.02646	9.48331	5.74835	2.73162	1.27273	1.11332	0.98572	2.07615	1.61716	1.26723	9.89487	6.36798	3.51547
55300	0.53090	0.48760	0.34889	2.85977	2.41003	1.99190	9.51555	5.76104	2.75178	1.18160	1.08990	0.97068	2.07359	1.59230	1.24746	9.87291	6.36905	3.53030
55470	0.52884	0.49306	0.31694	2.85815	2.41283	1.99856	9.47312	5.72970	2.71993	1.19249	1.11486	0.98175	2.06526	1.59081	1.23397	9.87051	6.35828	3.52763
55630	0.53645	0.50866	0.31945	2.82607	2.37250	1.95194	9.48000	5.72666	2.71977	1.15962	1.07440	0.93341	2.07069	1.61662	1.24266	9.82558	6.34809	3.49192	28.40	6.3	0.00	7.35	0.01271	0.01290	0.01649	0.00784	0.00584	0.00641	0.00467	0.01266	0.01684	0.00682	0.00702	0.00893	0.01490	0.01095	0.01197	0.00218	0.00620	0.00872
55790	0.53292	0.48473	0.33070	2.85804	2.40404	1.95070	9.47342	5.72959	2.72222	1.19877	1.05767	0.89004	2.05199	1.60369	1.26778	9.82966	6.30344	3.46038
55960	0.53149	0.46608	0.32125	2.79144	2.35562	1.95887	9.50123	5.71700	2.72416	1.13057	1.05700	0.91758	2.05006	1.61940	1.24270	9.84333	6.33057	3.49998
56120	0.50883	0.46566	0.31709	2.83339	2.37705	1.94631	9.47538	5.72924	2.70801	1.19476	1.05792	0.92964	2.07515	1.57059	1.22135	9.81253	6.30009	3.47079
56290	0.52316	0.47706	0.32319	2.83723	2.40337	1.97636	9.45591	5.73002	2.73370	1.14030	1.07610	0.94594	2.05797	1.58425	1.23130	9.85002	6.29608	3.48135
56450	0.52617	0.47653	0.32542	2.82096	2.40278	1.97241	9.47319	5.71835	2.73022	1.18872	1.10188	0.93494	2.06355	1.59147	1.25285	9.81393	6.32668	3.48130
56610	0.50699	0.46853	0.31138	2.81714	2.35669	1.93261	9.46668	5.72281	2.72837	1.15217	1.04432	0.92263	2.07392	1.60585	1.23716	9.83146	6.30128	3.48457
56780	0.50638	0.46764	0.31760	2.85933	2.41263	1.97741	9.45704	5.71262	2.71519	1.15165	1.07098	0.92463	2.05598	1.58829	1.22856	9.81054	6.33111	3.48494
56940	0.50051	0.45514	0.30624	2.84980	2.39210	1.97015	9.46295	5.71349	2.70080	1.14266	1.09914	0.94357	2.05207	1.58108	1.22825	9.81970	6.31522	3.46499
57100	0.51915	0.48477	0.34065	2.84871	2.39159	2.00077	9.46537	5.72935	2.70731	1.15833	1.05112	0.94118	2.06299	1.58684	1.23294	9.82966	6.32057	3.48011
57270	0.51858	0.46854	0.32876	2.81707	2.37041	1.92626	9.45387	5.73483	2.72412	1.14969	1.06208	0.93939	2.05291	1.60509	1.23152	9.82259	6.31121	3.47225	28.46	6.0	0.00	7.38	0.01271	0.01290	0.01649	0.00784	0.00584	0.00641	0.00467	0.01266	0.01684	0.00682	0.00702	0.00893	0.01490	0.01095	0.01197	0.00218	0.00620	0.00872
57430	0.52634	0.45766	0.32095	2.84599	2.40975	1.99764	9.48002	5.73186	2.72132	1.16276	1.07484	0.98197	2.05672	1.61799	1.24132	9.83296	6.32004	3.46415
57590	0.52001	0.48744	0.34977	2.83112	2.37358	1.97535	9.50102	5.75101	2.72286	1.18401	1.08764	0.96949	2.09741	1.61506	1.25957	9.86012	6.32670	3.50953
57760	0.52975	0.49704	0.34549	2.85018	2.37053	1.97692	9.51914	5.72799	2.73757	1.21675	1.11611	0.95774	2.07362	1.62955	1.27895	9.85732	6.35753	3.54187
57920	0.52198	0.47096	0.32326	2.84489	2.44812	2.06493	9.47529	5.74305	2.72911	1.22649	1.14359	0.98989	2.05440	1.59472	1.24191	9.89327	6.40450	3.54872
58080	0.52526	0.49189	0.35806	2.86823	2.45062	2.01532	9.51819	5.73802	2.73106	1.22426	1.13742	0.98629	2.08079	1.59979	1.26796	9.88825	6.38791	3.56276
58250	0.52952	0.48508	0.33597	2.87273	2.41056	1.98826	9.51694	5.74491	2.73055	1.26004	1.20413	1.03479	2.08073	1.60414	1.25012	9.86712	6.38502	3.59940
58410	0.51875	0.47899	0.33580	2.84201	2.41426	1.99401	9.48666	5.74358	2.73952	1.15419	1.07255	0.91962	2.05960	1.60631	1.24541	9.82548	6.32271	3.48601
58570	0.51751	0.47644	0.31761	2.89228	2.40601	2.03032	9.45742	5.73338	2.71441	1.17807	1.15104	0.89694	2.05426	1.60108	1.22873	9.79752	6.32558	3.46305
58740	0.51262	0.45524	0.31717	2.77951	2.36886	1.97026	9.47386	5.72138	2.72468	1.14183	1.03758	0.91835	2.05708	1.57723	1.21437	9.86252	6.30747	3.44383
58900	0.49497	0.46738	0.32136	2.79244	2.35054	1.96740	9.47165	5.72030	2.73253	1.17248	1.07815	0.94498	2.06140	1.59996	1.22847	9.82363	6.32722	3.49126	28.46	6.0	0.00	7.77	0.01271	0.01290	0.01649	0.00784	0.00584	0.00641	0.00467	0.01266	0.01684	0.00682	0.00702	0.00893	0.01490	0.01095	0.01197	0.00218	0.00620	0.00872
59060	0.53209	0.47991	0.33720	2.87576	2.39959	2.00491	9.47656	5.73969	2.72935	1.18922	1.10294	0.97349	2.06931	1.59074	1.23715	9.87094	6.36025	3.52452
59230	0.53684	0.49329	0.34503	2.80577	2.39971	1.95358	9.49138	5.74315	2.72969	1.16997	1.07911	0.98692	2.06278	1.59783	1.26015	9.88556	6.36464	3.52053
59390	0.51499	0.47766	0.33158	2.85461	2.38616	1.98150	9.48450	5.71326	2.72280	1.19436	1.05872	0.95877	2.07327	1.59347	1.24333	9.83110	6.32228	3.49985
59550	0.51590	0.46945	0.32368	2.83870	2.38299	1.95913	9.47295	5.72303	2.72660	1.14317	1.06102	0.93708	2.06003	1.58985	1.23398	9.82293	6.30300	3.44551
59720	0.50799	0.47617	0.32129	2.80763	2.39377	1.96035	9.45804	5.72057	2.71506	1.14933	1.07223	0.94935	2.06197	1.59368	1.24146	9.80294	6.30208	3.48719
59880	0.49998	0.45604	0.31944	2.80674	2.34499	1.93161	9.45745	5.71470	2.72249	1.18498	1.08094	0.94332	2.05312	1.58563	1.21803	9.79608	6.29519	3.52235
60040	0.50521	0.47172	0.31458	2.80985	2.40135	1.96032	9.48213	5.72917	2.70798	1.16067	1.05609	0.92766	2.09552	1.63108	1.21975	9.83569	6.34159	3.50588
60210	0.50754	0.47423	0.32058	2.82170	2.36071	1.96950	9.44752	5.70601	2.70950	1.15279	1.06492	0.93218	2.05262	1.58994	1.22953	9.83070	6.35781	3.47635
60370	0.51524	0.45013	0.30604	2.78350	2.36103	1.95635	9.43808	5.70768	2.69811	1.13884	1.06631	0.90118	2.05808	1.58903	1.22170	9.81895	6.28297	3.48706
60530	0.50065	0.45468	0.30654	2.81112	2.38643	1.93522	9.46411	5.72402	2.71560	1.14779	1.04447	0.88825	2.03655	1.56896	1.22360	9.82056	6.29418	3.46329	28.46	6.0	0.00	7.42	0.01271	0.01290	0.01649	0.00784	0.00584	0.00641	0.00467	0.01266	0.01684	0.00682	0.00702	0.00893	0.01490	0.01095	0.01197	0.00218	0.00620	0.00872
60700	0.51558	0.46043	0.32954	2.81095	2.37396	1.96123	9.48709	5.73011	2.72443	1.18978	1.08764	0.96714	2.05386	1.57848	1.26384	9.82195	6.29814	3.45798
60860	0.50518	0.46622	0.30594	2.82304	2.37132	1.97694	9.43806	5.71020	2.70531	1.15796	1.06274	0.93997	2.05001	1.58618	1.22365	9.83241	6.33772	3.45225
61020	0.51516	0.46328	0.32451	2.84951	2.36282	1.97268	9.47637	5.74790	2.72594	1.15009	1.05251	0.93199	2.05858	1.58099	1.22816	9.83221	6.31553	3.48412
61190	0.52093	0.46927	0.31350	2.81250	2.38116	1.94241	9.48401	5.70298	2.70950	1.15455	1.09694	0.96528	2.04619	1.57551	1.22157	9.87305	6.37264	3.46770
61350	0.50937	0.47281	0.32563	2.81301	2.34757	1.96525	9.45305	5.72940	2.71750	1.14582	1.07098	0.94650	2.06950	1.61180	1.24059	9.80197	6.31910	3.48438
61510	0.51472	0.47961	0.31810	2.81095	2.33560	1.94432	9.45465	5.73015	2.73289	1.14176	1.05868	0.93083	2.06373	1.57853	1.22276	9.81210	6.32158	3.47656
61680	0.51884	0.47065	0.31489	2.81341	2.37829	1.94151	9.45973	5.71313	2.70325	1.18183	1.06839	0.93069	2.04535	1.58722	1.21639	9.86825	6.31725	3.49517
61840	0.50776	0.45578	0.30833	2.79756	2.37813	1.98157	9.44106	5.71809	2.70401	1.14892	1.05946	0.91835	2.05474	1.56290	1.22036	9.80296	6.28810	3.45248
62000	0.51953	0.46160	0.31194	2.79113	2.34950	1.93740	9.48028	5.74765	2.71915	1.15604	1.12439	0.93751	2.06631	1.59198	1.23750	9.85056	6.32319	3.49541
62170	0.50591	0.46439	0.31112	2.82315	2.36847	1.94063	9.44058	5.72871	2.71846	1.14557	1.07733	0.93942	2.06043	1.59524	1.23378	9.80947	6.33766	3.50297	28.46	6.0	0.00	7.40	0.01271	0.01290	0.01649	0.00784	0.00584	0.00641	0.00467	0.01266	0.01684	0.00682	0.00702	0.00893	0.01490	0.01095	0.01197	0.00218	0.00620	0.00872
62330	0.51953	0.48349	0.33739	2.81118	2.34368	1.95315	9.45677	5.73605	2.73353	1.15559	1.09649	0.96395	2.05661	1.58471	1.24143	9.82051	6.32374	3.49420
62490	0.51227	0.47256	0.31772	2.80840	2.37318	1.97138	9.46807	5.72046	2.73162	1.19087	1.07322	0.93986	2.04879	1.58532	1.22826	9.85350	6.30728	3.48026
62660	0.51101	0.47675	0.32789	2.79939	2.39434	1.94383	9.46002	5.72033	2.70631	1.12322	1.06994	0.96333	2.04659	1.58605	1.21771	9.81434	6.31316	3.46460
62820	0.50871	0.46305	0.31737	2.78895	2.33529	1.93839	9.45452	5.71918	2.70765	1.12973	1.04491	0.90550	2.03920	1.56771	1.23237	9.82190	6.28759	3.44457
62980	0.50143	0.45187	0.30396	2.79409	2.36477	1.94258	9.46067	5.69729	2.69410	1.12922	1.02990	0.91366	2.04371	1.58360	1.21863	9.79457	6.28858	3.41943
63150	0.50198	0.45447	0.29827	2.78238	2.34146	1.94435	9.45109	5.70818	2.70295	1.12970	1.05519	0.90424	2.03476	1.57640	1.22104	9.80877	6.26950	3.42659
63310	0.49781	0.45026	0.30364	2.77834	2.33559	1.89777	9.47162	5.71550	2.69420	1.14576	1.02901	0.87198	2.04817	1.58262	1.21663	9.78177	6.26706	3.43543
63470	0.49432	0.46387	0.31318	2.80026	2.35757	1.94149	9.46120	5.71150	2.69312	1.14198	1.03831	0.90844	2.06573	1.58979	1.22701	9.81175	6.26179	3.44954
63640	0.49985	0.45258	0.32099	2.81384	2.38497	1.97542	9.45671	5.73065	2.70581	1.19131	1.08109	0.94292	2.04715	1.57733	1.21903	9.85390	6.34097	3.48963
63800	0.50240	0.46956	0.31986	2.83385	2.36379	1.95979	9.47619	5.73626	2.70787	1.22164	1.15568	0.98880	2.07861	1.60239	1.24800	9.83415	6.34885	3.47402	28.46	6.1	0.00	7.39	0.01271	0.01290	0.01649	0.00784	0.00584	0.00640	0.00467	0.01266	0.01683	0.00682	0.00702	0.00893	0.01490	0.01095	0.01197	0.00218	0.00620	0.00872
63970	0.51810	0.47202	0.31510	2.81231	2.36156	1.96218	9.46080	5.72468	2.71089	1.15044	1.06993	0.92335	2.07665	1.60305	1.23074	9.81064	6.29362	3.46081
64130	0.50589	0.45955	0.32749	2.80299	2.39304	1.96867	9.45643	5.71759	2.71120	1.17793	1.07598	0.92582	2.05256	1.60195	1.22751	9.81413	6.31170	3.48902
64290	0.50585	0.45459	0.31599	2.80629	2.34581	1.93879	9.46968	5.71805	2.71530	1.13874	1.04739	0.91510	2.04307	1.58459	1.24739	9.79861	6.31144	3.46127
64460	0.50784	0.46675	0.31805	2.80005	2.36295	1.93374	9.45826	5.70112	2.69094	1.14295	1.03878	0.90379	2.05977	1.59322	1.21744	9.79653	6.30320	3.46519
64620	0.49485	0.46075	0.32391	2.80351	2.38206	1.94686	9.46246	5.70820	2.69197	1.16476	1.08818	0.92934	2.04961	1.57883	1.21918	9.85271	6.33608	3.45141
64790	0.50812	0.46535	0.30511	2.81743	2.39327	1.93047	9.45690	5.72139	2.71548	1.15606	1.07970	0.95693	2.05842	1.59596	1.22442	9.81721	6.34007	3.48982
64950	0.51991	0.47605	0.32410	2.81554	2.38842	1.98036	9.47714	5.71919	2.71963	1.17822	1.10022	0.95553	2.06316	1.58249	1.23815	9.79702	6.33040	3.48568
65110	0.52805	0.46254	0.31532	2.81909	2.36945	1.95380	9.46589	5.72653	2.70977	1.17708	1.08640	0.91463	2.05283	1.58898	1.23108	9.81731	6.32201	3.47840
65280	0.52279	0.46829	0.31166	2.81507	2.37060	1.92825	9.47542	5.73295	2.71638	1.18158	1.05518	0.92738	2.06975	1.58722	1.23683	9.83475	6.32272	3.48558
65440	0.51009	0.45856	0.31697	2.82588	2.38456	1.95509	9.46175	5.72556	2.71024	1.15691	1.05471	0.94811	2.05953	1.58441	1.22516	9.85240	6.33158	3.46320	28.46	6.2	0.00	7.38	0.01271	0.01290	0.01649	0.00784	0.00584	0.00640	0.00467	0.01266	0.01683	0.00682	0.00702	0.00893	0.01490	0.01095	0.01196	0.00218	0.00620	0.00872
65600	0.51205	0.46837	0.31159	2.81820	2.35993	1.96083	9.45543	5.72939	2.73272	1.13531	1.04344	0.90431	2.04167	1.59067	1.21972	9.81661	6.30901	3.47068
65770	0.49523	0.45758	0.30737	2.77930	2.34901	1.93947	9.45637	5.71243	2.69351	1.16748	1.10690	0.93442	2.06354	1.58776	1.23943	9.87890	6.33455	3.48596
65930	0.52925	0.49079	0.34377	2.83269	2.36489	1.96731	9.45992	5.73351	2.73535	1.20134	1.10728	0.95629	2.07993	1.59617	1.24214	9.82218	6.32199	3.44949
66090	0.50130	0.46121	0.30717	2.83152	2.37036	1.95227	9.46708	5.72438	2.73351	1.15701	1.04758	0.92924	2.05409	1.59043	1.23078	9.84601	6.30979	3.47360
66260	0.53226	0.46625	0.30925	2.79762	2.36789	1.94793	9.46844	5.71834	2.71302	1.14199	1.03959	0.94042	2.06671	1.59351	1.22197	9.81273	6.31127	3.45418
66420	0.51060	0.46442	0.31011	2.78564	2.34153	1.92940	9.47377	5.69928	2.73322	1.15277	1.06331	0.91543	2.06255	1.60179	1.22062	9.82587	6.32189	3.47118
66580	0.50672	0.46511	0.31798	2.80943	2.40888	1.98695	9.47851	5.72165	2.73172	1.16114	1.04937	0.91911	2.06910	1.59501	1.23892	9.87449	6.31321	3.47920
66750	0.51701	0.46891	0.31874	2.82006	2.35609	1.96841	9.44792	5.70629	2.71480	1.14985	1.09237	0.94030	2.04483	1.57559	1.22115	9.82467	6.31681	3.44868
66910	0.51424	0.47050	0.32820	2.82678	2.36057	1.97793	9.46980	5.71929	2.70934	1.14364	1.03884	0.91941	2.05098	1.58682	1.22970	9.86249	6.30903	3.44100
67070	0.51190	0.46787	0.33138	2.79402	2.35876	1.92944	9.47060	5.71757	2.74414	1.12381	1.06771	0.94637	2.05427	1.62088	1.22011	9.80681	6.30867	3.45436	28.51	6.0	0.00	7.43	0.01271	0.01290	0.01649	0.00784	0.00584	0.00640	0.00467	0.01266	0.01684	0.00682	0.00702	0.00893	0.01490	0.01095	0.01197	0.00218	0.00620	0.00872
67240	0.51423	0.46605	0.31796	2.80964	2.37940	1.93882	9.46202	5.70990	2.70180	1.13742	1.06030	0.93236	2.06885	1.59248	1.23130	9.80780	6.32839	3.45033
67400	0.50372	0.46687	0.30200	2.82057	2.35148	1.94263	9.47700	5.72299	2.71692	1.14999	1.05227	0.97003	2.04892	1.57460	1.22349	9.82193	6.33847	3.46421
67560	0.49742	0.46122	0.30669	2.80890	2.33890	1.94486	9.46551	5.71639	2.71254	1.16307	1.06609	0.93817	2.07043	1.60813	1.25440	9.82322	6.33126	3.49193
67720	0.51496	0.47142	0.33421	2.82467	2.41723	1.98235	9.48849	5.75948	2.74747	1.16719	1.07580	0.93398	2.09390	1.58885	1.24286	9.81466	6.36207	3.49188
67890	0.51744	0.46509	0.32692	2.84673	2.37599	1.93584	9.47125	5.70579	2.71859	1.16183	1.05040	0.93228	2.05187	1.59179	1.22674	9.85474	6.31443	3.51110
68050	0.52228	0.47029	0.31105	2.82867	2.39146	1.99155	9.49466	5.71746	2.70605	1.14328	1.05353	0.93400	2.07608	1.58481	1.22730	9.83039	6.36666	3.47821
68220	0.51456	0.46725	0.33129	2.82668	2.39119	1.95495	9.47084	5.73349	2.71878	1.18011	1.06883	0.94259	2.04395	1.58801	1.24789	9.84615	6.33940	3.48540
68380	0.51687	0.47486	0.32037	2.79504	2.37227	1.97034	9.44937	5.72043	2.71951	1.13637	1.04353	0.91541	2.04640	1.57748	1.22555	9.78317	6.30464	3.44524
68540	0.50653	0.45539	0.32588	2.87934	2.38523	1.93907	9.47889	5.71601	2.70682	1.17995	1.10644	0.93718	2.04742	1.58199	1.22351	9.85883	6.32457	3.46744
68710	0.51086	0.46063	0.30750	2.79938	2.37165	1.95379	9.47377	5.70962	2.70564	1.15604	1.05446	0.92013	2.05085	1.58186	1.23435	9.80567	6.28947	3.52856	28.51	6.0	0.00	7.39	0.01271	0.01290	0.01649	0.00784	0.00584	0.00640	0.00467	0.01266	0.01684	0.00682	0.00702	0.00893	0.01490	0.01095	0.01196	0.00218	0.00620	0.00872
68870	0.50339	0.46757	0.31417	2.82357	2.39405	1.95669	9.44817	5.72070	2.70739	1.13929	1.03141	0.92694	2.05527	1.57496	1.22739	9.82418	6.34957	3.49049
69030	0.51199	0.46729	0.32478	2.79875	2.34399	1.93837	9.47401	5.72454	2.71817	1.17355	1.07185	0.93045	2.05793	1.60250	1.23203	9.83006	6.34430	3.47312
69190	0.50262	0.46211	0.32597	2.82619	2.39476	1.99970	9.49832	5.71876	2.72481	1.17613	1.05996	0.91681	2.08514	1.60180	1.22848	9.80318	6.33529	3.48866
69360	0.52116	0.47051	0.32766	2.78579	2.37051	1.92713	9.45532	5.72856	2.72346	1.18363	1.11153	0.96731	2.07514	1.60259	1.22766	9.83066	6.29778	3.45648
69520	0.50896	0.46024	0.32386	2.80154	2.35907	1.91674	9.44658	5.71265	2.70071	1.15641	1.07157	0.92664	2.06114	1.57607	1.20856	9.89277	6.33010	3.46580
69690	0.50935	0.47121	0.30788	2.80058	2.40921	2.00003	9.44693	5.72594	2.71329	1.14646	1.05027	0.93049	2.04451	1.58974	1.23782	9.79801	6.31974	3.47525
69850	0.51821	0.47893	0.32488	2.80176	2.35669	1.93310	9.48776	5.72085	2.69912	1.13729	1.03137	0.90436	2.05101	1.59046	1.24095	9.82189	6.30271	3.47281
70010	0.50613	0.46390	0.30135	2.82320	2.38922	1.96979	9.47419	5.70509	2.70345	1.15996	1.06131	0.90101	2.05229	1.58107	1.22761	9.81422	6.32808	3.47982
70180	0.51586	0.46327	0.32014	2.83757	2.36309	1.93939	9.46490	5.73160	2.70684	1.14241	1.07883	0.96509	2.05563	1.58859	1.24449	9.85152	6.30404	3.44721
70340	0.50801	0.47447	0.32971	2.79753	2.36843	1.94349	9.46950	5.71955	2.71801	1.22797	1.06581	0.94675	2.06295	1.58798	1.23079	10.19238	6.55813	3.48424	28.51	6.2	0.00	7.42	0.01271	0.01290	0.01649	0.00784	0.00584	0.00641	0.00467	0.01266	0.01684	0.00682	0.00702	0.00893	0.01490	0.01095	0.01196	0.00218	0.00620	0.00872
70510	0.50901	0.46612	0.31824	2.80276	2.35382	1.95618	9.46441	5.72178	2.71407	1.14139	1.05331	0.93110	2.06131	1.59117	1.22472	9.81883	6.31499	3.48255
70670	0.51192	0.46886	0.32133	2.79564	2.36458	1.97395	9.46678	5.72398	2.73126	1.16340	1.06701	0.93461	2.04655	1.59032	1.24425	9.83378	6.29281	3.44055
70840	0.51391	0.47295	0.32189	2.79670	2.33992	1.92484	9.46264	5.70924	2.72268	1.14805	1.06409	0.92868	2.08812	1.60842	1.23208	9.85404	6.32342	3.46415
71000	0.51412	0.51741	0.31399	2.80593	2.36414	1.96911	9.47916	5.73592	2.70468	1.16580	1.03997	0.90903	2.05804	1.58913	1.23819	9.80450	6.29613	3.50134
71160	0.51018	0.46107	0.31548	2.81915	2.35050	1.96745	9.45241	5.72683	2.74897	1.16156	1.05292	0.95349	2.07288	1.59326	1.22329	9.83847	6.30273	3.47839
71330	0.51554	0.46228	0.31789	2.84216	2.40248	2.01689	9.47246	5.71483	2.70722	1.15123	1.06569	0.91870	2.05809	1.58186	1.22830	9.83438	6.36023	3.47641
71490	0.52307	0.48382	0.31385	2.81982	2.38861	1.96972	9.45779	5.71960	2.70291	1.17388	1.06672	0.92919	2.06600	1.58985	1.22482	9.77332	6.29155	3.48645
71650	0.50238	0.46023	0.31005	2.81085	2.41462	1.97272	9.45159	5.71164	2.70250	1.17582	1.05563	0.93638	2.04963	1.58102	1.22103	9.82979	6.33832	3.48863
71820	0.50075	0.46500	0.31771	2.82555	2.36960	1.95909	9.46962	5.72658	2.71774	1.14273	1.06234	0.95039	2.06126	1.58624	1.23194	9.80818	6.32235	3.46715
71980	0.51790	0.48422	0.33105	2.81292	2.37427	1.95481	9.45402	5.70807	2.70431	1.19698	1.07493	0.93179	2.05138	1.59692	1.22868	9.84763	6.33692	3.49340	28.51	6.0	0.00	7.48	0.01271	0.01290	0.01649	0.00784	0.00584	0.00641	0.00467	0.01266	0.01684	0.00682	0.00702	0.00893	0.01490	0.01095	0.01197	0.00218	0.00620	0.00872
72140	0.51907	0.45899	0.33416	2.81935	2.36243	1.97017	9.48385	5.73911	2.71202	1.14384	1.08183	0.91367	2.05911	1.60396	1.22775	9.85942	6.32356	3.51219
72310	0.50548	0.46705	0.31353	2.81360	2.39201	1.97330	9.43654	5.70287	2.70587	1.14681	1.08808	0.96017	2.05732	1.58036	1.22394	9.82120	6.32407	3.48638
72470	0.51690	0.49879	0.33469	2.82619	2.38002	1.99816	9.45686	5.71874	2.71532	1.15009	1.04395	0.95512	2.06973	1.58977	1.23191	9.85472	6.34764	3.50874
72630	0.49597	0.46945	0.32264	2.83843	2.36332	1.96692	9.45892	5.71776	2.72381	1.12965	1.02673	0.91684	2.06507	1.58073	1.23665	9.81144	6.32128	3.46555
72800	0.51312	0.46459	0.31459	2.81056	2.38918	2.00019	9.48966	5.71914	2.70691	1.20620	1.09216	0.95898	2.05567	1.58484	1.22745	9.86412	6.30996	3.44702
72960	0.50835	0.46384	0.31776	2.80027	2.37870	1.97967	9.46868	5.73014	2.71588	1.14091	1.04636	0.93396	2.04999	1.58821	1.23225	9.79364	6.32694	3.46757
73120	0.50841	0.46415	0.32630	2.81912	2.36016	1.96913	9.46898	5.72013	2.70739	1.15450	1.07651	0.93990	2.06196	1.59085	1.22116	9.80815	6.34367	3.48093
73290	0.51224	0.46153	0.31892	2.82198	2.41900	2.01637	9.47496	5.73499	2.72738	1.16756	1.07359	0.95755	2.05554	1.61031	1.23841	9.88586	6.37202	3.48814
73450	0.51908	0.48588	0.32461	2.83971	2.41276	2.00851	9.47905	5.74590	2.73151	1.19216	1.10774	0.97130	2.06447	1.59074	1.25561	9.87964	6.33760	3.51436
73610	0.51855	0.49205	0.32368	2.85169	2.37794	1.95702	9.47953	5.75025	2.73615	1.16825	1.06233	0.91311	2.06887	1.59249	1.22390	9.84686	6.31434	3.50891	28.51	6.0	0.00	7.46	0.01271	0.01290	0.01649	0.00784	0.00584	0.00641	0.00467	0.01266	0.01684	0.00682	0.00702	0.00893	0.01490	0.01095	0.01196	0.00218	0.00620	0.00872
73780	0.51341	0.47316	0.33766	2.83516	2.36708	1.97402	9.48249	5.74563	2.72123	1.15204	1.06577	0.92454	2.06642	1.59831	1.24040	9.85016	6.31430	3.49063
73940	0.51923	0.46261	0.32033	2.83763	2.40496	2.00977	9.45225	5.71980	2.71473	1.15284	1.08079	0.93909	2.05724	1.59681	1.20979	9.85825	6.33314	3.50001
74100	0.50806	0.45901	0.31226	2.82688	2.39197	1.97549	9.46958	5.70771	2.70243	1.16591	1.08859	0.94968	2.04940	1.58895	1.24703	9.82313	6.34727	3.48644
74270	0.51467	0.47665	0.31711	2.80206	2.38549	1.96237	9.45414	5.70577	2.70266	1.16782	1.05082	0.92320	2.05421	1.58195	1.22463	9.84117	6.36567	3.50144
74430	0.50982	0.47115	0.31947	2.83548	2.38800	1.95993	9.48700	5.72352	2.70105	1.15210	1.03333	0.91962	2.05519	1.57693	1.23066	9.81526	6.34600	3.47482
74590	0.50909	0.46641	0.30535	2.76885	2.35103	1.95208	9.46124	5.71518	2.70176	1.15170	1.06311	0.94642	2.05097	1.58391	1.23846	9.80164	6.33348	3.44899
74760	0.51052	0.45385	0.31430	2.80157	2.44424	1.99434	9.43029	5.70766	2.70298	1.17217	1.06009	0.88069	2.03416	1.56609	1.21180	9.79141	6.30599	3.43206
74920	0.50151	0.44828	0.30442	2.77495	2.32747	1.95986	9.44416	5.70799	2.69935	1.14413	1.05827	0.89725	2.05864	1.58386	1.21922	9.80621	6.31609	3.48285
75080	0.50486	0.46365	0.31906	2.80019	2.41293	1.96773	9.46005	5.71292	2.70366	1.15444	1.06686	0.94573	2.05218	1.58572	1.22774	9.79270	6.29902	3.49745
75250	0.50241	0.45125	0.31452	2.81003	2.35177	1.96082	9.44488	5.70569	2.73188	1.15438	1.05522	0.89338	2.05172	1.57188	1.22014	9.85426	6.32303	3.46330	28.51	6.1	0.00	7.47	0.01271	0.01290	0.01649	0.00784	0.00584	0.00641	0.00467	0.01266	0.01683	0.00682	0.00702	0.00893	0.01490	0.01095	0.01196	0.00218	0.00620	0.00872
75410	0.50772	0.45424	0.31498	2.80062	2.37374	1.97759	9.46149	5.71930	2.70382	1.13673	1.04778	0.91805	2.03771	1.58377	1.21394	9.80733	6.31457	3.43276
75580	0.50588	0.45489	0.30773	2.81175	2.36455	1.97587	9.47575	5.73419	2.72913	1.16658	1.00458	0.90293	2.06308	1.59546	1.22793	9.82793	6.35579	3.46900
75740	0.52257	0.46853	0.31638	2.82473	2.37035	1.95104	9.47101	5.73604	2.70921	1.15158	1.04548	0.90380	2.05795	1.58769	1.21799	9.82454	6.31923	3.46833
75900	0.50085	0.46262	0.30720	2.79412	2.35383	1.93684	9.44494	5.71898	2.70176	1.16254	1.06571	0.91441	2.05065	1.58134	1.22200	9.85376	6.33300	3.46380
76070	0.51036	0.45741	0.31328	2.86366	2.37877	1.98230	9.46965	5.72402	2.72221	1.16996	1.08040	0.91367	2.06006	1.59375	1.24680	9.79253	6.31520	3.46388
76230	0.50911	0.47516	0.33029	2.81391	2.39182	1.94931	9.48393	5.72991	2.71278	1.16345	1.05918	0.91305	2.07068	1.59150	1.23553	9.87105	6.35401	3.51190
76400	0.52558	0.47773	0.30929	2.79692	2.36623	1.94293	9.48831	5.74613	2.73131	1.15049	1.06122	0.90958	2.05310	1.59715	1.25188	9.81369	6.36179	3.47328
76560	0.52269	0.46456	0.30301	2.81357	2.37510	1.94541	9.48452	5.71981	2.70223	1.15844	1.06893	0.92332	2.05205	1.59360	1.22441	9.83959	6.31646	3.47038
76720	0.50495	0.45855	0.31503	2.82972	2.36150	1.94645	9.46433	5.72068	2.71418	1.13115	1.05151	0.90848	2.08047	1.58732	1.23325	9.81837	6.34972	3.46766
76890	0.50764	0.45916	0.32458	2.79564	2.41498	1.98676	9.49296	5.73725	2.70213	1.17083	1.12276	0.93549	2.07238	1.60263	1.24714	9.86513	6.39055	3.48379	28.51	6.1	0.00	7.51	0.01271	0.01290	0.01649	0.00784	0.00584	0.00641	0.00467	0.01266	0.01683	0.00682	0.00702	0.00893	0.01490	0.01095	0.01196	0.00218	0.00620	0.00872
77050	0.54850	0.48216	0.33185	2.84490	2.38492	1.96066	9.48418	5.74616	2.73204	1.17377	1.10134	0.94517	2.04908	1.59461	1.23543	9.84675	6.35479	3.51359
77220	0.51847	0.46369	0.33381	2.80546	2.39762	1.99630	9.50322	5.72483	2.70812	1.20263	1.07184	0.97933	2.05432	1.60138	1.23117	9.86913	6.35418	3.49777
77380	0.52341	0.48543	0.34263	2.84668	2.38795	1.94980	9.45311	5.73457	2.73224	1.14101	1.05020	0.91725	2.07507	1.60131	1.24007	9.86743	6.32746	3.49922
77540	0.49971	0.47625	0.33419	2.85788	2.41625	1.99025	9.46310	5.73681	2.71075	1.16192	1.03932	0.94684	2.05074	1.58114	1.22075	9.83179	6.33007	3.49090
77710	0.51015	0.46172	0.32484	2.82765	2.36909	1.97073	9.47026	5.72425	2.70225	1.16828	1.04320	0.92423	2.06353	1.58985	1.23604	9.87193	6.33576	3.45519
77870	0.51299	0.46941	0.33679	2.84961	2.41674	2.02672	9.48086	5.76237	2.73288	1.18953	1.05434	0.97045	2.07572	1.61044	1.24640	9.85923	6.34906	3.48818
78040	0.52226	0.47448	0.32888	2.78941	2.36470	1.95462	9.48382	5.72583	2.72146	1.15245	1.06891	0.94000	2.07293	1.58150	1.21425	9.80134	6.33243	3.49404
78200	0.51221	0.46640	0.33213	2.85639	2.39122	1.97296	9.48264	5.73039	2.72054	1.17598	1.08470	0.94294	2.05508	1.59904	1.24032	9.85614	6.34726	3.47744
78360	0.52193	0.48641	0.33221	2.82426	2.35794	1.93798	9.47428	5.74507	2.72956	1.16322	1.07586	0.94026	2.06802	1.59227	1.24382	9.84485	6.32177	3.46897
78530	0.52617	0.46962	0.33648	2.79668	2.37760	1.94254	9.46260	5.73850	2.71937	1.19370	1.04434	0.96890	2.06127	1.58781	1.23345	9.82208	6.32958	3.52171	28.51	6.0	0.00	7.45	0.01271	0.01290	0.01649	0.00784	0.00584	0.00641	0.00467	0.01266	0.01683	0.00682	0.00702	0.00892	0.01489	0.01095	0.01196	0.00218	0.00620	0.00872
78690	0.50867	0.48198	0.31965	2.85523	2.42917	2.00004	9.47331	5.74721	2.72622	1.16870	1.07613	0.94025	2.06347	1.61518	1.23701	9.86210	6.32760	3.46783
78850	0.52373	0.47176	0.33503	2.79431	2.35663	1.95271	9.49726	5.72026	2.71929	1.16768	1.04578	0.94175	2.08193	1.60552	1.24712	9.82707	6.30916	3.46800
79020	0.50979	0.48214	0.31108	2.83694	2.38332	1.97449	9.47680	5.74759	2.73217	1.16829	1.06852	0.93941	2.06699	1.60465	1.24592	9.87931	6.32126	3.47171
79180	0.51307	0.46824	0.31837	2.78939	2.32739	1.96403	9.46242	5.72430	2.71189	1.15209	1.05375	0.93555	2.07134	1.59764	1.25718	9.86980	6.37234	3.48745
79340	0.52154	0.47548	0.31796	2.83214	2.40977	2.02503	9.49459	5.74004	2.72435	1.13789	1.05352	0.94551	2.07743	1.60483	1.25160	9.88583	6.34070	3.48293
79510	0.53291	0.48981	0.33145	2.80099	2.38018	1.98426	9.49708	5.75099	2.71849	1.18055	1.06899	0.96466	2.07313	1.60824	1.23055	9.86820	6.33585	3.45302
79670	0.52916	0.46524	0.32279	2.86838	2.38906	1.96588	9.47906	5.73878	2.72981	1.15581	1.06067	0.93332	2.06760	1.61036	1.23155	9.87361	6.31525	3.46526
79840	0.52333	0.47595	0.34460	2.82386	2.39376	1.98513	9.48807	5.75399	2.74360	1.16047	1.05777	0.92725	2.10653	1.59744	1.24206	9.84711	6.35730	3.48979
80000	0.52475	0.49133	0.33336	2.83969	2.40078	1.99461	9.49263	5.72422	2.72353	1.14612	1.11619	0.97415	2.07698	1.59486	1.25805	9.87371	6.39879	3.49707
80170	0.52092	0.47722	0.33229	2.83217	2.44116	2.01224	9.46702	5.74982	2.74563	1.22532	1.11681	0.97242	2.08568	1.61578	1.27115	9.87168	6.40409	3.52044	28.51	6.1	0.00	7.47	0.01271	0.01290	0.01649	0.00784	0.00584	0.00641	0.00467	0.01266	0.01683	0.00682	0.00702	0.00892	0.01489	0.01095	0.01196	0.00218	0.00620	0.00872
80330	0.54652	0.49166	0.35256	2.81503	2.40205	1.98582	9.48343	5.76479	2.74478	1.22327	1.08125	0.95962	2.11848	1.61716	1.23760	9.85707	6.32941	3.47529
80490	0.53179	0.48585	0.32142	2.81854	2.47213	1.99396	9.49915	5.72460	2.72026	1.17313	1.05415	0.92027	2.09283	1.59217	1.24048	9.81438	6.31703	3.44720
80660	0.52719	0.46624	0.33413	2.81608	2.34966	1.98344	9.46661	5.74063	2.71242	1.16211	1.08068	0.91778	2.06918	1.60488	1.25330	9.78545	6.28372	3.48746
80820	0.51494	0.46007	0.32680	2.80358	2.38616	1.95229	9.49677	5.72617	2.73022	1.16160	1.08332	0.93051	2.07519	1.59161	1.25345	9.82194	6.30008	3.47284
80990	0.54100	0.48643	0.32971	2.81790	2.42229	1.97928	9.48556	5.73316	2.72924	1.14415	1.05922	0.94171	2.05629	1.58154	1.22737	9.79220	6.32961	3.48976
81150	0.52857	0.47451	0.32151	2.86853	2.37467	1.96932	9.47655	5.73559	2.71197	1.20198	1.07237	0.93372	2.05795	1.58731	1.23234	9.82782	6.31930	3.47458
81310	0.52098	0.47320	0.31989	2.81536	2.37461	1.95488	9.48100	5.71292	2.69946	1.15611	1.07775	0.95014	2.03409	1.59141	1.22264	9.80154	6.29846	3.47768
81480	0.49848	0.46265	0.31747	2.81655	2.37082	1.94611	9.45767	5.72087	2.70460	1.14187	1.11831	0.91805	2.05227	1.58344	1.22792	9.82095	6.30363	3.47021
81640	0.50688	0.46560	0.32413	2.81962	2.36489	1.92997	9.46832	5.71573	2.71116	1.18776	1.13088	0.97193	2.07427	1.61518	1.26075	9.89825	6.35217	3.50593
81810	0.54471	0.48749	0.33946	2.86721	2.42913	2.05393	9.50196	5.74574	2.74385	1.22785	1.14834	1.02295	2.08389	1.61322	1.26629	9.84112	6.43366	3.53382	28.46	6.0	0.00	7.41	0.01271	0.01290	0.01649	0.00784	0.00584	0.00641	0.00467	0.01266	0.01683	0.00682	0.00701	0.00892	0.01489	0.01095	0.01196	0.00218	0.00620	0.00872
81970	0.54761	0.51178	0.36028	2.88658	2.42991	2.05361	9.52086	5.77385	2.74328	1.17312	1.09857	0.94853	2.09498	1.61737	1.25851	9.85741	6.32161	3.48498
82130	0.54858	0.50916	0.33587	2.82481	2.38230	1.97806	9.49846	5.77716	2.75093	1.18229	1.05205	0.93040	2.08474	1.60970	1.23790	9.85131	6.37556	3.52134
82300	0.51452	0.47142	0.34263	2.86617	2.41484	1.97645	9.49549	5.73934	2.71890	1.13071	1.05705	0.92295	2.07336	1.59945	1.23408	9.84262	6.33689	3.50682
82460	0.51559	0.47911	0.30859	2.84824	2.36432	1.96063	9.45462	5.71533	2.71249	1.12856	1.03282	0.94922	2.07075	1.59458	1.23203	9.83323	6.31089	3.43488
82620	0.52205	0.48036	0.31173	2.81260	2.36483	1.94522	9.47308	5.73282	2.71859	1.12792	1.02651	0.90030	2.04344	1.58889	1.22464	9.81409	6.32968	3.48010
82780	0.51495	0.45970	0.31483	2.82257	2.41261	1.94666	9.45137	5.71037	2.69782	1.13879	1.05553	0.95416	2.06245	1.59800	1.22861	9.85171	6.31981	3.48073
82950	0.51857	0.48626	0.32120	2.79984	2.36589	1.95108	9.47201	5.72192	2.72970	1.15501	1.06152	0.93590	2.05170	1.58809	1.22916	9.82565	6.33024	3.48121
83110	0.51747	0.46404	0.31671	2.81745	2.36968	1.95249	9.47130	5.72755	2.71904	1.16712	1.04375	0.90168	2.04177	1.58401	1.21292	9.80533	6.29027	3.44606
83280	0.50483	0.46100	0.30461	2.78792	2.34280	1.95902	9.44476	5.71450	2.70698	1.15428	1.05300	0.91614	2.04956	1.57597	1.22208	9.84052	6.36195	3.47741
83440	0.51258	0.46076	0.30108	2.79747	2.34703	1.95545	9.45534	5.70765	2.70379	1.17188	1.05658	0.90578	2.04666	1.57023	1.21007	9.82191	6.29381	3.47355	28.51	6.2	0.00	7.54	0.01271	0.01290	0.01648	0.00784	0.00584	0.00641	0.00467	0.01266	0.01683	0.00682	0.00701	0.00892	0.01489	0.01095	0.01196	0.00218	0.00620	0.00872
83600	0.49514	0.43902	0.30414	2.80523	2.35208	1.91303	9.45511	5.70905	2.69075	1.11858	1.05982	0.91918	2.04870	1.57527	1.21908	9.79672	6.30832	3.48132
83770	0.51200	0.47530	0.32186	2.78645	2.34631	1.93141	9.47475	5.73298	2.71219	1.15032	1.08152	0.91965	2.06364	1.58645	1.22455	9.82461	6.30608	3.44156
83930	0.52158	0.45967	0.31424	2.78411	2.34411	1.93486	9.46652	5.71482	2.70183	1.11317	1.02432	0.88482	2.04288	1.59584	1.22550	9.80219	6.30067	3.45395
84100	0.52570	0.47273	0.32332	2.79588	2.33885	1.93600	9.48791	5.72467	2.70925	1.16953	1.06051	0.91600	2.05627	1.59656	1.23292	9.80767	6.35328	3.47719
84260	0.51169	0.47692	0.33192	2.83759	2.38040	1.99295	9.46043	5.75018	2.72121	1.21550	1.16481	1.03223	2.08268	1.60622	1.28314	9.94360	6.44666	3.64574
84420	0.59401	0.54913	0.38348	3.16365	2.64607	2.23402	9.61235	5.88571	2.89027	1.42235	1.48187	1.31989	2.20413	1.83832	1.46812	10.34024	6.83845	3.91061
84580	0.78810	0.69037	0.56136	3.22137	2.80201	2.32603	9.72542	5.95507	2.93894	1.65717	1.59726	1.31909	2.27051	1.81553	1.40900	10.05841	6.64971	3.80140
84750	0.65404	0.63392	0.48172	3.14941	2.62768	2.33213	9.61055	5.90942	2.86631	1.42026	1.35298	1.24152	2.20908	1.71228	1.37529	10.16505	6.61920	3.70306
84910	0.63998	0.59894	0.46630	3.06194	2.64221	2.22119	9.57303	5.83534	2.82431	1.40251	1.24183	1.15907	2.19026	1.73555	1.35673	10.02599	6.48519	3.62759
85080	0.59125	0.52636	0.38890	2.95247	2.47424	2.06943	9.53723	5.79042	2.79989	1.36354	1.16914	1.07358	2.13974	1.66262	1.26578	9.94099	6.45245	3.56874	28.51	6.1	0.00	7.46	0.01271	0.01290	0.01648	0.00784	0.00584	0.00640	0.00467	0.01266	0.01683	0.00682	0.00701	0.00892	0.01489	0.01095	0.01196	0.00218	0.00620	0.00871
85240	0.55350	0.51287	0.34994	2.94645	2.42178	2.03955	9.54116	5.78924	2.71200	1.23864	1.16820	1.01086	2.07592	1.60374	1.24614	9.88966	6.39116	3.54747
85400	0.52255	0.49259	0.36237	2.87975	2.40177	2.04312	9.47899	5.75663	2.74644	1.18691	1.04658	0.90616	2.06630	1.61557	1.25894	9.83351	6.36559	3.49213
85570	0.54308	0.50529	0.34179	2.84781	2.37758	1.96945	9.48788	5.74356	2.72065	1.15933	1.05840	0.94002	2.05178	1.59843	1.25218	9.83111	6.34441	3.56009
85730	0.53249	0.48191	0.35788	2.94383	2.53289	2.15075	9.52657	5.80570	2.80887	1.33437	1.30263	1.15217	2.15950	1.71308	1.35095	10.04984	6.59831	3.72527
85890	0.62106	0.60104	0.45480	3.03994	2.64142	2.16681	9.68591	5.88254	2.84492	1.48729	1.37140	1.15306	2.16037	1.71111	1.34445	9.98872	6.49219	3.63298
86060	0.64120	0.58354	0.40024	3.04594	2.54045	2.14503	9.57354	5.78632	2.77100	1.27786	1.20622	1.00791	2.08015	1.61674	1.25196	9.87191	6.41783	3.56466
86220	0.51953	0.47107	0.32629	2.91357	2.40636	1.99416	9.48071	5.75033	2.72404	1.22764	1.09896	0.99128	2.07317	1.60728	1.24097	9.89227	6.38832	3.52965
86380	0.51320	0.47809	0.32941	2.82382	2.36639	1.97080	9.49892	5.74547	2.73036	1.16465	1.05610	0.93255	2.07991	1.61644	1.23621	9.87582	6.33359	3.49452
86540	0.53741	0.46877	0.31327	2.82395	2.40401	1.97016	9.47798	5.72762	2.72540	1.15936	1.06796	0.94278	2.07234	1.58266	1.22957	9.84799	6.35810	3.49506
86710	0.49348	0.45870	0.30257	2.84672	2.38542	1.98245	9.46988	5.72886	2.70408	1.13338	1.05271	0.93575	2.05318	1.58961	1.23428	9.85495	6.34432	3.48646	28.51	6.1	0.00	7.54	0.01271	0.01290	0.01648	0.00784	0.00584	0.00640	0.00467	0.01265	0.01683	0.00681	0.00701	0.00891	0.01489	0.01095	0.01196	0.00218	0.00620	0.00871
86870	0.51641	0.48445	0.34719	2.83308	2.36738	1.95927	9.46977	5.73000	2.72538	1.18078	1.06721	0.97898	2.07112	1.60148	1.23289	9.85976	6.35252	3.51839
87040	0.52364	0.47856	0.33051	2.87129	2.40167	1.99218	9.50048	5.73679	2.74072	1.15211	1.05655	0.93173	2.07267	1.61248	1.26074	9.89395	6.35547	3.51175
87200	0.52181	0.48554	0.35564	2.82253	2.41172	1.97629	9.47113	5.74970	2.74605	1.17522	1.08799	0.94488	2.08317	1.60561	1.25183	9.90852	6.40557	3.54620
87360	0.53829	0.48463	0.33115	2.84737	2.39698	2.01679	9.47776	5.73257	2.72427	1.20189	1.13963	0.99021	2.09531	1.60490	1.26152	9.90741	6.43204	3.53034
87530	0.53688	0.50033	0.35556	2.91092	2.45785	2.01964	9.51474	5.80810	2.77388	1.21873	1.18490	1.02918	2.08120	1.63848	1.27754	9.92020	6.45355	3.56142
87690	0.55464	0.51453	0.35880	2.88359	2.41124	2.02981	9.50291	5.75865	2.74929	1.25625	1.09348	0.98784	2.08965	1.63022	1.24148	9.90058	6.39352	3.51083
87850	0.52692	0.47895	0.33251	2.82684	2.41177	1.97865	9.48511	5.75184	2.72000	1.20089	1.10119	0.96042	2.08759	1.60056	1.23956	9.86787	6.34766	3.52225
88010	0.50415	0.46440	0.32450	2.88214	2.40253	2.00705	9.51575	5.74075	2.73591	1.16711	1.09233	0.94818	2.05661	1.59951	1.23710	9.83766	6.33364	3.49878
88180	0.54325	0.47818	0.33396	2.80330	2.38069	1.97029	9.46184	5.73174	2.73793	1.20627	1.10889	0.94585	2.04717	1.60573	1.23920	9.79172	6.34620	3.49333
88340	0.52416	0.47899	0.32914	2.80618	2.35256	1.95590	9.45776	5.70817	2.70606	1.14506	1.04252	0.90108	2.04841	1.58205	1.22273	9.83272	6.32809	3.52809	28.51	6.1	0.00	7.44	0.01270	0.01290	0.01648	0.00784	0.00584	0.00640	0.00467	0.01265	0.01683	0.00681	0.00701	0.00891	0.01489	0.01095	0.01196	0.00218	0.00620	0.00871
88500	0.51544	0.47448	0.32140	2.81837	2.39506	1.98227	9.46456	5.72144	2.71131	1.16465	1.10336	0.93440	2.04672	1.58836	1.24745	9.84111	6.36202	3.49153
88670	0.49941	0.45705	0.32338	2.83592	2.36271	1.96745	9.49704	5.72241	2.70066	1.15978	1.06807	0.91713	2.05113	1.57345	1.22531	9.86862	6.38000	3.47760
88830	0.50048	0.45843	0.30161	2.79510	2.33259	1.93877	9.47184	5.72030	2.71576	1.16519	1.05505	0.92500	2.05683	1.57828	1.22758	9.83931	6.33891	3.47378
89000	0.50452	0.47174	0.30848	2.82777	2.37623	1.95288	9.48103	5.72326	2.71809	1.15167	1.04569	0.91891	2.05631	1.58996	1.22927	9.83521	6.33444	3.46872
89160	0.50549	0.46931	0.31730	2.81572	2.35733	1.97511	9.48713	5.71320	2.74068	1.13101	1.02305	0.95370	2.04992	1.58755	1.22416	9.81317	6.30570	3.49077
89320	0.50968	0.46442	0.33448	2.84658	2.37749	1.94033	9.46906	5.71673	2.71581	1.17965	1.07161	0.95389	2.05449	1.59032	1.22975	9.86582	6.34979	3.48302
89490	0.50460	0.47466	0.32111	2.82469	2.37135	1.98692	9.46900	5.73762	2.74607	1.17965	1.11210	0.95327	2.05874	1.58936	1.24730	9.87383	6.42417	3.55031
89650	0.52690	0.49695	0.36128	2.88204	2.47172	2.05049	9.52296	5.75964	2.74469	1.20492	1.10647	0.98495	2.06711	1.61481	1.25739	9.84321	6.38309	3.50492
89810	0.52936	0.47703	0.34270	2.85760	2.39366	1.98584	9.48114	5.73532	2.71977	1.16885	1.06357	0.94151	2.04820	1.60202	1.25333	9.83472	6.35418	3.48428
89980	0.52306	0.46583	0.31866	2.82962	2.39257	1.96411	9.47426	5.73200	2.74245	1.18674	1.08409	0.92646	2.06976	1.61923	1.23443	9.82005	6.32955	3.47165	28.57	6.2	0.00	6.86	0.01270	0.01289	0.01648	0.00783	0.00583	0.00640	0.00467	0.01265	0.01683	0.00681	0.00701	0.00891	0.01489	0.01094	0.01196	0.00218	0.00619	0.00871
