WetView ver 7.1	07-16-2018	12:42:25
AC9 Absorption and Attenuation Meter
00000266		; Serial number
2	; structure version number
Reserved
0.000000	0.000000		; Depth calibration
19200			; Baud rate
0.100000			; Path length (meters)
31			; number of temperature calibration bins
				12.59339	13.44920	14.48425	15.49668	16.50852	17.49564	18.50545	19.52458	20.50176	21.48889	22.47318	23.48707	24.50962	25.49370	26.49784	27.51372	28.50746	29.47237	30.47938	31.50214	32.50470	33.49235	34.50337	35.50914	36.50618	37.52058	38.51018	39.51308	40.49994	41.49866	42.47204	; temperature bins
a650	Blue	20.34952		-0.00383	-0.00415	-0.00430	-0.00391	-0.00363	-0.00317	-0.00269	-0.00237	-0.00179	-0.00130	-0.00099	-0.00071	-0.00015	0.00000	0.00004	-0.00001	0.00015	0.00036	0.00058	0.00101	0.00161	0.00132	0.00160	0.00169	0.00242	0.00273	0.00336	0.00365	0.00427	0.00566	0.00670		; offset and temperature correction info
a676	Green	20.51193		-0.00398	-0.00384	-0.00360	-0.00306	-0.00302	-0.00255	-0.00235	-0.00212	-0.00163	-0.00136	-0.00118	-0.00089	-0.00029	0.00000	0.00068	0.00082	0.00099	0.00137	0.00145	0.00212	0.00260	0.00252	0.00321	0.00354	0.00457	0.00535	0.00617	0.00648	0.00742	0.00887	0.01002		; offset and temperature correction info
a715	Brown	20.23230		-0.00421	-0.00394	-0.00391	-0.00291	-0.00264	-0.00192	-0.00204	-0.00179	-0.00188	-0.00239	-0.00180	-0.00187	-0.00099	0.00000	0.00084	0.00162	0.00188	0.00224	0.00321	0.00381	0.00466	0.00528	0.00588	0.00696	0.00859	0.01041	0.01148	0.01282	0.01333	0.01456	0.01617		; offset and temperature correction info
c510	Red	20.40042		-0.00261	-0.00247	-0.00258	-0.00225	-0.00203	-0.00197	-0.00199	-0.00203	-0.00154	-0.00103	-0.00069	-0.00019	-0.00007	0.00000	0.00011	-0.00021	-0.00042	-0.00056	-0.00040	0.00011	0.00036	0.00050	0.00077	0.00079	0.00050	0.00042	0.00043	0.00092	0.00147	0.00200	0.00232		; offset and temperature correction info
c532	Magenta	20.40760		-0.00248	-0.00265	-0.00278	-0.00279	-0.00296	-0.00292	-0.00238	-0.00206	-0.00129	-0.00096	-0.00092	-0.00052	-0.00009	0.00000	0.00007	-0.00049	-0.00136	-0.00107	-0.00079	-0.00065	-0.00074	-0.00105	-0.00152	-0.00192	-0.00236	-0.00269	-0.00252	-0.00233	-0.00172	-0.00128	-0.00067		; offset and temperature correction info
c555	Black	20.50654		-0.00053	-0.00063	-0.00106	-0.00094	-0.00068	-0.00055	-0.00053	-0.00039	-0.00028	-0.00025	-0.00011	-0.00035	-0.00007	0.00000	-0.00037	-0.00055	-0.00036	-0.00014	0.00019	0.00044	0.00032	0.00040	0.00050	0.00028	0.00014	0.00013	0.00030	0.00073	0.00117	0.00176	0.00241		; offset and temperature correction info
a412	LtBlue	17.15231		-0.01972	-0.01823	-0.01612	-0.01381	-0.01272	-0.01080	-0.00959	-0.00866	-0.00710	-0.00532	-0.00354	-0.00148	-0.00028	0.00000	0.00176	0.00297	0.00394	0.00440	0.00453	0.00487	0.00804	0.00856	0.01065	0.01248	0.01388	0.01439	0.01659	0.01881	0.02256	0.02450	0.02719		; offset and temperature correction info
a440	LtGreen	18.00171		-0.00729	-0.00642	-0.00581	-0.00502	-0.00426	-0.00349	-0.00244	-0.00218	-0.00179	-0.00101	-0.00046	-0.00006	0.00036	0.00000	0.00040	0.00045	0.00030	-0.00015	-0.00024	-0.00035	0.00012	-0.00013	-0.00033	-0.00089	-0.00142	-0.00189	-0.00231	-0.00205	-0.00140	-0.00140	-0.00146		; offset and temperature correction info
a488	Yellow	18.86491		-0.00113	-0.00102	-0.00106	-0.00064	-0.00027	-0.00020	-0.00030	-0.00037	-0.00047	-0.00059	-0.00052	-0.00012	0.00008	0.00000	0.00025	0.00012	-0.00013	-0.00043	-0.00065	-0.00076	-0.00025	0.00010	0.00090	0.00111	0.00113	0.00104	0.00073	0.00068	0.00120	0.00186	0.00258		; offset and temperature correction info
c650	Blue	20.46075		-0.00145	-0.00097	-0.00092	-0.00139	-0.00185	-0.00196	-0.00237	-0.00266	-0.00238	-0.00163	-0.00083	-0.00041	-0.00010	0.00000	0.00005	-0.00001	0.00015	0.00034	0.00029	0.00065	0.00101	0.00164	0.00126	0.00156	0.00175	0.00270	0.00287	0.00371	0.00407	0.00473	0.00534		; offset and temperature correction info
c676	Green	20.10118		-0.00170	-0.00144	-0.00149	-0.00177	-0.00188	-0.00194	-0.00198	-0.00196	-0.00177	-0.00156	-0.00140	-0.00091	-0.00033	0.00000	0.00050	0.00092	0.00110	0.00141	0.00167	0.00199	0.00216	0.00265	0.00269	0.00289	0.00315	0.00374	0.00367	0.00408	0.00486	0.00561	0.00646		; offset and temperature correction info
c715	Brown	19.91219		-0.01201	-0.01097	-0.00859	-0.00680	-0.00651	-0.00592	-0.00535	-0.00440	-0.00387	-0.00303	-0.00222	-0.00153	-0.00028	0.00000	0.00093	0.00149	0.00247	0.00322	0.00330	0.00427	0.00373	0.00464	0.00536	0.00551	0.00643	0.00733	0.00779	0.00884	0.00899	0.01021	0.01120		; offset and temperature correction info
a510	Red	19.21192		0.00201	0.00193	0.00158	0.00098	0.00089	0.00049	0.00011	-0.00016	-0.00016	-0.00005	0.00028	0.00025	0.00006	0.00000	0.00035	-0.00022	-0.00023	-0.00080	-0.00144	-0.00154	-0.00153	-0.00204	-0.00220	-0.00219	-0.00190	-0.00128	-0.00069	-0.00018	0.00068	0.00152	0.00241		; offset and temperature correction info
a532	Magenta	19.41084		-0.00097	-0.00072	-0.00060	-0.00081	-0.00062	-0.00071	-0.00040	0.00020	0.00028	0.00043	0.00000	-0.00035	0.00007	0.00000	-0.00011	-0.00059	-0.00080	-0.00098	-0.00137	-0.00162	-0.00163	-0.00130	-0.00073	-0.00018	0.00090	0.00185	0.00175	0.00247	0.00291	0.00327	0.00349		; offset and temperature correction info
a555	Black	19.69776		0.00171	0.00183	0.00183	0.00186	0.00191	0.00170	0.00115	0.00131	0.00097	0.00073	0.00060	0.00013	0.00015	0.00000	0.00014	-0.00029	-0.00066	-0.00082	-0.00116	-0.00139	-0.00134	-0.00167	-0.00119	-0.00093	-0.00048	0.00053	0.00111	0.00095	0.00178	0.00206	0.00273		; offset and temperature correction info
c412	LtBlue	19.91180		-0.02051	-0.01853	-0.01589	-0.01311	-0.01059	-0.00877	-0.00705	-0.00581	-0.00413	-0.00231	-0.00098	-0.00066	-0.00011	0.00000	-0.00013	-0.00085	-0.00170	-0.00170	-0.00302	-0.00330	-0.00429	-0.00551	-0.00626	-0.00775	-0.00978	-0.01181	-0.01113	-0.01108	-0.01116	-0.01192	-0.01291		; offset and temperature correction info
c440	LtGreen	20.06241		-0.01064	-0.00992	-0.00892	-0.00766	-0.00639	-0.00531	-0.00478	-0.00384	-0.00287	-0.00187	-0.00102	-0.00063	-0.00023	0.00000	-0.00007	-0.00053	-0.00090	-0.00119	-0.00169	-0.00197	-0.00226	-0.00257	-0.00260	-0.00289	-0.00394	-0.00470	-0.00481	-0.00493	-0.00520	-0.00580	-0.00620		; offset and temperature correction info
c488	Yellow	20.35984		-0.01125	-0.01082	-0.00966	-0.00833	-0.00726	-0.00661	-0.00579	-0.00500	-0.00389	-0.00278	-0.00167	-0.00113	-0.00041	0.00000	0.00055	0.00121	0.00187	0.00226	0.00222	0.00251	0.00281	0.00359	0.00414	0.00427	0.00401	0.00404	0.00486	0.00563	0.00638	0.00684	0.00718		; offset and temperature correction info
0.003500	0.004000	0.015000	0.020000	0.015000	0.020000	2500.000000	2000.000000	1000.000000	; maxANoise	maxCNoise	maxADifference	maxCDifference	minACounts	minCCounts	minRCounts	maxTempSdev	maxDepthSdev
0			; auxilliary capabilities
1			; acquisition binsize
0	0.48658	0.45699	0.30282	2.76697	2.35338	1.92425	9.46726	5.71665	2.68991	1.11695	1.01588	0.88396	2.05145	1.57655	1.21033	9.81537	6.31181	3.45313	30.12	6.1	0.00	7.65	0.01267	0.01288	0.01633	0.00780	0.00581	0.00637	0.00466	0.01264	0.01679	0.00678	0.00699	0.00881	0.01487	0.01092	0.01194	0.00217	0.00617	0.00866
160	0.50327	0.44409	0.29357	2.80709	2.33129	1.93259	9.45879	5.70656	2.69778	1.10745	1.01099	0.88525	2.03841	1.57072	1.20163	9.81927	6.27236	3.42742
330	0.49104	0.45106	0.29064	2.75502	2.34114	1.93798	9.44778	5.71231	2.70960	1.13138	1.03637	0.90401	2.04153	1.57967	1.22602	9.79919	6.30013	3.46613
490	0.51160	0.47302	0.33956	2.82772	2.39377	1.99297	9.49041	5.75490	2.72457	1.19770	1.11270	1.03518	2.08885	1.62003	1.28134	10.04161	6.46390	3.58251
650	0.56800	0.52583	0.38177	2.93458	2.50454	2.13428	9.53752	5.78767	2.74822	1.25298	1.14589	0.98566	2.08927	1.64999	1.31684	9.88793	6.36373	3.55187
820	0.54964	0.49708	0.35168	2.85708	2.41897	2.00856	9.51909	5.74079	2.73262	1.17735	1.06715	0.93084	2.09291	1.61372	1.25628	9.81607	6.32860	3.43664
980	0.51872	0.45615	0.31040	2.79286	2.34100	1.93567	9.48269	5.73172	2.70406	1.12812	1.03159	0.90285	2.04860	1.57888	1.20559	9.76560	6.27343	3.41330
1140	0.49889	0.45945	0.29731	2.75605	2.32264	1.90684	9.46608	5.68491	2.68870	1.09846	0.98231	0.87506	2.02674	1.55421	1.19313	9.73817	6.25686	3.39959
1310	0.48139	0.43358	0.29084	2.77663	2.31249	1.89025	9.43075	5.69560	2.69231	1.08133	0.98250	0.87011	2.02868	1.55198	1.19171	9.75665	6.24170	3.40323
1470	0.48339	0.44410	0.29843	2.74229	2.29716	1.90184	9.42137	5.68658	2.68138	1.08652	0.97838	0.87019	2.01826	1.54739	1.19134	9.75307	6.23142	3.39778
1630	0.47761	0.43273	0.28269	2.74513	2.29103	1.88253	9.42706	5.68965	2.69152	1.09261	0.99350	0.85968	2.02264	1.55112	1.20940	9.73698	6.23794	3.40536	30.06	6.1	0.00	7.55	0.01267	0.01288	0.01633	0.00780	0.00581	0.00637	0.00466	0.01263	0.01679	0.00678	0.00699	0.00881	0.01487	0.01092	0.01194	0.00217	0.00617	0.00866
1800	0.47530	0.43849	0.29102	2.76102	2.30983	1.90230	9.42493	5.68945	2.68149	1.08276	0.98439	0.85927	2.02266	1.55559	1.19764	9.76383	6.25257	3.38764
1960	0.48474	0.44212	0.29457	2.74634	2.30515	1.90093	9.42352	5.68849	2.67776	1.07622	0.98593	0.84980	2.02578	1.55963	1.19450	9.75437	6.25308	3.41845
2120	0.47930	0.42981	0.28171	2.73976	2.30589	1.88362	9.42358	5.68678	2.67425	1.07039	0.98801	0.84582	2.01743	1.54933	1.19613	9.75268	6.23566	3.38553
2290	0.48466	0.44073	0.28600	2.73654	2.29302	1.91860	9.45005	5.69615	2.69107	1.08300	0.98718	0.85741	2.04054	1.55732	1.20105	9.75199	6.24243	3.39936
2450	0.49366	0.44297	0.28001	2.74318	2.29275	1.89551	9.42918	5.69772	2.67425	1.07980	0.98808	0.85390	2.02622	1.55864	1.19361	9.73232	6.23814	3.40314
2610	0.48108	0.45358	0.30083	2.72754	2.28777	1.88192	9.44780	5.68951	2.68396	1.10017	0.99488	0.84412	2.03466	1.55283	1.19329	9.75159	6.24978	3.40915
2770	0.48447	0.44297	0.28849	2.73030	2.30656	1.90965	9.42493	5.70396	2.68184	1.10931	0.98552	0.86755	2.02897	1.55446	1.19437	9.76911	6.26702	3.42096
2940	0.48679	0.44744	0.29378	2.74353	2.30941	1.90719	9.45668	5.69958	2.68805	1.12958	1.02756	0.88528	2.04332	1.56628	1.20732	9.76652	6.25415	3.42892
3100	0.48133	0.43819	0.28920	2.75418	2.33934	1.91118	9.43781	5.69422	2.68421	1.11066	1.01750	0.90265	2.04335	1.56332	1.20827	9.75467	6.24837	3.43247
3270	0.49193	0.44250	0.29518	2.76164	2.31330	1.88514	9.46833	5.70169	2.68055	1.10485	1.01559	0.87740	2.03426	1.55786	1.21299	9.78284	6.28157	3.45709	30.12	6.1	0.00	7.53	0.01267	0.01288	0.01633	0.00780	0.00581	0.00637	0.00466	0.01264	0.01679	0.00678	0.00699	0.00881	0.01487	0.01092	0.01194	0.00217	0.00617	0.00866
3430	0.51235	0.45644	0.31057	2.77256	2.35269	1.93260	9.46667	5.71029	2.70391	1.11926	1.02801	0.92836	2.04969	1.57372	1.22411	9.80321	6.29512	3.44699
3590	0.50701	0.45856	0.32242	2.75530	2.32101	1.91660	9.46922	5.72211	2.70333	1.14391	1.03419	0.91064	2.04332	1.57077	1.23143	9.80841	6.28233	3.42790
3760	0.50882	0.45105	0.31677	2.77397	2.37457	1.91563	9.47848	5.71086	2.70313	1.13101	1.02904	0.88293	2.04052	1.58142	1.22031	9.77476	6.28323	3.43523
3920	0.50562	0.45473	0.30463	2.79786	2.32488	1.91662	9.46999	5.70487	2.69693	1.09636	1.00613	0.88470	2.03752	1.56735	1.20940	9.73289	6.26129	3.40933
4080	0.50172	0.45191	0.30719	2.74655	2.30547	1.90056	9.43867	5.70197	2.68713	1.10982	1.01176	0.88198	2.03145	1.56020	1.19649	9.72763	6.24013	3.40023
4250	0.48204	0.44543	0.30443	2.73610	2.30287	1.88904	9.44796	5.69530	2.68508	1.09902	0.99631	0.88830	2.03610	1.56503	1.19981	9.78134	6.24927	3.38487
4410	0.49606	0.44536	0.28882	2.75511	2.30450	1.90502	9.44387	5.69172	2.68149	1.09668	0.99261	0.85670	2.03117	1.55959	1.20032	9.76600	6.25651	3.41581
4570	0.48770	0.44040	0.29216	2.74187	2.31859	1.88824	9.43631	5.69238	2.67985	1.12231	1.00635	0.86517	2.03431	1.55106	1.20210	9.73686	6.26700	3.40210
4730	0.48093	0.44533	0.28971	2.73677	2.31064	1.90073	9.43524	5.70476	2.68488	1.09744	0.98198	0.86960	2.03328	1.54668	1.19466	9.75117	6.24668	3.39482
4900	0.48531	0.43085	0.27954	2.72046	2.29163	1.87795	9.43444	5.69228	2.68205	1.09808	0.98215	0.87965	2.03275	1.56024	1.19434	9.75835	6.24078	3.40124	30.12	6.1	0.00	7.64	0.01267	0.01288	0.01633	0.00780	0.00581	0.00637	0.00466	0.01264	0.01679	0.00678	0.00699	0.00881	0.01487	0.01092	0.01194	0.00217	0.00617	0.00867
5060	0.47943	0.43152	0.28637	2.72315	2.30490	1.90173	9.43255	5.68366	2.67321	1.07397	0.96749	0.83393	2.02681	1.54877	1.19089	9.72299	6.22571	3.37206
5230	0.47594	0.42686	0.28671	2.70331	2.28578	1.85883	9.42582	5.68709	2.66871	1.06452	0.96648	0.83881	2.02369	1.55093	1.19462	9.76004	6.22075	3.39396
5390	0.48344	0.44429	0.28599	2.72583	2.30516	1.88133	9.43604	5.68992	2.67966	1.09101	0.98967	0.85048	2.02778	1.55407	1.19599	9.74612	6.24146	3.40385
5550	0.48732	0.43743	0.28874	2.73369	2.30069	1.88912	9.43362	5.69965	2.68631	1.09799	0.98644	0.87142	2.02909	1.56239	1.20613	9.76881	6.26092	3.41586
5720	0.49405	0.43633	0.28935	2.72542	2.28428	1.88456	9.43007	5.68592	2.67534	1.06882	0.97774	0.84825	2.02011	1.55050	1.20350	9.73817	6.22315	3.37784
5880	0.48494	0.43604	0.28662	2.71970	2.28600	1.87997	9.46261	5.68721	2.67765	1.07654	0.97598	0.83243	2.01665	1.55692	1.19621	9.72745	6.27712	3.38555
6050	0.50440	0.47337	0.28665	2.85410	2.39613	2.00457	9.45450	5.73150	2.73046	1.48288	1.24135	1.26871	2.13220	1.63094	1.36145	10.14073	6.72210	3.89926
6210	0.68739	0.67736	0.49892	2.96848	2.63563	2.23447	10.06002	6.14115	3.23686	1.65884	1.44039	1.37249	2.48930	2.29480	1.75690	9.98490	6.52441	3.61846
6370	1.01238	0.80810	0.65242	2.94615	2.50286	2.06144	9.87357	6.47227	3.03491	1.23492	1.05773	0.87993	2.38608	1.88723	1.65303	9.81684	6.37987	3.65133
6540	0.82528	0.60503	0.34871	2.96362	2.34823	1.94393	9.53906	5.88661	2.77215	1.09887	1.01144	0.88093	2.07350	1.73265	1.28818	9.78591	6.22970	3.46686	30.12	6.1	0.00	7.52	0.01267	0.01288	0.01633	0.00780	0.00581	0.00637	0.00466	0.01264	0.01679	0.00678	0.00699	0.00881	0.01487	0.01092	0.01194	0.00217	0.00617	0.00867
6700	0.59175	0.49676	0.30579	2.76356	2.28828	1.91644	9.45505	5.72173	2.69022	1.08011	0.98395	0.87812	2.04925	1.56415	1.19946	9.75593	6.30989	3.42149
6860	0.48533	0.43980	0.29462	2.72919	2.29693	1.87467	9.46547	5.69932	2.69686	1.07678	0.97599	0.83797	2.03246	1.56748	1.20072	9.82439	6.26318	3.40768
7030	0.50926	0.45088	0.31430	2.79275	2.30739	1.88464	9.43990	5.70977	2.72106	1.08894	1.00331	0.88318	2.03405	1.58734	1.22179	9.75096	6.25487	3.40378
7190	0.50164	0.44870	0.28994	2.74950	2.28565	1.91333	9.45487	5.70177	2.70994	1.09008	1.01865	0.87722	2.02192	1.56873	1.22618	9.80668	6.26687	3.42841
7360	0.50579	0.45461	0.30151	2.74267	2.31486	1.90327	9.44865	5.71216	2.71501	1.09130	0.97451	0.86478	2.03694	1.55594	1.20256	9.74311	6.26211	3.40004
7520	0.48344	0.44213	0.29868	2.74141	2.31856	1.89413	9.46577	5.70871	2.68601	1.09382	0.98616	0.87670	2.04912	1.57278	1.20542	9.73983	6.25512	3.42794
7690	0.49438	0.45413	0.29692	2.75712	2.31044	1.89578	9.43848	5.71128	2.67939	1.11668	0.99372	0.87125	2.03327	1.60444	1.24375	9.80198	6.28079	3.42550
7850	0.52042	0.45035	0.30865	2.79252	2.34042	1.94691	9.49515	5.72549	2.73227	1.16887	1.10504	0.96406	2.04876	1.59782	1.22701	9.86804	6.41384	3.47476
8010	0.53658	0.48688	0.32111	2.81588	2.37429	1.96489	9.47152	5.73154	2.71599	1.16214	1.03249	0.93457	2.06191	1.58697	1.23272	9.79609	6.27247	3.43969
8180	0.50904	0.46648	0.31686	2.81270	2.37576	1.91992	9.46312	5.72371	2.71133	1.13310	1.04733	0.90310	2.06955	1.58516	1.22360	9.82232	6.28162	3.40118	30.12	6.1	0.00	7.62	0.01267	0.01288	0.01633	0.00780	0.00581	0.00637	0.00466	0.01264	0.01679	0.00678	0.00699	0.00881	0.01487	0.01092	0.01194	0.00217	0.00617	0.00867
8340	0.50321	0.45544	0.29930	2.75724	2.31019	1.93487	9.43223	5.70010	2.69013	1.09190	1.00370	0.86717	2.02730	1.56360	1.20757	9.75534	6.25573	3.40874
8510	0.48351	0.44521	0.28766	2.72538	2.28763	1.88044	9.43583	5.69018	2.67803	1.07012	0.96819	0.83563	2.02815	1.55926	1.20022	9.75176	6.25704	3.42086
8670	0.49139	0.43513	0.28780	2.74381	2.28637	1.87778	9.43731	5.70310	2.68342	1.13576	0.99626	0.87020	2.04172	1.56366	1.20860	9.78383	6.26584	3.43038
8830	0.49063	0.44651	0.31636	2.79768	2.33179	1.94321	9.45109	5.71844	2.70675	1.18767	1.07722	0.93321	2.04764	1.57571	1.21590	9.81611	6.33300	3.44811
9000	0.49686	0.45747	0.29820	2.77399	2.34088	1.97063	9.45654	5.71102	2.71015	1.11233	1.00835	0.86861	2.04621	1.56671	1.21154	9.82162	6.31301	3.49694
9160	0.49234	0.46064	0.30371	2.78101	2.29911	1.91329	9.48441	5.72280	2.70936	1.11149	1.02089	0.89988	2.04991	1.56451	1.20119	9.79811	6.31496	3.41570
9320	0.51831	0.45825	0.31857	2.75241	2.34744	1.94821	9.46383	5.72302	2.71108	1.14488	1.05586	0.94416	2.04870	1.58899	1.21423	9.79422	6.29305	3.44459
9490	0.51225	0.46177	0.30202	2.76796	2.29683	1.91349	9.46199	5.72073	2.70658	1.09038	1.02910	0.87860	2.04285	1.57506	1.23042	9.77267	6.29702	3.42379
9650	0.50562	0.45899	0.30631	2.74417	2.29044	1.88447	9.45387	5.68934	2.68634	1.10195	0.99314	0.87618	2.03590	1.56155	1.19947	9.76330	6.25607	3.41281
9810	0.49334	0.44000	0.28585	2.75106	2.30398	1.88108	9.44298	5.69975	2.69378	1.09131	0.99043	0.87257	2.02971	1.55679	1.20234	9.75546	6.22659	3.39383	30.12	6.2	0.00	7.54	0.01267	0.01288	0.01633	0.00780	0.00581	0.00637	0.00466	0.01264	0.01679	0.00678	0.00699	0.00881	0.01487	0.01092	0.01194	0.00217	0.00617	0.00867
9980	0.48379	0.44956	0.29344	2.74160	2.30470	1.89670	9.44398	5.71550	2.68444	1.09936	0.99363	0.86110	2.03607	1.56519	1.20288	9.75327	6.26516	3.40754
10140	0.51015	0.44502	0.29198	2.74764	2.29955	1.92465	9.45487	5.70384	2.69468	1.10060	0.98301	0.86988	2.03225	1.56115	1.20530	9.73816	6.24644	3.39117
10300	0.49059	0.44422	0.28343	2.73701	2.31840	1.89596	9.42844	5.69523	2.68758	1.06824	0.98989	0.84617	2.03391	1.56165	1.20140	9.72932	6.22174	3.39314
10470	0.49118	0.44163	0.28575	2.73463	2.31133	1.89294	9.45434	5.70867	2.68951	1.09069	0.98442	0.84857	2.02352	1.55644	1.20020	9.72873	6.23945	3.37772
10630	0.48819	0.43278	0.28838	2.72608	2.28312	1.88021	9.45523	5.69437	2.68488	1.07671	1.00072	0.88273	2.02391	1.58512	1.22614	9.74084	6.24816	3.38752
10800	0.49628	0.43611	0.29356	2.77862	2.32957	1.89730	9.45754	5.69666	2.68021	1.08643	1.00616	0.86450	2.02827	1.55359	1.20166	9.77947	6.30486	3.40874
10960	0.48567	0.45231	0.30896	2.74490	2.32619	1.91165	9.43512	5.72024	2.70730	1.08691	0.99750	0.88350	2.05091	1.57690	1.21264	9.73290	6.23790	3.39793
11120	0.48847	0.44035	0.28934	2.74200	2.28756	1.88142	9.45848	5.69144	2.68797	1.09405	0.98352	0.85269	2.03374	1.54887	1.19847	9.73359	6.25124	3.39809
11290	0.49057	0.44801	0.28916	2.72316	2.29653	1.88758	9.43458	5.69177	2.67972	1.08172	0.97081	0.84715	2.03480	1.56561	1.20009	9.73151	6.23778	3.40081
11450	0.48668	0.43741	0.29273	2.73032	2.28736	1.87988	9.43558	5.69295	2.67906	1.07370	0.98435	0.84588	2.02829	1.56282	1.19641	9.73305	6.22854	3.37172	30.12	6.0	0.00	7.63	0.01267	0.01288	0.01633	0.00780	0.00581	0.00637	0.00466	0.01264	0.01679	0.00678	0.00699	0.00881	0.01487	0.01092	0.01194	0.00217	0.00617	0.00867
11610	0.48367	0.44296	0.28903	2.73942	2.28017	1.87898	9.45125	5.70359	2.68974	1.07116	0.98100	0.85059	2.03175	1.56718	1.20162	9.76268	6.23692	3.38775
11780	0.48982	0.44148	0.29136	2.71291	2.27885	1.87128	9.44184	5.69025	2.69337	1.08554	0.98215	0.86537	2.03142	1.55199	1.19431	9.76816	6.23215	3.40816
11940	0.48078	0.43575	0.28379	2.73181	2.28984	1.92175	9.42500	5.69984	2.68527	1.10111	0.97543	0.84741	2.02885	1.56733	1.21210	9.75691	6.28419	3.39940
12100	0.48157	0.43631	0.28553	2.76135	2.29022	1.88803	9.45948	5.70067	2.68455	1.08002	0.98192	0.84960	2.04280	1.56007	1.20112	9.75462	6.23203	3.38649
12270	0.49001	0.44265	0.29432	2.72582	2.29388	1.88526	9.44864	5.70395	2.69918	1.08042	0.97809	0.85393	2.03696	1.56236	1.20484	9.73921	6.25033	3.40925
12430	0.49143	0.45274	0.29402	2.72569	2.29504	1.89079	9.46629	5.69471	2.68361	1.09827	0.99730	0.85427	2.02919	1.56543	1.19894	9.75382	6.26092	3.41914
12590	0.49128	0.44581	0.30176	2.75979	2.32306	1.90215	9.46025	5.70298	2.68621	1.08750	1.00594	0.86770	2.02466	1.55620	1.21321	9.74527	6.22534	3.38736
12760	0.48136	0.43343	0.28331	2.73626	2.30443	1.87728	9.45018	5.69336	2.67864	1.08806	0.98590	0.86732	2.03979	1.56481	1.20961	9.75094	6.23157	3.39296
12920	0.48762	0.43768	0.28523	2.73327	2.31637	1.97538	9.44036	5.70700	2.69317	1.08529	1.01125	0.86653	2.06159	1.55999	1.20079	9.74219	6.24744	3.39243
13080	0.48655	0.43655	0.28828	2.77421	2.32884	1.91648	9.45466	5.70103	2.68181	1.08447	0.97639	0.86067	2.03938	1.56350	1.20620	9.74977	6.24488	3.40358	30.06	6.0	0.00	7.54	0.01267	0.01288	0.01633	0.00780	0.00581	0.00638	0.00466	0.01264	0.01679	0.00678	0.00699	0.00881	0.01487	0.01092	0.01194	0.00217	0.00617	0.00866
13250	0.48468	0.44110	0.29305	2.73083	2.28834	1.87365	9.45336	5.70384	2.68290	1.07790	0.96977	0.85958	2.02615	1.55124	1.20717	9.73605	6.23550	3.38195
13410	0.49108	0.44008	0.28879	2.72375	2.27054	1.87328	9.43851	5.70089	2.67888	1.06554	0.95744	0.84533	2.03504	1.55143	1.19478	9.73724	6.22926	3.36279
13570	0.47312	0.42936	0.28764	2.73048	2.28616	1.87962	9.45887	5.71172	2.68210	1.06733	0.99034	0.84374	2.02227	1.55992	1.19625	9.74489	6.23732	3.38751
13740	0.48222	0.43811	0.29345	2.73855	2.28656	1.86635	9.44655	5.69570	2.68859	1.10010	0.99696	0.87169	2.03015	1.56267	1.20122	9.76250	6.24546	3.38509
13900	0.48662	0.44396	0.29039	2.74457	2.30644	1.88498	9.44951	5.70179	2.70317	1.09819	0.98652	0.87036	2.03068	1.56251	1.19501	9.74191	6.26940	3.41070
14060	0.48474	0.44273	0.29029	2.73339	2.27886	1.88784	9.45407	5.69538	2.69559	1.06457	0.98387	0.88117	2.02691	1.55965	1.20762	9.76589	6.23332	3.39375
14230	0.49243	0.44503	0.30390	2.74904	2.30837	1.89018	9.43573	5.70770	2.69901	1.08456	0.98257	0.87553	2.03205	1.55709	1.21138	9.76579	6.25696	3.40702
14390	0.49462	0.43667	0.29216	2.73155	2.30431	1.89515	9.44407	5.70263	2.68740	1.07984	0.96849	0.85335	2.04217	1.56274	1.20289	9.75653	6.24316	3.38988
14550	0.48413	0.44003	0.28615	2.73027	2.28288	1.89896	9.49613	5.70751	2.69013	1.09866	1.00920	0.88425	2.03910	1.61130	1.21681	9.80981	6.39165	3.47210
14720	0.50076	0.47173	0.30283	2.74368	2.30042	1.90890	9.46866	5.73341	2.69828	1.14084	1.01880	0.87957	2.04314	1.56213	1.24349	9.75145	6.26737	3.40554	30.12	6.0	0.00	7.51	0.01267	0.01288	0.01633	0.00780	0.00581	0.00638	0.00466	0.01264	0.01679	0.00678	0.00699	0.00881	0.01487	0.01092	0.01194	0.00217	0.00617	0.00867
14880	0.48960	0.44794	0.29017	2.73726	2.29983	1.90106	9.47441	5.70823	2.69306	1.08186	0.98363	0.85505	2.03301	1.56771	1.20842	9.73843	6.25039	3.40895
15040	0.48308	0.43273	0.29349	2.77393	2.31175	1.90278	9.45011	5.70997	2.68656	1.09109	1.00847	0.87752	2.03394	1.55527	1.20843	9.75175	6.24724	3.39556
15210	0.49852	0.45804	0.29390	2.77686	2.35943	1.96445	9.46385	5.73197	2.68949	1.20278	1.04794	0.94402	2.03835	1.57458	1.22095	9.74886	6.26640	3.42342
15370	0.50269	0.44115	0.30076	2.74025	2.31625	1.92341	9.47476	5.73308	2.72221	1.09942	1.01899	0.89525	2.03285	1.56787	1.21656	9.79292	6.27707	3.47178
15530	0.49761	0.45325	0.30510	2.77422	2.33667	1.92890	9.45834	5.70899	2.70478	1.08652	0.98834	0.88717	2.04971	1.55807	1.22364	9.74638	6.26445	3.41615
15690	0.49790	0.44694	0.29247	2.76639	2.33388	1.91429	9.46137	5.71328	2.68718	1.11040	1.02754	1.16617	2.04017	1.56935	1.21480	9.76459	6.25826	3.40321
15860	0.49314	0.44436	0.29736	2.77602	2.31630	1.91616	9.45675	5.69975	2.69085	1.09801	1.00592	0.88200	2.03495	1.57400	1.20866	9.75453	6.25258	3.40048
16020	0.50366	0.44575	0.30248	2.75450	2.29339	1.90267	9.44065	5.70605	2.69518	1.10459	0.99827	0.85409	2.03807	1.56048	1.20496	9.75742	6.24884	3.38462
16190	0.48646	0.44115	0.29372	2.72409	2.30425	1.87539	9.44201	5.70184	2.67509	1.07908	0.98941	0.87927	2.03999	1.56598	1.19953	9.75533	6.24537	3.40115
16350	0.48811	0.43937	0.29381	2.74953	2.30916	1.91073	9.44061	5.70892	2.69871	1.09073	1.01366	0.85190	2.03273	1.55723	1.20445	9.72994	6.22287	3.39451	30.12	5.9	0.00	7.54	0.01267	0.01288	0.01633	0.00781	0.00581	0.00638	0.00466	0.01264	0.01679	0.00678	0.00699	0.00881	0.01487	0.01092	0.01194	0.00217	0.00617	0.00867
16510	0.48833	0.43863	0.29412	2.74662	2.30701	1.93557	9.45765	5.69538	2.68015	1.08765	1.00479	0.87582	2.03443	1.56350	1.19733	9.74056	6.23367	3.39795
16680	0.48025	0.43842	0.28499	2.73474	2.27797	1.90185	9.45090	5.69515	2.68370	1.08001	0.98050	0.84243	2.02883	1.55456	1.20198	9.75765	6.23648	3.38130
16840	0.48914	0.43495	0.28625	2.71811	2.26282	1.87232	9.46115	5.69927	2.68603	1.06928	0.98694	0.84357	2.02905	1.56713	1.19521	9.73282	6.23275	3.38161
17000	0.48603	0.43873	0.28748	2.73536	2.28591	1.88740	9.44351	5.69953	2.69210	1.11048	1.00805	0.86805	2.02891	1.56347	1.20563	9.74781	6.22060	3.39871
17170	0.49343	0.44804	0.30295	2.73463	2.28986	1.88925	9.43600	5.70302	2.70222	1.08692	0.98375	0.85328	2.03529	1.56240	1.19948	9.72260	6.22229	3.39207
17330	0.48692	0.43800	0.29164	2.73138	2.29416	1.87599	9.44138	5.69687	2.68351	1.11263	0.98684	0.86558	2.02577	1.57184	1.20154	9.75178	6.24431	3.38513
17490	0.49581	0.44312	0.30388	2.71877	2.27986	1.87308	9.44002	5.70331	2.68991	1.10095	0.98663	0.84273	2.03565	1.55008	1.19630	9.74165	6.23883	3.38530
17660	0.48837	0.43054	0.28788	2.71370	2.28876	1.87942	9.44794	5.69209	2.69193	1.09249	1.00518	0.86173	2.03416	1.56159	1.20464	9.72805	6.24210	3.39247
17820	0.48537	0.43983	0.29337	2.72172	2.29595	1.87812	9.44008	5.69756	2.68282	1.07131	0.99020	0.85463	2.03168	1.56207	1.19798	9.75974	6.23236	3.37296
17990	0.48435	0.44446	0.29323	2.72959	2.29353	1.87622	9.45005	5.71198	2.69397	1.08804	1.00162	0.86193	2.02876	1.56113	1.20580	9.74806	6.25617	3.39097	30.12	6.1	0.00	7.54	0.01267	0.01288	0.01633	0.00780	0.00581	0.00638	0.00466	0.01264	0.01679	0.00678	0.00699	0.00881	0.01487	0.01092	0.01194	0.00217	0.00617	0.00867
18150	0.48890	0.44017	0.28608	2.74728	2.28366	1.88726	9.45650	5.69999	2.68198	1.09145	1.01366	0.84575	2.01979	1.55334	1.20125	9.74806	6.25093	3.39608
18310	0.48962	0.43838	0.29031	2.72230	2.28899	1.88833	9.47594	5.70149	2.69434	1.06447	0.96818	0.85545	2.03456	1.56439	1.20634	9.76267	6.24564	3.38882
18480	0.48799	0.43960	0.28980	2.72583	2.28162	1.87895	9.45289	5.69834	2.67940	1.09852	0.99176	0.84824	2.02380	1.55944	1.19990	9.75322	6.23984	3.37903
18640	0.48134	0.43183	0.28724	2.73977	2.28450	1.89140	9.43349	5.69396	2.68591	1.07963	0.99821	0.87668	2.02811	1.55863	1.19688	9.75680	6.24418	3.39039
18800	0.48107	0.43425	0.29128	2.71844	2.29003	1.88058	9.44839	5.69095	2.68365	1.07741	0.96575	0.84802	2.02876	1.55527	1.19422	9.73159	6.22577	3.39053
18970	0.49061	0.43474	0.29232	2.73627	2.31104	1.89619	9.46865	5.69674	2.68083	1.09956	0.98014	0.84980	2.03302	1.56848	1.20429	9.75163	6.25595	3.38559
19130	0.48150	0.43545	0.29299	2.70623	2.27957	1.87284	9.46088	5.69485	2.69143	1.06514	0.98916	0.87294	2.02382	1.56199	1.19353	9.73942	6.22836	3.37643
19290	0.48852	0.44098	0.29128	2.72005	2.28162	1.88591	9.44727	5.70072	2.68514	1.08757	1.01051	0.86800	2.02296	1.57067	1.21111	9.75322	6.24501	3.38904
19460	0.48772	0.44271	0.30014	2.72985	2.30175	1.89167	9.45727	5.70537	2.68965	1.10470	0.99452	0.86947	2.04213	1.56906	1.20807	9.74548	6.23732	3.39399
19620	0.49015	0.43424	0.29060	2.72494	2.28164	1.88095	9.42936	5.69221	2.68330	1.07952	0.97707	0.84531	2.03354	1.56653	1.20444	9.72859	6.23948	3.38164	30.06	6.1	0.00	7.64	0.01267	0.01288	0.01633	0.00781	0.00581	0.00638	0.00467	0.01264	0.01679	0.00678	0.00699	0.00881	0.01487	0.01092	0.01194	0.00217	0.00617	0.00867
19780	0.49884	0.43519	0.29755	2.72090	2.29815	1.89106	9.43781	5.70062	2.68169	1.06432	0.99258	0.85118	2.02039	1.55158	1.19917	9.74179	6.23495	3.38256
19950	0.48583	0.43317	0.28411	2.72918	2.27923	1.88095	9.44342	5.69732	2.68945	1.08480	0.98563	0.83818	2.02374	1.55685	1.19947	9.77142	6.24219	3.39524
20110	0.48238	0.44004	0.30142	2.72936	2.28365	1.88962	9.46876	5.69957	2.68574	1.07339	0.98867	0.86793	2.03164	1.55713	1.19929	9.75053	6.22127	3.40243
20270	0.48468	0.44068	0.30724	2.73640	2.29998	1.89671	9.47185	5.70573	2.68760	1.12347	1.02547	0.85414	2.03001	1.56075	1.21309	9.78537	6.23074	3.40418
20440	0.48768	0.44731	0.29732	2.74335	2.28811	1.88349	9.46017	5.70714	2.69034	1.10159	1.00397	0.88257	2.04139	1.56073	1.21234	9.76425	6.25182	3.38277
20600	0.49500	0.45363	0.29875	2.72920	2.30614	1.89499	9.47102	5.70384	2.69852	1.08047	0.99981	0.87345	2.04143	1.57141	1.20344	9.76773	6.23580	3.37838
20760	0.48700	0.43687	0.29868	2.73065	2.28029	1.87793	9.45330	5.70171	2.69261	1.08651	1.01265	0.85398	2.03140	1.56080	1.19980	9.75937	6.23623	3.37475
20930	0.47667	0.43206	0.29155	2.71063	2.27342	1.89075	9.44863	5.70667	2.68847	1.08456	0.99930	0.85163	2.02104	1.55235	1.20130	9.73633	6.25607	3.38936
21090	0.48330	0.42860	0.29045	2.74268	2.29378	1.88284	9.46260	5.71089	2.69531	1.08839	0.97019	0.85542	2.02421	1.55422	1.18944	9.76355	6.23308	3.39806
21250	0.48941	0.44570	0.28800	2.74837	2.32185	1.90161	9.45814	5.71498	2.69671	1.08457	0.99958	0.86290	2.03723	1.56338	1.20019	9.77350	6.23927	3.42971	30.12	6.1	0.00	7.53	0.01267	0.01288	0.01633	0.00781	0.00581	0.00638	0.00467	0.01264	0.01679	0.00678	0.00699	0.00881	0.01487	0.01092	0.01194	0.00217	0.00617	0.00867
21420	0.48954	0.43470	0.28804	2.73001	2.28087	1.89809	9.47729	5.70305	2.69339	1.10475	0.98034	0.84662	2.04205	1.56752	1.19811	9.75439	6.24244	3.40230
21580	0.48659	0.44399	0.28902	2.72138	2.32098	1.90050	9.47515	5.69831	2.69143	1.08350	1.00695	0.85448	2.03773	1.67600	1.28749	9.73372	6.23820	3.38697
21740	0.49250	0.47888	0.32404	2.72409	2.28603	1.89046	9.44471	5.72238	2.69789	1.10726	1.04640	0.87250	2.03728	1.56463	1.21022	9.75409	6.23386	3.38126
21910	0.49290	0.44135	0.29806	2.72605	2.31021	1.91159	9.46424	5.70060	2.69704	1.11883	0.99072	0.85968	2.03793	1.56001	1.20140	9.73343	6.25086	3.39120
22070	0.48219	0.43381	0.28715	2.73303	2.31204	1.89579	9.46146	5.69815	2.67985	1.09195	0.99688	0.84077	2.02997	1.56790	1.19859	9.86146	6.39224	3.37467
22230	0.48364	0.44726	0.29201	2.72078	2.29730	1.89581	9.45488	5.70969	2.69086	1.09193	1.00091	0.87344	2.04458	1.56277	1.19928	9.75787	6.25164	3.42276
22400	0.48272	0.43728	0.29170	2.73574	2.30037	1.88382	9.45406	5.71586	2.70191	1.10607	1.01586	0.89086	2.03473	1.58108	1.21163	9.75409	6.25897	3.40286
22560	0.52305	0.44604	0.30208	2.74544	2.32375	1.89371	9.46703	5.70181	2.68819	1.12326	0.99984	0.89644	2.04292	1.57906	1.22093	9.77978	6.27664	3.40393
22720	0.48772	0.44993	0.29815	2.74918	2.28027	1.90209	9.45939	5.70129	2.68482	1.09167	1.00492	0.85162	2.04298	1.57209	1.20847	9.73154	6.24463	3.37922
22890	0.48621	0.44911	0.29906	2.71620	2.28924	1.87074	9.46950	5.71124	2.69612	1.07986	0.98314	0.85899	2.04296	1.56858	1.20812	9.77029	6.24123	3.38888	30.06	6.1	0.00	7.51	0.01267	0.01288	0.01633	0.00781	0.00581	0.00638	0.00467	0.01264	0.01679	0.00678	0.00699	0.00881	0.01487	0.01092	0.01194	0.00217	0.00617	0.00867
23050	0.49115	0.43847	0.28605	2.74167	2.30440	1.89520	9.44327	5.69587	2.69567	1.06614	0.98112	0.85575	2.03689	1.56157	1.20630	9.71627	6.24283	3.38024
23210	0.48095	0.43335	0.29535	2.71808	2.27189	1.87287	9.43400	5.69823	2.67984	1.07509	0.97691	0.82601	2.03523	1.56375	1.20383	9.74871	6.24343	3.39718
23380	0.49223	0.43774	0.29365	2.75049	2.31030	1.90176	9.46405	5.70944	2.69502	1.09874	0.98711	0.85810	2.11571	1.64969	1.26073	9.75229	6.24183	3.40937
23540	0.49513	0.44750	0.29912	2.73693	2.30816	1.88894	9.44783	5.70374	2.70084	1.08320	0.97912	0.85298	2.03832	1.56489	1.20854	9.75507	6.23796	3.39412
23700	0.48788	0.43683	0.28636	2.71854	2.29245	1.88506	9.45860	5.70940	2.69254	1.07652	0.99645	0.85508	2.02685	1.55658	1.20755	9.74454	6.28203	3.40459
23870	0.48725	0.43508	0.29033	2.74045	2.29403	1.89045	9.45073	5.69897	2.69009	1.11499	1.00644	0.86586	2.03505	1.56134	1.20499	9.74057	6.23052	3.39736
24030	0.47998	0.43473	0.28509	2.75701	2.27144	1.90652	9.44599	5.69491	2.68788	1.08775	0.99525	0.85083	2.02971	1.55917	1.20366	9.73203	6.22256	3.39230
24190	0.48700	0.43319	0.29077	2.71150	2.27114	1.88493	9.44895	5.70616	2.68284	1.09192	0.99040	0.84052	2.03212	1.55812	1.20742	9.74821	6.22038	3.37662
24360	0.48696	0.44205	0.29054	2.72552	2.28379	1.86219	9.44517	5.69911	2.69023	1.06103	0.96783	0.84534	2.03447	1.56548	1.19529	9.72410	6.23519	3.39428
24520	0.48784	0.44145	0.28742	2.72190	2.27848	1.86712	9.44655	5.69567	2.69130	1.07666	0.99508	0.85796	2.03058	1.56002	1.20529	9.72926	6.22672	3.41156	30.12	6.1	0.00	7.50	0.01267	0.01288	0.01633	0.00781	0.00581	0.00638	0.00467	0.01264	0.01679	0.00678	0.00699	0.00881	0.01487	0.01092	0.01194	0.00217	0.00617	0.00867
24680	0.48967	0.45280	0.29571	2.74842	2.29976	1.91230	9.45034	5.70321	2.68690	1.08178	0.97051	0.84297	2.03332	1.56227	1.20647	9.73462	6.25362	3.40476
24850	0.48679	0.43465	0.29248	2.72614	2.33159	1.90576	9.44904	5.69894	2.68403	1.09382	0.98402	0.84197	2.04077	1.55650	1.19508	9.74722	6.24513	3.38363
25010	0.48563	0.44083	0.29777	2.70994	2.30330	1.88395	9.45726	5.70070	2.68365	1.08947	0.97638	0.85514	2.03187	1.56469	1.20354	9.75229	6.24538	3.42278
25170	0.48949	0.44405	0.29335	2.75547	2.29214	1.89506	9.44679	5.70890	2.69756	1.08568	0.99516	0.87125	2.02869	1.55688	1.20021	9.73898	6.22198	3.39197
25340	0.47927	0.43408	0.28794	2.72455	2.30331	1.89563	9.44005	5.69781	2.69004	1.06467	0.98997	0.87399	2.03577	1.56365	1.20970	9.73541	6.23098	3.40168
25500	0.49753	0.43990	0.31215	2.73874	2.29288	1.89147	9.45845	5.70294	2.69512	1.11273	0.99520	0.87961	2.05556	1.55905	1.20080	9.77448	6.24094	3.38043
25660	0.47767	0.43614	0.29395	2.71702	2.28136	1.88735	9.46016	5.70258	2.68682	1.06422	0.96924	0.85559	2.02294	1.56371	1.19929	9.73938	6.24026	3.38255
25830	0.48289	0.43372	0.28361	2.71466	2.27180	1.87901	9.44566	5.69835	2.68196	1.10102	0.99088	0.85801	2.02288	1.54865	1.19801	9.73978	6.22788	3.39157
25990	0.48947	0.43433	0.28323	2.72026	2.26610	1.86209	9.44359	5.68897	2.67626	1.07211	0.99187	0.85811	2.03997	1.56153	1.21963	9.74901	6.24038	3.40012
26160	0.48835	0.44224	0.29384	2.72688	2.28527	1.86720	9.47570	5.70894	2.69537	1.09073	0.99941	0.86356	2.03655	1.56108	1.21045	9.76878	6.24685	3.38610	30.06	6.0	0.00	7.49	0.01267	0.01288	0.01633	0.00780	0.00581	0.00638	0.00466	0.01264	0.01679	0.00678	0.00699	0.00881	0.01487	0.01092	0.01194	0.00217	0.00617	0.00867
26320	0.48230	0.44091	0.29962	2.73508	2.30157	1.89565	9.44850	5.71863	2.70692	1.06676	0.99450	0.86150	2.03108	1.55490	1.19534	9.74006	6.24959	3.42739
26480	0.48651	0.43655	0.28312	2.74501	2.28073	1.88365	9.44318	5.70357	2.69238	1.08398	0.98385	0.84500	2.03383	1.56917	1.20742	9.75048	6.21890	3.38552
26650	0.47888	0.43897	0.28839	2.73170	2.29162	1.90388	9.43721	5.69883	2.68130	1.09803	0.98886	0.86243	2.03175	1.56939	1.20029	9.76062	6.23662	3.42413
26810	0.49095	0.44043	0.28867	2.74037	2.28862	1.91172	9.43709	5.70406	2.69870	1.08576	1.00653	0.87079	2.03820	1.56255	1.20516	9.76470	6.25061	3.40894
26970	0.49339	0.44198	0.30191	2.72718	2.29229	1.90004	9.44034	5.69751	2.69819	1.10897	0.98403	0.85335	2.03282	1.57540	1.20346	9.74532	6.22594	3.38503
27140	0.49270	0.43629	0.29845	2.72300	2.28534	1.87605	9.45940	5.70424	2.68830	1.08382	0.98598	0.84107	2.02526	1.55897	1.20033	9.77008	6.24571	3.38573
27300	0.49026	0.45287	0.29775	2.75057	2.32076	1.90413	9.46319	5.70751	2.69070	1.09210	1.01794	0.91261	2.04933	1.57705	1.21575	9.79340	6.27016	3.41782
27460	0.49651	0.46216	0.30499	2.75154	2.31486	1.93498	9.48864	5.72141	2.70948	1.11644	1.03620	0.91418	2.04270	1.58049	1.21700	9.83148	6.28015	3.43470
27630	0.50892	0.45350	0.30721	2.74722	2.28844	1.87457	9.47072	5.70837	2.69240	1.08234	0.99494	0.87387	2.04321	1.56762	1.21066	9.78602	6.23856	3.42691
27790	0.49748	0.44446	0.31069	2.75826	2.30573	1.89193	9.47256	5.70411	2.69069	1.10915	1.01016	0.87824	2.04602	1.56784	1.20738	9.78537	6.24849	3.37832	30.12	6.0	0.00	7.51	0.01267	0.01288	0.01633	0.00781	0.00581	0.00638	0.00466	0.01264	0.01679	0.00678	0.00699	0.00881	0.01487	0.01092	0.01194	0.00217	0.00617	0.00867
27950	0.48861	0.45489	0.29578	2.72821	2.30469	1.89886	9.46107	5.70260	2.68876	1.07603	0.98340	0.85646	2.03571	1.57076	1.19671	9.75311	6.25586	3.38610
28120	0.48726	0.43980	0.29687	2.75797	2.27736	1.84716	9.45224	5.70245	2.68737	1.06118	0.96584	0.85284	2.03942	1.57365	1.20874	9.74228	6.26720	3.38987
28280	0.48612	0.45015	0.30383	2.72183	2.29510	1.89741	9.48372	5.72040	2.69536	1.09220	1.00505	0.87947	2.03847	1.56284	1.21155	9.77122	6.26890	3.41257
28440	0.50736	0.44807	0.28593	2.75873	2.32026	1.87921	9.45035	5.70326	2.69314	1.09612	0.99418	0.85315	2.02933	1.56819	1.20237	9.76335	6.25936	3.40860
28610	0.48781	0.44219	0.29916	2.74541	2.29567	1.88076	9.46800	5.70825	2.69606	1.08610	0.99772	0.86815	2.04468	1.56890	1.20755	9.75162	6.23911	3.38706
28770	0.49963	0.44326	0.29992	2.71399	2.27200	1.87125	9.45360	5.70511	2.68979	1.08064	0.97482	0.85544	2.03281	1.55515	1.19471	9.73841	6.23625	3.40858
28930	0.47649	0.44653	0.28912	2.72694	2.30625	1.87745	9.44290	5.70329	2.68760	1.06949	0.97241	0.84396	2.02985	1.55720	1.20872	9.73930	6.26980	3.38592
29100	0.48654	0.43694	0.29284	2.72650	2.30200	1.87449	9.46041	5.69846	2.68749	1.07027	0.98578	0.83396	2.04192	1.56575	1.19972	9.73573	6.27593	3.42043
29260	0.49196	0.44730	0.29491	2.71857	2.28521	1.87603	9.45810	5.71971	2.69203	1.10265	0.97415	0.83341	2.04154	1.56978	1.20236	9.75569	6.24025	3.39666
29420	0.48656	0.43399	0.29582	2.75244	2.28707	1.89028	9.45685	5.69997	2.67868	1.09132	0.97897	0.84268	2.04011	1.55129	1.19421	9.76095	6.25301	3.38884	30.12	6.0	0.00	7.52	0.01267	0.01288	0.01633	0.00781	0.00581	0.00638	0.00466	0.01264	0.01679	0.00678	0.00699	0.00881	0.01487	0.01092	0.01194	0.00217	0.00617	0.00867
29590	0.48406	0.44283	0.28917	2.71800	2.28041	1.87139	9.44762	5.70178	2.68693	1.06400	0.96732	0.84885	2.02886	1.55578	1.19481	9.76503	6.23422	3.37678
29750	0.48113	0.43981	0.28625	2.73246	2.28538	1.86854	9.46906	5.70363	2.68395	1.07766	0.96367	0.85455	2.03361	1.55604	1.19393	9.75727	6.23538	3.37139
29910	0.49175	0.43884	0.29098	2.74116	2.29845	1.88278	9.45709	5.70933	2.68597	1.07599	0.98449	0.84730	2.03256	1.56797	1.19811	9.73980	6.22381	3.38118
30080	0.48277	0.44415	0.29427	2.71885	2.29025	1.88000	9.45117	5.69784	2.67847	1.07623	0.96006	0.85904	2.03304	1.55310	1.19527	9.73761	6.23194	3.37448
30240	0.49120	0.44464	0.29859	2.71283	2.28468	1.89099	9.45727	5.69982	2.68768	1.09103	0.99371	0.88162	2.02455	1.55596	1.19383	9.77847	6.24064	3.38438
30400	0.48353	0.43030	0.28531	2.72884	2.29205	1.85627	9.46455	5.70310	2.69154	1.07919	0.98698	0.84102	2.02685	1.55740	1.20639	9.75568	6.22713	3.38428
30570	0.49243	0.43580	0.29058	2.72023	2.28468	1.87631	9.45975	5.70282	2.69056	1.07403	0.99660	0.83658	2.02690	1.55671	1.20458	9.78525	6.23662	3.37360
30730	0.48947	0.44474	0.29015	2.72633	2.31609	1.88276	9.46195	5.70301	2.69976	1.08684	1.00255	0.86309	2.03722	1.56786	1.21785	9.73275	6.24061	3.39289
30890	0.49790	0.44817	0.29226	2.73397	2.31950	1.89240	9.46046	5.69778	2.69278	1.07497	1.00172	0.85183	2.03801	1.56277	1.19581	9.77548	6.25031	3.41103
31060	0.48393	0.43948	0.29212	2.75615	2.31339	1.92904	9.46116	5.70451	2.69344	1.09151	0.98513	0.86376	2.03333	1.57061	1.19863	9.74323	6.25122	3.38965	30.06	6.0	0.00	7.40	0.01267	0.01288	0.01633	0.00781	0.00581	0.00638	0.00466	0.01264	0.01679	0.00678	0.00699	0.00881	0.01487	0.01092	0.01194	0.00217	0.00617	0.00867
31220	0.49179	0.43916	0.29689	2.72516	2.31596	1.88702	9.44718	5.70906	2.68587	1.09148	0.99812	0.86112	2.03027	1.56767	1.20526	9.74174	6.24838	3.40167
31380	0.48092	0.44127	0.29172	2.75436	2.28805	1.88668	9.43028	5.71139	2.68446	1.11123	1.00409	0.88406	2.04244	1.56779	1.21573	9.76062	6.26586	3.44082
31540	0.48998	0.45472	0.29909	2.75312	2.30631	1.89889	9.46697	5.71183	2.69671	1.09157	0.99319	0.85535	2.03778	1.56392	1.20852	9.76559	6.26841	3.42499
31710	0.49276	0.43952	0.29840	2.76174	2.30540	1.88113	9.44174	5.69828	2.69074	1.08007	0.99302	0.85524	2.02886	1.56860	1.21231	9.75147	6.25988	3.41435
31870	0.48508	0.44267	0.28725	2.75289	2.30626	1.87848	9.47830	5.70230	2.68972	1.10051	0.98459	0.87409	2.04005	1.57430	1.20734	9.78532	6.27747	3.41720
32030	0.48469	0.44476	0.29285	2.75549	2.30528	1.87761	9.48180	5.71658	2.69444	1.10163	1.00233	0.86976	2.03945	1.56426	1.21081	9.76082	6.26697	3.41458
32200	0.48304	0.43874	0.29404	2.76848	2.29668	1.89092	9.44204	5.70045	2.67902	1.09486	0.98124	0.85796	2.03299	1.56057	1.20372	9.76321	6.25923	3.42465
32360	0.48657	0.43283	0.28587	2.73724	2.30771	1.88526	9.43861	5.69870	2.68522	1.09832	0.99560	0.85861	2.03265	1.56275	1.19898	9.76321	6.23605	3.39802
32530	0.48634	0.44386	0.30372	2.73794	2.29509	1.88677	9.44713	5.70971	2.68781	1.07992	1.02502	0.86108	2.03224	1.57085	1.20328	9.75972	6.24611	3.40843
32690	0.48855	0.44028	0.29062	2.74635	2.30385	1.87802	9.47265	5.71633	2.70371	1.08356	1.00772	0.88837	2.03528	1.55785	1.20815	9.74082	6.24805	3.39489	30.12	6.1	0.00	7.52	0.01267	0.01288	0.01633	0.00781	0.00581	0.00638	0.00466	0.01264	0.01679	0.00678	0.00699	0.00881	0.01487	0.01092	0.01194	0.00217	0.00617	0.00867
32860	0.49798	0.44692	0.29578	2.74038	2.28855	1.88817	9.46109	5.69797	2.68642	1.09498	0.97977	0.85800	2.02376	1.55386	1.20178	9.74698	6.25371	3.39297
33020	0.47946	0.43537	0.28314	2.75136	2.30920	1.88888	9.43452	5.69670	2.68863	1.08962	0.98410	0.85358	2.03687	1.56343	1.20780	9.74241	6.25397	3.40474
33190	0.48879	0.44606	0.29290	2.74277	2.30969	1.89989	9.45327	5.70751	2.68847	1.07072	0.98048	0.86566	2.04356	1.56350	1.21439	9.77353	6.25186	3.39080
33350	0.50313	0.44471	0.28702	2.77375	2.31086	1.87910	9.46867	5.71428	2.69478	1.09315	0.99323	0.85185	2.03839	1.56594	1.20324	9.76119	6.26448	3.39789
33510	0.49044	0.45559	0.29993	2.73730	2.30846	1.89586	9.45824	5.70633	2.69605	1.10086	0.99797	0.86821	2.03561	1.56111	1.21262	9.75483	6.26976	3.40425
33680	0.48803	0.44134	0.29856	2.73375	2.29791	1.88933	9.44522	5.71072	2.68358	1.07368	0.98918	0.86189	2.02906	1.56173	1.21194	9.76378	6.25642	3.38861
33840	0.48722	0.44818	0.29923	2.74038	2.32690	1.88986	9.46523	5.70214	2.69168	1.09939	0.99734	0.84084	2.06224	1.56050	1.21509	9.77015	6.26823	3.44461
34010	0.49671	0.44384	0.29791	2.77065	2.31496	1.90099	9.46334	5.71295	2.69901	1.11279	1.03342	0.91749	2.03871	1.56786	1.21984	9.81215	6.31255	3.43736
34170	0.49932	0.44436	0.29683	2.79208	2.35343	1.94630	9.47176	5.72171	2.70898	1.12362	1.03817	0.89244	2.05544	1.59396	1.22207	9.76000	6.28783	3.42287
34330	0.49686	0.45750	0.30721	2.76192	2.31770	1.90987	9.45206	5.73045	2.72085	1.11605	1.05855	0.91208	2.04328	1.58528	1.23273	9.82511	6.32687	3.47280	30.12	6.1	0.00	7.51	0.01267	0.01288	0.01633	0.00780	0.00581	0.00638	0.00466	0.01263	0.01679	0.00678	0.00699	0.00881	0.01487	0.01092	0.01194	0.00217	0.00617	0.00867
34500	0.49772	0.44424	0.31258	2.77425	2.36792	1.93322	9.48622	5.73675	2.69827	1.12235	1.01716	0.86890	2.06714	1.56517	1.20725	9.77118	6.25889	3.39521
34660	0.49567	0.45385	0.30848	2.76373	2.33308	1.94161	9.46717	5.71445	2.69984	1.10410	1.04343	0.91485	2.04391	1.59923	1.23229	9.77317	6.27739	3.46512
34820	0.50625	0.45469	0.30880	2.75625	2.32909	1.91785	9.45396	5.72143	2.70597	1.09467	1.00131	0.86204	2.05420	1.57895	1.20098	9.76660	6.24630	3.40564
34990	0.48670	0.44827	0.29638	2.75973	2.31629	1.93402	9.46551	5.70035	2.69820	1.10820	1.03109	0.88492	2.04713	1.58386	1.23354	9.77826	6.29122	3.42126
35150	0.52354	0.46659	0.32191	2.78237	2.35370	1.94867	9.48711	5.72364	2.71078	1.12857	1.00298	0.89848	2.05510	1.56865	1.21347	9.77786	6.26033	3.41686
35310	0.50792	0.46447	0.30737	2.73095	2.27781	1.89777	9.49240	5.70454	2.70949	1.09445	1.01949	0.86512	2.04781	1.56645	1.19998	9.75416	6.26152	3.40446
35480	0.48515	0.43882	0.29293	2.75331	2.35523	1.92644	9.44626	5.71142	2.69887	1.09002	1.01276	0.86300	2.04428	1.57810	1.19991	9.76979	6.25821	3.40049
35640	0.49245	0.44734	0.29656	2.75263	2.31812	1.92967	9.44993	5.70945	2.69397	1.11060	1.07651	0.87419	2.03931	1.56152	1.21940	9.79072	6.30336	3.43362
35800	0.50868	0.45590	0.29909	2.79550	2.33274	1.90734	9.46516	5.71527	2.71124	1.16736	1.03301	0.87942	2.04161	1.58321	1.22253	9.78424	6.27160	3.44994
35970	0.49357	0.46357	0.31005	2.79449	2.37705	1.94544	9.48756	5.72855	2.71009	1.15357	1.03313	0.89923	2.05018	1.57854	1.21446	9.82142	6.28736	3.41505	30.06	6.3	0.00	7.87	0.01267	0.01288	0.01633	0.00780	0.00581	0.00637	0.00466	0.01263	0.01679	0.00678	0.00699	0.00881	0.01487	0.01092	0.01194	0.00217	0.00617	0.00866
36130	0.50455	0.44681	0.29905	2.75654	2.37378	1.96983	9.46631	5.72493	2.70205	1.16440	1.01693	0.89239	2.05295	1.57990	1.22023	9.81461	6.26179	3.40215
36300	0.49654	0.46012	0.31455	2.74712	2.31636	1.91978	9.46169	5.70886	2.70109	1.11641	1.04456	0.89793	2.04550	1.58211	1.21793	9.77446	6.28067	3.42272
36460	0.49916	0.45997	0.30129	2.77314	2.32880	1.91888	9.45612	5.71598	2.69713	1.08910	1.00853	0.92071	2.04204	1.57006	1.22640	9.75573	6.27159	3.44291
36620	0.49864	0.45786	0.30426	2.74285	2.34282	1.89109	9.47165	5.71917	2.69090	1.11883	1.00608	0.86696	2.04336	1.56205	1.21963	9.73456	6.25971	3.43052
36790	0.50894	0.43520	0.29822	2.74930	2.30524	1.87709	9.46127	5.70717	2.69644	1.08193	1.00491	0.86732	2.04093	1.56212	1.20045	9.76031	6.25866	3.38243
36950	0.48219	0.44179	0.29768	2.71899	2.33217	1.93284	9.45707	5.71083	2.70028	1.09441	1.02432	0.86874	2.03822	1.55378	1.19048	9.75822	6.30650	3.41792
37110	0.48032	0.43759	0.29157	2.74613	2.29847	1.92266	9.44310	5.69836	2.69693	1.09758	1.01408	0.87175	2.03290	1.56643	1.20723	9.76808	6.24104	3.40378
37280	0.48537	0.43651	0.29088	2.75465	2.32823	1.91886	9.45665	5.69957	2.69406	1.13456	1.00305	0.87365	2.02796	1.55879	1.19635	9.76908	6.25463	3.39046
37440	0.48066	0.43748	0.29230	2.74043	2.31124	1.89345	9.44955	5.69454	2.69155	1.10262	1.00444	0.88135	2.03594	1.56924	1.20131	9.76001	6.25839	3.41286
37600	0.50048	0.43814	0.29789	2.78827	2.32969	1.92574	9.46588	5.71541	2.70266	1.09310	1.00422	0.85868	2.03398	1.56024	1.21219	9.75463	6.27179	3.42685	30.06	6.0	0.00	7.46	0.01267	0.01288	0.01632	0.00780	0.00581	0.00637	0.00466	0.01263	0.01679	0.00678	0.00699	0.00881	0.01487	0.01092	0.01194	0.00217	0.00617	0.00866
37770	0.50382	0.45620	0.31287	2.75803	2.33229	1.92340	9.47228	5.73137	2.71859	1.14332	1.02231	0.92308	2.05035	1.57923	1.22422	9.79204	6.30021	3.44317
37930	0.50474	0.46881	0.31922	2.77376	2.35265	1.97166	9.48380	5.73464	2.72122	1.14271	1.03246	0.90396	2.06265	1.56910	1.22863	9.79854	6.30722	3.45411
38090	0.50058	0.45494	0.31105	2.79856	2.32494	1.92431	9.50205	5.72816	2.70986	1.14278	1.05818	0.93484	2.05713	1.58504	1.22137	9.78125	6.28018	3.42651
38260	0.49299	0.43848	0.29924	2.76256	2.34360	1.89240	9.45130	5.70040	2.69160	1.10154	1.02031	0.89001	2.04519	1.56115	1.21667	9.77287	6.24721	3.41598
38420	0.48171	0.45380	0.30135	2.77454	2.34911	1.89819	9.47608	5.71335	2.69382	1.11020	1.01607	0.85850	2.04591	1.55665	1.21059	9.74886	6.24864	3.40444
38580	0.48458	0.44178	0.30209	2.74765	2.31969	1.89108	9.46944	5.70549	2.69303	1.09908	0.98718	0.86594	2.04356	1.57135	1.20644	9.74279	6.25845	3.39313
38750	0.48951	0.45061	0.30663	2.75120	2.29082	1.87937	9.49890	5.72098	2.69595	1.11926	1.03187	0.89843	2.05302	1.58110	1.22030	9.80604	6.28369	3.42311
38910	0.51098	0.45801	0.31357	2.78690	2.36786	1.96762	9.49414	5.75021	2.74856	1.22517	1.20025	1.08970	2.08756	1.64683	1.29181	9.91299	6.45809	3.57468
39070	0.56586	0.51269	0.35010	2.90791	2.50275	2.07647	9.53656	5.79120	2.76525	1.23732	1.20984	1.08589	2.06964	1.61143	1.28770	9.85449	6.36531	3.50793
39240	0.52838	0.48512	0.31897	2.83193	2.37218	1.93356	9.49964	5.73579	2.72495	1.16595	1.05268	0.89654	2.07630	1.58627	1.21714	9.81150	6.28614	3.46489	30.06	6.0	0.00	7.53	0.01267	0.01288	0.01632	0.00780	0.00581	0.00637	0.00466	0.01263	0.01679	0.00678	0.00699	0.00881	0.01486	0.01092	0.01194	0.00217	0.00617	0.00866
39400	0.51651	0.46628	0.31973	2.78558	2.34826	1.93949	9.48050	5.74663	2.71029	1.11620	1.03987	0.91639	2.04936	1.56694	1.20725	9.77432	6.28429	3.45701
39560	0.50231	0.46309	0.31284	2.77467	2.31541	1.90908	9.48276	5.72435	2.71136	1.09404	1.01566	0.89476	2.05323	1.58423	1.22383	9.76345	6.28602	3.41145
39730	0.49598	0.45590	0.30912	2.81613	2.35139	1.92327	9.48501	5.74770	2.70891	1.12681	1.04688	0.88276	2.04680	1.57024	1.22551	9.76793	6.27392	3.42967
39890	0.48950	0.44380	0.30354	2.78814	2.30841	1.88317	9.46964	5.69831	2.70206	1.09846	0.98305	0.85363	2.02870	1.57332	1.20763	9.75707	6.23497	3.39817
40050	0.49697	0.44081	0.30894	2.74854	2.30043	1.90796	9.44908	5.71123	2.69760	1.09480	1.02757	0.87891	2.03953	1.56412	1.21446	9.76125	6.25158	3.40511
40220	0.49214	0.44058	0.29554	2.76638	2.29853	1.87911	9.45406	5.70527	2.68653	1.08516	0.98874	0.87491	2.03053	1.56492	1.20094	9.76016	6.26594	3.41319
40380	0.49815	0.44885	0.30754	2.72165	2.33624	1.91496	9.46970	5.72088	2.69443	1.07706	1.01354	0.88327	2.05262	1.56666	1.23460	9.76484	6.27195	3.42794
40540	0.49091	0.45612	0.30176	2.78456	2.31785	1.91666	9.47243	5.74540	2.72906	1.14320	1.04525	0.88832	2.04760	1.58950	1.22756	9.77142	6.28953	3.44193
40710	0.50353	0.46682	0.30746	2.78150	2.31755	1.92139	9.50374	5.71479	2.70053	1.16941	1.06820	0.88481	2.05068	1.58149	1.22288	9.77651	6.27210	3.43656
40870	0.48589	0.44945	0.29828	2.74438	2.32197	1.90240	9.48875	5.73084	2.70214	1.13311	1.03087	0.87267	2.04169	1.58088	1.20864	9.77213	6.25921	3.40326	30.06	6.1	0.00	7.51	0.01267	0.01288	0.01632	0.00780	0.00581	0.00637	0.00466	0.01263	0.01679	0.00678	0.00699	0.00881	0.01486	0.01092	0.01194	0.00217	0.00617	0.00866
41040	0.51090	0.45104	0.30526	2.75355	2.33703	1.91834	9.47278	5.72614	2.70059	1.08721	1.00312	0.88698	2.05038	1.58186	1.21031	9.79349	6.27753	3.44699
41200	0.50480	0.46856	0.30498	2.75270	2.31511	1.88373	9.47426	5.73026	2.70402	1.09475	1.00826	0.89023	2.05355	1.57380	1.21312	9.77841	6.25861	3.41601
41360	0.51514	0.46908	0.30946	2.75775	2.30047	1.89639	9.47788	5.70206	2.69131	1.08564	1.01359	0.87950	2.03396	1.56741	1.21056	9.77213	6.25790	3.40567
41530	0.50119	0.44163	0.29437	2.74709	2.28554	1.87045	9.46578	5.70977	2.69851	1.07691	0.98463	0.84323	2.03907	1.55547	1.20951	9.77213	6.24719	3.40734
41690	0.48889	0.43878	0.28568	2.76155	2.31430	1.94728	9.46536	5.71035	2.70016	1.07536	0.98396	0.87962	2.06051	1.57792	1.22147	9.77632	6.25460	3.39416
41860	0.50241	0.45013	0.30059	2.74059	2.32639	1.89152	9.47331	5.72394	2.70259	1.08505	1.01312	0.89353	2.04677	1.57292	1.23341	9.80749	6.29721	3.45913
42020	0.49923	0.45028	0.31042	2.78923	2.35979	1.92249	9.46080	5.72503	2.71368	1.13239	1.01895	0.90228	2.04213	1.58384	1.22696	9.78011	6.26633	3.41635
42180	0.50172	0.45929	0.30546	2.76328	2.33696	1.92349	9.48079	5.71891	2.71119	1.12094	1.02410	0.88488	2.05218	1.59207	1.23553	9.81169	6.28568	3.44615
42350	0.50207	0.45051	0.30977	2.78325	2.32007	1.94390	9.49184	5.75531	2.71149	1.13717	1.02261	0.90755	2.06145	1.59521	1.24119	9.79429	6.29612	3.44564
42510	0.51258	0.47604	0.32838	2.76513	2.34439	1.89848	9.48609	5.74385	2.71264	1.13759	1.02480	0.90196	2.05836	1.58335	1.22106	9.78460	6.26902	3.49502	30.06	6.1	0.00	7.47	0.01267	0.01288	0.01632	0.00780	0.00581	0.00637	0.00466	0.01263	0.01679	0.00678	0.00699	0.00881	0.01486	0.01092	0.01194	0.00217	0.00617	0.00866
42680	0.49995	0.45726	0.30645	2.82120	2.36035	1.91138	9.48657	5.72219	2.68988	1.12315	1.03430	0.87508	2.05670	1.57058	1.22495	9.76915	6.27298	3.44852
42840	0.49833	0.45627	0.29530	2.75877	2.30869	1.91098	9.49412	5.71497	2.69955	1.06516	0.98966	0.87242	2.03675	1.57150	1.22020	9.73711	6.25662	3.39819
43000	0.48925	0.45600	0.30297	2.74797	2.30911	1.88853	9.47030	5.72385	2.71059	1.09243	1.02001	0.88339	2.05729	1.58007	1.21519	9.81970	6.31938	3.42627
43170	0.50583	0.46440	0.30901	2.80964	2.40579	2.00308	9.48770	5.72762	2.72234	1.13173	1.04388	0.92549	2.05507	1.57246	1.24546	9.81870	6.29240	3.49153
43330	0.51008	0.47301	0.31010	2.75779	2.34519	1.92962	9.50488	5.74791	2.70270	1.13651	1.01796	0.90553	2.04346	1.57184	1.22012	9.82751	6.28923	3.43403
43500	0.50080	0.46095	0.30835	2.76061	2.32022	1.92771	9.46485	5.73736	2.70288	1.11760	1.01202	0.90308	2.05571	1.59135	1.21234	9.75580	6.25043	3.43708
43660	0.49916	0.46216	0.30727	2.78106	2.34739	1.94867	9.47986	5.73129	2.70235	1.14521	1.02331	0.90428	2.04546	1.57382	1.21388	9.84045	6.29537	3.41608
43820	0.48972	0.44566	0.29992	2.77908	2.33121	1.90623	9.46817	5.72178	2.69283	1.12745	1.01297	0.87585	2.04960	1.56693	1.21032	9.80489	6.29191	3.42537
43990	0.48395	0.44924	0.29898	2.73517	2.30799	1.92135	9.47268	5.73285	2.72042	1.09375	0.98145	0.85615	2.09149	1.69060	1.31306	9.76645	6.23362	3.38025
44150	0.50516	0.44061	0.34839	2.72528	2.27113	1.86888	9.47362	5.70172	2.68485	1.06537	1.03280	0.92443	2.03020	1.55208	1.19814	9.74077	6.21964	3.40771	30.06	6.0	0.00	7.48	0.01267	0.01288	0.01632	0.00780	0.00581	0.00637	0.00466	0.01263	0.01679	0.00678	0.00699	0.00881	0.01486	0.01092	0.01194	0.00217	0.00617	0.00866
44310	0.48890	0.44132	0.29851	2.72865	2.28634	1.91282	9.48656	5.72359	2.70321	1.10907	0.97522	0.86330	2.03850	1.56665	1.20360	9.76454	6.23978	3.39414
44480	0.49040	0.44341	0.30731	2.74849	2.28457	1.87146	9.46058	5.70558	2.69027	1.09887	1.01574	0.86686	2.02472	1.56511	1.20668	9.77032	6.25296	3.39011
44640	0.48423	0.45325	0.29478	2.72184	2.32015	1.88163	9.46965	5.71679	2.69334	1.09098	0.99223	0.86465	2.03766	1.57478	1.21036	9.77331	6.24160	3.39052
44800	0.49170	0.44406	0.30368	2.72975	2.29317	1.88578	9.46929	5.70820	2.69374	1.05777	0.97817	0.85472	2.03857	1.57055	1.20351	9.77142	6.21846	3.39266
44960	0.48305	0.43285	0.29541	2.73827	2.29720	1.88001	9.45981	5.70523	2.69331	1.09087	0.98055	0.86592	2.03732	1.56485	1.20790	9.77261	6.24526	3.37242
45130	0.48713	0.43564	0.28521	2.73392	2.28336	1.87853	9.46816	5.70358	2.69192	1.09091	0.98313	0.86123	2.02268	1.55479	1.19773	9.75130	6.27343	3.41878
45290	0.48097	0.43833	0.29694	2.74923	2.29812	1.90097	9.44814	5.69243	2.69596	1.07511	0.99817	0.85747	2.04366	1.57605	1.20900	9.76185	6.26374	3.40661
45450	0.49281	0.45203	0.29798	2.77725	2.34865	1.90602	9.46478	5.70950	2.69460	1.09396	0.97936	0.86036	2.04527	1.56482	1.19713	9.74564	6.24189	3.39460
45620	0.47735	0.44248	0.29135	2.74791	2.28241	1.87628	9.45590	5.71512	2.69701	1.09594	1.00188	0.86609	2.03112	1.56395	1.19713	9.74862	6.24439	3.38710
45780	0.48982	0.43883	0.28761	2.73302	2.29138	1.89815	9.45450	5.71620	2.69593	1.08265	1.00051	0.85331	2.03873	1.56739	1.20838	9.75498	6.26678	3.37204	30.06	6.3	0.00	7.48	0.01267	0.01288	0.01633	0.00780	0.00581	0.00637	0.00466	0.01263	0.01679	0.00678	0.00699	0.00881	0.01486	0.01092	0.01194	0.00217	0.00617	0.00866
45950	0.49170	0.44992	0.30451	2.74697	2.28611	1.90695	9.47140	5.72717	2.69695	1.10172	0.99180	0.86498	2.04499	1.57017	1.20294	9.79147	6.27583	3.42804
46110	0.49954	0.43989	0.30574	2.73711	2.31738	1.90982	9.46825	5.73380	2.69987	1.09401	0.97661	0.84832	2.02959	1.56983	1.19798	9.77410	6.24031	3.41192
46270	0.48834	0.44244	0.30696	2.74966	2.28977	1.89723	9.45599	5.71104	2.69844	1.09004	1.00156	0.85042	2.06039	1.57017	1.21163	9.77261	6.23572	3.39578
46440	0.48237	0.44403	0.29761	2.73060	2.30014	1.86698	9.44119	5.69701	2.69399	1.08095	1.01029	0.89425	2.04011	1.55406	1.19637	9.75418	6.26972	3.39743
46600	0.48403	0.43912	0.31098	2.73868	2.28784	1.90577	9.45527	5.72213	2.69010	1.10232	1.02747	0.90363	2.05058	1.56799	1.20330	9.81216	6.26797	3.42204
46760	0.49907	0.44648	0.31892	2.77034	2.31936	1.90719	9.46096	5.70803	2.70542	1.11877	1.00285	0.87167	2.05524	1.58472	1.21976	9.76434	6.27505	3.39812
46930	0.48721	0.44260	0.32458	2.73941	2.28995	1.89160	9.47757	5.73246	2.70616	1.10552	0.98149	0.87251	2.03137	1.56910	1.20757	9.73659	6.23706	3.42171
47090	0.49450	0.43583	0.29274	2.75789	2.31104	1.91349	9.50354	5.70665	2.70811	1.08710	1.00869	0.87637	2.02898	1.57256	1.19999	9.74573	6.25281	3.40944
47250	0.49850	0.44057	0.29524	2.76082	2.31128	1.89981	9.47573	5.70109	2.69338	1.11466	1.00435	0.89518	2.04898	1.58185	1.24236	9.78528	6.26328	3.43818
47420	0.49379	0.45776	0.30453	2.76295	2.32784	1.90499	9.47459	5.71699	2.69707	1.06135	0.98017	0.85422	2.03492	1.57366	1.21545	9.81068	6.29547	3.45119	30.06	6.1	0.00	7.59	0.01267	0.01288	0.01633	0.00780	0.00581	0.00637	0.00466	0.01263	0.01679	0.00678	0.00699	0.00881	0.01486	0.01092	0.01194	0.00217	0.00617	0.00866
47580	0.50140	0.45077	0.30730	2.73487	2.28427	1.90237	9.45763	5.71593	2.69433	1.11089	0.99035	0.84777	2.04569	1.56971	1.20778	9.76777	6.25673	3.40717
47740	0.49369	0.44219	0.28339	2.70630	2.28020	1.87858	9.46320	5.71306	2.69034	1.08265	0.99104	0.87598	2.04811	1.56816	1.21198	9.77614	6.24804	3.40838
47910	0.48925	0.44200	0.29394	2.74741	2.33382	1.90795	9.46356	5.71579	2.69112	1.10346	0.99895	0.85597	2.03241	1.56303	1.20438	9.75166	6.25306	3.39944
48070	0.48927	0.43747	0.29291	2.71986	2.26743	1.87033	9.45935	5.71070	2.68767	1.06834	0.99081	0.84798	2.03986	1.56201	1.21169	9.75374	6.24243	3.40286
48230	0.48836	0.44197	0.30338	2.73568	2.30521	1.88747	9.47174	5.70739	2.68249	1.07595	0.99088	0.85560	2.02869	1.55995	1.20180	9.76519	6.25304	3.41872
48400	0.48639	0.43537	0.29326	2.72285	2.27635	1.87557	9.45278	5.70114	2.69043	1.08347	0.97537	0.85742	2.03861	1.55884	1.20581	9.76120	6.23269	3.40371
48560	0.48906	0.45213	0.29631	2.74584	2.28898	1.86952	9.47055	5.70919	2.69124	1.06363	0.98736	0.85430	2.04775	1.55846	1.21955	9.74291	6.24180	3.39126
48730	0.48561	0.44511	0.29825	2.73636	2.27196	1.88274	9.47257	5.70358	2.68072	1.07820	0.98077	0.85511	2.03894	1.55728	1.19527	9.75186	6.24962	3.40879
48890	0.50052	0.44584	0.29176	2.74521	2.32180	1.94480	9.48183	5.70450	2.70924	1.10824	1.01101	0.87985	2.03926	1.56762	1.22109	9.79030	6.25799	3.40247
49050	0.50179	0.44665	0.30154	2.75775	2.29002	1.88560	9.50264	5.72847	2.70855	1.07382	0.98496	0.87252	2.04282	1.56370	1.20583	9.80540	6.28071	3.42492	30.06	6.2	0.00	7.42	0.01267	0.01288	0.01633	0.00780	0.00581	0.00637	0.00466	0.01264	0.01679	0.00678	0.00699	0.00881	0.01486	0.01092	0.01194	0.00217	0.00617	0.00866
49220	0.50018	0.44677	0.29490	2.74251	2.27718	1.89047	9.46545	5.69835	2.69066	1.06796	0.99545	0.89487	2.05563	1.58250	1.20723	9.78215	6.26101	3.37878
49380	0.49490	0.44516	0.29782	2.73664	2.29513	1.89215	9.48492	5.71547	2.69798	1.08231	0.97979	0.84631	2.03756	1.57128	1.19954	9.75994	6.26760	3.39860
49540	0.49568	0.45362	0.30898	2.71154	2.27358	1.87828	9.47957	5.72793	2.69013	1.09436	1.00503	0.87879	2.03487	1.57198	1.20764	9.74950	6.23897	3.39731
49710	0.49522	0.44415	0.31101	2.72724	2.31056	1.89345	9.46711	5.71401	2.70972	1.08303	1.02966	0.89404	2.04396	1.57534	1.21425	9.84225	6.24309	3.43096
49870	0.49850	0.44181	0.30156	2.75439	2.35168	1.93047	9.47857	5.70513	2.68645	1.11027	1.04806	0.87170	2.03232	1.57580	1.21193	9.77258	6.32725	3.45431
50040	0.49414	0.45533	0.29942	2.75971	2.28817	1.88772	9.45195	5.70283	2.70089	1.09512	0.99620	0.85042	2.03748	1.57366	1.21063	9.75835	6.25435	3.40045
50200	0.50035	0.44485	0.28981	2.75538	2.31808	1.90593	9.45911	5.72330	2.69526	1.11588	1.01024	0.88004	2.04009	1.57007	1.21021	9.75069	6.22860	3.38038
50360	0.50642	0.44780	0.30823	2.73102	2.31539	1.88563	9.45627	5.72178	2.70054	1.08550	1.01368	0.87058	2.04512	1.57687	1.21358	9.79382	6.25319	3.42549
50530	0.50181	0.46279	0.29808	2.74410	2.29508	1.90644	9.45639	5.72684	2.73224	1.08733	0.99151	0.87515	2.05628	1.60111	1.24999	9.75974	6.26667	3.40228
50690	0.51120	0.46268	0.31787	2.75008	2.29119	1.90064	9.47378	5.73602	2.71905	1.08912	1.01259	0.86348	2.04078	1.58481	1.21660	9.77024	6.26422	3.42047	30.12	6.2	0.00	7.46	0.01267	0.01288	0.01633	0.00780	0.00581	0.00637	0.00466	0.01264	0.01679	0.00678	0.00699	0.00881	0.01486	0.01092	0.01194	0.00217	0.00617	0.00867
50850	0.50412	0.45274	0.29924	2.77503	2.32210	1.87628	9.48292	5.70399	2.70187	1.11353	1.01772	0.87678	2.04087	1.57423	1.21241	9.77472	6.27619	3.40579
51020	0.50121	0.44182	0.30592	2.72193	2.28261	1.89272	9.46014	5.71607	2.69059	1.09067	0.99981	0.85128	2.03492	1.55838	1.19962	9.74240	6.24558	3.41372
51180	0.47781	0.43691	0.28846	2.72475	2.32590	1.90237	9.46577	5.71461	2.70152	1.08375	1.00134	0.88067	2.03864	1.56235	1.20538	9.75591	6.25215	3.41446
51340	0.48455	0.44185	0.29149	2.73061	2.29211	1.88077	9.46097	5.70847	2.69947	1.09658	1.01322	0.88930	2.03101	1.56520	1.20202	9.79696	6.24029	3.41425
51500	0.48939	0.45084	0.29577	2.76406	2.31685	1.88008	9.44700	5.71033	2.68055	1.12132	1.03231	0.87969	2.04131	1.56880	1.20613	9.76357	6.26792	3.40702
51670	0.50579	0.45295	0.30772	2.75520	2.30000	1.88299	9.49843	5.71870	2.70367	1.08226	1.01070	0.85912	2.04985	1.56865	1.20909	9.81675	6.25830	3.41950
51830	0.49609	0.44317	0.30018	2.75970	2.32784	1.92755	9.48535	5.71317	2.71258	1.11855	0.99539	0.87213	2.03841	1.58498	1.20915	9.80186	6.29187	3.42103
52000	0.48763	0.45792	0.30588	2.77443	2.28903	1.89784	9.46014	5.70902	2.69069	1.07505	0.99384	0.88680	2.05113	1.56634	1.21014	9.77871	6.24335	3.40951
52160	0.49606	0.45172	0.30144	2.73179	2.28913	1.89238	9.46263	5.70785	2.70869	1.09953	1.01140	0.86633	2.04108	1.57173	1.21970	9.76994	6.24163	3.40939
52320	0.49308	0.44638	0.29923	2.77721	2.32512	1.88568	9.49595	5.71752	2.69623	1.09821	1.00819	0.88110	2.03667	1.56071	1.21530	9.77015	6.25716	3.41454	30.12	6.0	0.00	7.42	0.01267	0.01288	0.01633	0.00780	0.00581	0.00637	0.00466	0.01263	0.01679	0.00678	0.00699	0.00881	0.01486	0.01092	0.01194	0.00217	0.00617	0.00867
52490	0.49220	0.44098	0.28648	2.76626	2.30480	1.90406	9.47421	5.71636	2.71167	1.08747	0.99935	0.84996	2.03281	1.56975	1.21211	9.75196	6.25595	3.40875
52650	0.49916	0.44843	0.29990	2.72345	2.28887	1.88887	9.46852	5.71725	2.70409	1.08542	0.98346	0.85083	2.04302	1.56852	1.20045	9.74858	6.25653	3.41200
52810	0.49503	0.44835	0.29823	2.78651	2.32497	1.91141	9.45963	5.70723	2.70430	1.12783	1.02118	0.93604	2.04231	1.56118	1.23820	9.86556	6.25879	3.40822
52980	0.48923	0.44560	0.29949	2.77236	2.31950	1.91011	9.46123	5.73000	2.68848	1.12740	1.03565	0.88403	2.05647	1.56551	1.20414	9.79377	6.29301	3.44860
53140	0.50478	0.47206	0.32615	2.76723	2.31046	1.92165	9.48318	5.72655	2.69715	1.13439	1.01495	0.91389	2.05808	1.57789	1.24389	9.82014	6.26856	3.44806
53300	0.50653	0.46421	0.32835	2.78327	2.31690	1.92959	9.49637	5.72581	2.70122	1.10858	1.05543	0.91985	2.06207	1.60906	1.21956	9.79806	6.26802	3.44217
53470	0.49628	0.46437	0.32551	2.74828	2.30687	1.91329	9.49399	5.72891	2.72086	1.15238	1.02782	0.90238	2.06835	1.58770	1.20845	9.78460	6.24307	3.39095
53630	0.51067	0.44883	0.30520	2.76596	2.29854	1.87113	9.46555	5.71977	2.69699	1.06862	0.98995	0.86895	2.05137	1.56590	1.20153	9.77643	6.25651	3.40955
53790	0.50193	0.44021	0.30291	2.74921	2.30475	1.88001	9.45803	5.70629	2.69621	1.09793	1.01331	0.89982	2.04803	1.55725	1.19603	9.76011	6.25522	3.40988
53960	0.50708	0.45531	0.30484	2.73983	2.31795	1.90098	9.47249	5.72559	2.69073	1.08552	1.00617	0.89080	2.03188	1.56167	1.20183	9.73951	6.24705	3.42562	30.12	6.3	0.00	7.47	0.01267	0.01288	0.01633	0.00780	0.00581	0.00637	0.00466	0.01263	0.01679	0.00678	0.00699	0.00881	0.01486	0.01092	0.01194	0.00217	0.00617	0.00867
54120	0.49111	0.44432	0.29363	2.75892	2.32064	1.90031	9.47089	5.71436	2.70522	1.09570	1.01043	0.88830	2.03903	1.57418	1.21335	9.75800	6.25148	3.41967
54280	0.49570	0.44354	0.30720	2.76597	2.30836	1.89462	9.48573	5.70309	2.69893	1.08438	0.99640	0.83405	2.05219	1.57831	1.22128	9.78399	6.25699	3.40595
54450	0.49899	0.44324	0.29636	2.72870	2.30018	1.86595	9.47504	5.71541	2.68251	1.08197	1.02132	0.88045	2.04540	1.56137	1.19357	9.76347	6.24768	3.39067
54610	0.48241	0.44208	0.30116	2.74138	2.28886	1.87370	9.45383	5.70669	2.68847	1.08546	1.00530	0.84311	2.02944	1.55844	1.20850	9.75750	6.22817	3.38462
54780	0.49674	0.44589	0.30577	2.71823	2.27934	1.87691	9.45027	5.71391	2.69424	1.06715	1.00395	0.86063	2.04020	1.56302	1.20060	9.77352	6.23750	3.40201
54940	0.49969	0.45000	0.29599	2.73563	2.30300	1.88286	9.45738	5.73258	2.70386	1.10837	1.02926	0.91074	2.06137	1.59066	1.22527	9.88603	6.29564	3.48488
55110	0.49826	0.44675	0.31745	2.80743	2.32879	1.94179	9.49761	5.74589	2.73887	1.19495	1.11605	0.96193	2.08251	1.58844	1.25920	9.86952	6.34972	3.50225
55270	0.51751	0.47362	0.34798	2.87885	2.45613	2.02459	9.50463	5.75967	2.74494	1.25224	1.08992	0.96973	2.08501	1.59527	1.25494	9.84943	6.29269	3.42425
55430	0.52164	0.48311	0.34358	2.85694	2.38481	1.94348	9.48300	5.72750	2.73109	1.16201	1.05808	0.95038	2.05618	1.57170	1.23175	9.78858	6.27145	3.45714
55600	0.50400	0.46356	0.30303	2.77817	2.34584	1.93169	9.47535	5.71669	2.70905	1.12147	1.03653	0.88474	2.05914	1.57949	1.22328	9.75995	6.28476	3.44426	30.12	6.1	0.00	6.91	0.01267	0.01288	0.01633	0.00780	0.00581	0.00637	0.00466	0.01264	0.01679	0.00678	0.00699	0.00881	0.01486	0.01092	0.01194	0.00217	0.00617	0.00867
55760	0.49581	0.45870	0.30782	2.76331	2.30442	1.90435	9.48741	5.71303	2.69651	1.11903	1.05477	0.91042	2.06021	1.57706	1.21256	9.76812	6.27656	3.39945
55930	0.49127	0.44787	0.30304	2.72379	2.28222	1.90329	9.47933	5.70972	2.69374	1.10102	0.97291	0.84564	2.04023	1.56200	1.22025	9.74722	6.27867	3.40474
56090	0.51093	0.45512	0.29162	2.77877	2.33225	1.88629	9.46006	5.71217	2.69406	1.10756	1.03239	0.86605	2.04497	1.56945	1.20830	9.74802	6.24884	3.41158
56250	0.49088	0.44594	0.31128	2.71580	2.26806	1.86433	9.48153	5.71307	2.70637	1.08318	0.96964	0.86412	2.05818	1.56342	1.21389	9.76194	6.23231	3.37748
56420	0.48767	0.48316	0.30013	2.73296	2.29704	1.89140	9.46640	5.71126	2.69068	1.07931	0.98244	0.85932	2.03716	1.56289	1.20958	9.74862	6.24368	3.40501
56580	0.49645	0.44600	0.29785	2.74701	2.28788	1.88127	9.45135	5.70639	2.69120	1.09298	0.99056	0.85841	2.03794	1.56442	1.19895	9.75985	6.25753	3.42861
56740	0.48141	0.43961	0.29374	2.74173	2.29959	1.88601	9.44413	5.70525	2.69131	1.10024	1.01243	0.89523	2.03571	1.55421	1.19408	9.75050	6.23527	3.40311
56910	0.49349	0.45141	0.31373	2.72011	2.30622	1.91880	9.45301	5.71306	2.70673	1.10190	1.00045	0.86987	2.06108	1.57218	1.22453	9.76065	6.24838	3.41968
57070	0.51350	0.46008	0.31372	2.74738	2.34431	1.94016	9.47233	5.72597	2.70555	1.10649	1.05147	0.91351	2.05711	1.57871	1.21978	9.77798	6.25379	3.41638
57230	0.50663	0.46691	0.30944	2.73407	2.28728	1.90114	9.48782	5.73260	2.70671	1.12340	0.98757	0.85875	2.04852	1.58298	1.21957	9.80211	6.26666	3.41514	30.12	6.1	0.00	7.47	0.01267	0.01288	0.01633	0.00780	0.00581	0.00637	0.00466	0.01264	0.01679	0.00678	0.00699	0.00881	0.01487	0.01092	0.01194	0.00217	0.00617	0.00867
57400	0.50822	0.45556	0.29556	2.75586	2.31248	1.89690	9.45598	5.71033	2.69586	1.11095	1.01628	0.85684	2.02566	1.57530	1.22382	9.76840	6.25927	3.39412
57560	0.50191	0.44427	0.29986	2.75286	2.30123	1.89882	9.47892	5.71744	2.70009	1.10656	1.00972	0.88249	2.05264	1.58062	1.21004	9.79991	6.28271	3.43176
57720	0.48877	0.44151	0.29587	2.74712	2.35397	1.92274	9.47322	5.71358	2.70556	1.12520	1.02230	0.90013	2.04243	1.57832	1.23426	9.78265	6.30086	3.40811
57890	0.50495	0.45104	0.31103	2.78166	2.32183	1.91659	9.50667	5.72191	2.71008	1.15985	1.10834	0.93831	2.05718	1.59089	1.22654	9.84786	6.32642	3.45872
58050	0.53160	0.48978	0.31558	2.80328	2.36061	1.92066	9.49507	5.73196	2.72205	1.16257	1.03902	0.89718	2.05155	1.58750	1.21501	9.78055	6.25258	3.42751
58210	0.50198	0.44748	0.30683	2.76720	2.32068	1.92846	9.48284	5.73532	2.71456	1.11711	1.03395	0.90849	2.05291	1.57486	1.22908	9.79172	6.30659	3.43412
58380	0.48414	0.43699	0.31620	2.74084	2.36771	1.92236	9.46208	5.71093	2.70062	1.13305	1.00889	0.88656	2.05181	1.57638	1.21210	9.76472	6.24947	3.41538
58540	0.49988	0.44672	0.30431	2.73586	2.28611	1.90672	9.50060	5.73614	2.70398	1.10427	1.02574	0.88094	2.03947	1.57294	1.21923	9.75596	6.26804	3.41944
58700	0.49898	0.44852	0.30202	2.72720	2.29748	1.91075	9.48402	5.71277	2.69182	1.09467	1.02136	0.89493	2.04376	1.56822	1.20549	9.77657	6.28509	3.43142
58870	0.49833	0.44702	0.30765	2.76403	2.32783	1.88492	9.48420	5.74424	2.70723	1.07188	0.98424	0.86667	2.04587	1.55925	1.20887	9.75602	6.26539	3.41853	30.12	6.3	0.00	7.62	0.01267	0.01288	0.01633	0.00780	0.00581	0.00637	0.00466	0.01264	0.01679	0.00678	0.00699	0.00881	0.01487	0.01092	0.01194	0.00217	0.00617	0.00867
59030	0.51670	0.45916	0.30094	2.74438	2.27998	1.86468	9.46741	5.72133	2.70458	1.11778	1.03633	0.92248	2.03721	1.57601	1.21486	9.77982	6.24323	3.43133
59200	0.50267	0.46396	0.30568	2.77198	2.34665	1.89102	9.46913	5.72043	2.70304	1.12707	1.00745	0.89833	2.04499	1.58150	1.22891	9.74757	6.26435	3.40174
59360	0.48862	0.43623	0.32239	2.79295	2.29176	1.90244	9.48526	5.73579	2.70025	1.12664	1.00164	0.89409	2.04333	1.57330	1.21440	9.75831	6.26376	3.42252
59520	0.50312	0.44375	0.29357	2.74921	2.28879	1.90673	9.45135	5.71289	2.68990	1.08796	0.98159	0.85774	2.04209	1.57436	1.23154	9.78301	6.26993	3.40549
59690	0.51282	0.46198	0.31101	2.77682	2.32104	1.92193	9.48093	5.71767	2.70829	1.14277	1.00813	0.90436	2.05940	1.57400	1.21289	9.80128	6.31314	3.44060
59850	0.52539	0.46380	0.31027	2.79764	2.33860	1.95193	9.50387	5.72270	2.72218	1.15589	1.04566	0.90175	2.06604	1.57947	1.22816	9.79919	6.31686	3.47189
60010	0.50976	0.46337	0.33729	2.80366	2.34470	1.93180	9.48437	5.71489	2.69559	1.11432	1.03080	0.89145	2.06774	1.58612	1.22852	9.77215	6.27757	3.39251
60170	0.50450	0.46018	0.30406	2.74380	2.30112	1.91672	9.47695	5.71350	2.70729	1.09189	0.99312	0.86014	2.05736	1.57771	1.21490	9.77942	6.25713	3.41662
60340	0.50735	0.47223	0.32332	2.76449	2.32216	1.90921	9.47470	5.71623	2.70199	1.11820	0.99911	0.88413	2.04977	1.58285	1.22144	9.78272	6.30146	3.45565
60500	0.48789	0.44695	0.30489	2.75099	2.29894	1.90391	9.48636	5.72732	2.71297	1.09846	1.03798	0.88266	2.04166	1.58659	1.23463	9.83843	6.29992	3.42756	30.06	6.2	0.00	7.48	0.01267	0.01288	0.01633	0.00780	0.00581	0.00638	0.00466	0.01264	0.01679	0.00678	0.00699	0.00881	0.01487	0.01092	0.01194	0.00217	0.00617	0.00867
60670	0.50544	0.45824	0.30443	2.77039	2.32521	1.95551	9.47704	5.72833	2.71282	1.13302	1.03914	0.88884	2.04219	1.57899	1.21557	9.79552	6.27124	3.40944
60830	0.50270	0.44550	0.31329	2.74073	2.28371	1.90695	9.46204	5.71170	2.69459	1.08221	0.97789	0.85817	2.05074	1.57388	1.21024	9.78065	6.28119	3.42086
60990	0.51209	0.45513	0.31278	2.72293	2.29971	1.89223	9.46773	5.71906	2.70076	1.12086	1.00218	0.88584	2.04286	1.57926	1.21493	9.79422	6.25545	3.40906
61160	0.51601	0.45317	0.31483	2.78185	2.32232	1.91685	9.46649	5.73512	2.71467	1.09982	1.00153	0.87600	2.04524	1.58004	1.21072	9.79761	6.24112	3.39876
61320	0.49147	0.45763	0.30700	2.74623	2.30449	1.92106	9.48209	5.70573	2.70771	1.10661	1.03013	0.89693	2.06019	1.57461	1.20522	9.77248	6.30033	3.41424
61490	0.49850	0.44010	0.31698	2.75331	2.32586	1.89838	9.45245	5.71786	2.70866	1.14232	1.01589	0.89727	2.04153	1.57603	1.21836	9.79592	6.25927	3.38791
61650	0.50037	0.45211	0.30511	2.75919	2.28057	1.88750	9.50658	5.73114	2.70692	1.10983	1.00331	0.89991	2.03016	1.57185	1.20723	9.78634	6.28744	3.42770
61810	0.48539	0.44749	0.30267	2.79740	2.33524	1.90619	9.47372	5.72711	2.70999	1.14048	1.03973	0.88626	2.06181	1.60682	1.24225	9.82261	6.40182	3.51328
61980	0.53225	0.46798	0.32441	2.78977	2.35990	1.95114	9.49332	5.74780	2.73193	1.13693	1.01133	0.89019	2.06904	1.58371	1.22519	9.80500	6.27124	3.41099
62140	0.50900	0.45763	0.30035	2.74271	2.35664	1.96346	9.47025	5.72239	2.70880	1.27939	1.04585	0.87761	2.05454	1.57481	1.21112	9.79232	6.28746	3.41057	30.00	6.2	0.00	7.44	0.01267	0.01288	0.01633	0.00780	0.00581	0.00638	0.00466	0.01264	0.01679	0.00678	0.00699	0.00881	0.01487	0.01092	0.01194	0.00217	0.00617	0.00867
62300	0.51070	0.45321	0.30063	2.73295	2.28460	1.88182	9.46687	5.72639	2.70641	1.07172	0.98863	0.86197	2.04805	1.57826	1.20591	9.77627	6.24571	3.39368
62470	0.48612	0.45368	0.30464	2.73635	2.31438	1.90627	9.46847	5.70383	2.68821	1.08212	0.99724	0.87998	2.03702	1.57173	1.22234	9.76979	6.21150	3.38232
62630	0.48073	0.44271	0.29207	2.71098	2.27445	1.86170	9.44993	5.70467	2.69334	1.07384	0.99910	0.86909	2.02950	1.56043	1.19852	9.76183	6.24590	3.38690
62790	0.50123	0.44206	0.29621	2.73963	2.27591	1.89645	9.47025	5.70460	2.69507	1.09775	1.00379	0.89439	2.03658	1.57072	1.20268	9.74681	6.24546	3.38925
62960	0.49418	0.44183	0.28666	2.73051	2.28716	1.86621	9.46485	5.71175	2.70761	1.08261	0.97678	0.85722	2.04383	1.57765	1.20943	9.75546	6.25197	3.41443
63120	0.49431	0.44820	0.28885	2.77358	2.29113	1.89094	9.46794	5.72845	2.69803	1.09336	1.02216	0.86729	2.03100	1.55672	1.20215	9.77248	6.26736	3.42711
63280	0.48220	0.44276	0.29513	2.73136	2.30633	1.86386	9.45248	5.70426	2.68557	1.09057	0.98071	0.85010	2.03775	1.57082	1.21716	9.76611	6.26109	3.42054
63450	0.48464	0.44621	0.29008	2.74915	2.29703	1.89434	9.45994	5.72621	2.71457	1.08593	1.00483	0.87271	2.05189	1.57936	1.22723	9.78723	6.25830	3.39941
63610	0.49785	0.44855	0.29681	2.75056	2.28297	1.90049	9.46728	5.71817	2.71626	1.09086	0.99292	0.86888	2.03927	1.56048	1.20943	9.76601	6.24018	3.40347
63780	0.49783	0.45076	0.30364	2.73188	2.29829	1.90600	9.48384	5.71160	2.68778	1.08417	1.01448	0.85651	2.05087	1.57074	1.19825	9.76071	6.26280	3.41004	30.06	6.2	0.00	7.50	0.01267	0.01288	0.01633	0.00780	0.00581	0.00637	0.00467	0.01264	0.01679	0.00678	0.00699	0.00881	0.01487	0.01092	0.01194	0.00217	0.00617	0.00866
63940	0.49091	0.44167	0.29690	2.74303	2.28754	1.86925	9.47678	5.71283	2.69790	1.09040	1.00522	0.87180	2.05136	1.58193	1.22738	9.78872	6.26295	3.41492
64100	0.50990	0.45171	0.31058	2.73987	2.29447	1.89235	9.48640	5.73325	2.70734	1.12623	1.00477	0.86446	2.04329	1.57968	1.20463	9.78284	6.29415	3.46652
64270	0.50880	0.45438	0.30107	2.78515	2.33588	1.90437	9.49150	5.72740	2.71411	1.13509	1.09210	1.04877	2.07216	1.59445	1.23758	9.84438	6.33088	3.48270
64430	0.52285	0.47438	0.33490	2.76517	2.38417	1.97974	9.48307	5.73719	2.76233	1.20083	1.05971	0.92727	2.07996	1.60547	1.25609	9.85111	6.28591	3.46623
64600	0.54210	0.48472	0.33548	2.79029	2.36230	1.95013	9.46522	5.73264	2.71136	1.18055	1.04353	0.92954	2.05911	1.59016	1.25002	9.83525	6.31580	3.41454
64760	0.51919	0.48084	0.32492	2.77481	2.33184	1.91282	9.48770	5.73899	2.71754	1.14484	1.03275	0.89650	2.05719	1.59349	1.21815	9.75116	6.23419	3.38284
64920	0.50790	0.44933	0.30001	2.76044	2.32042	1.91505	9.47933	5.72813	2.69572	1.12665	1.03261	0.90151	2.04223	1.58042	1.21741	9.80991	6.29101	3.46615
65090	0.50003	0.44392	0.30477	2.78743	2.35865	1.93067	9.48076	5.72158	2.71511	1.16443	1.04159	0.91859	2.07961	1.59821	1.24134	9.77426	6.27318	3.45622
65250	0.49772	0.46749	0.33013	2.76582	2.32321	1.91275	9.47547	5.72070	2.69554	1.11716	1.03986	0.88673	2.04529	1.58688	1.22033	9.83124	6.26742	3.43861
65410	0.49906	0.45114	0.30220	2.75069	2.29540	1.89083	9.48020	5.73380	2.70697	1.09828	1.01101	0.88810	2.05815	1.57433	1.21527	9.78717	6.25394	3.41892	30.06	6.2	0.00	7.54	0.01267	0.01288	0.01633	0.00780	0.00581	0.00637	0.00467	0.01264	0.01679	0.00678	0.00699	0.00881	0.01486	0.01092	0.01194	0.00217	0.00617	0.00866
65580	0.50478	0.45954	0.30010	2.79210	2.31742	1.90243	9.46905	5.72181	2.70467	1.11441	1.00820	0.85666	2.04459	1.56850	1.21797	9.77211	6.26512	3.42582
65740	0.48910	0.44430	0.29578	2.76524	2.30373	1.89606	9.47107	5.72571	2.70458	1.12242	1.00316	0.89218	2.04929	1.58445	1.21016	9.76055	6.31464	3.41906
65900	0.50736	0.46237	0.31598	2.78947	2.34024	1.93253	9.49672	5.71949	2.72470	1.14580	1.03651	0.89680	2.06192	1.58967	1.21485	9.82118	6.29987	3.46445
66070	0.50075	0.46706	0.31600	2.76308	2.31038	1.91539	9.48192	5.72672	2.72188	1.11695	1.00835	0.86987	2.06488	1.58044	1.21400	9.75687	6.26655	3.41667
66230	0.50034	0.45132	0.31284	2.78338	2.31424	1.92855	9.48590	5.72889	2.71095	1.11814	1.00586	0.87062	2.05369	1.57979	1.21973	9.75448	6.26344	3.40517
