WetView ver 7.1	07-19-2018	10:15:20
AC9 Absorption and Attenuation Meter
00000266		; Serial number
2	; structure version number
Reserved
0.000000	0.000000		; Depth calibration
19200			; Baud rate
0.100000			; Path length (meters)
31			; number of temperature calibration bins
				12.59339	13.44920	14.48425	15.49668	16.50852	17.49564	18.50545	19.52458	20.50176	21.48889	22.47318	23.48707	24.50962	25.49370	26.49784	27.51372	28.50746	29.47237	30.47938	31.50214	32.50470	33.49235	34.50337	35.50914	36.50618	37.52058	38.51018	39.51308	40.49994	41.49866	42.47204	; temperature bins
a650	Blue	20.34952		-0.00383	-0.00415	-0.00430	-0.00391	-0.00363	-0.00317	-0.00269	-0.00237	-0.00179	-0.00130	-0.00099	-0.00071	-0.00015	0.00000	0.00004	-0.00001	0.00015	0.00036	0.00058	0.00101	0.00161	0.00132	0.00160	0.00169	0.00242	0.00273	0.00336	0.00365	0.00427	0.00566	0.00670		; offset and temperature correction info
a676	Green	20.51193		-0.00398	-0.00384	-0.00360	-0.00306	-0.00302	-0.00255	-0.00235	-0.00212	-0.00163	-0.00136	-0.00118	-0.00089	-0.00029	0.00000	0.00068	0.00082	0.00099	0.00137	0.00145	0.00212	0.00260	0.00252	0.00321	0.00354	0.00457	0.00535	0.00617	0.00648	0.00742	0.00887	0.01002		; offset and temperature correction info
a715	Brown	20.23230		-0.00421	-0.00394	-0.00391	-0.00291	-0.00264	-0.00192	-0.00204	-0.00179	-0.00188	-0.00239	-0.00180	-0.00187	-0.00099	0.00000	0.00084	0.00162	0.00188	0.00224	0.00321	0.00381	0.00466	0.00528	0.00588	0.00696	0.00859	0.01041	0.01148	0.01282	0.01333	0.01456	0.01617		; offset and temperature correction info
c510	Red	20.40042		-0.00261	-0.00247	-0.00258	-0.00225	-0.00203	-0.00197	-0.00199	-0.00203	-0.00154	-0.00103	-0.00069	-0.00019	-0.00007	0.00000	0.00011	-0.00021	-0.00042	-0.00056	-0.00040	0.00011	0.00036	0.00050	0.00077	0.00079	0.00050	0.00042	0.00043	0.00092	0.00147	0.00200	0.00232		; offset and temperature correction info
c532	Magenta	20.40760		-0.00248	-0.00265	-0.00278	-0.00279	-0.00296	-0.00292	-0.00238	-0.00206	-0.00129	-0.00096	-0.00092	-0.00052	-0.00009	0.00000	0.00007	-0.00049	-0.00136	-0.00107	-0.00079	-0.00065	-0.00074	-0.00105	-0.00152	-0.00192	-0.00236	-0.00269	-0.00252	-0.00233	-0.00172	-0.00128	-0.00067		; offset and temperature correction info
c555	Black	20.50654		-0.00053	-0.00063	-0.00106	-0.00094	-0.00068	-0.00055	-0.00053	-0.00039	-0.00028	-0.00025	-0.00011	-0.00035	-0.00007	0.00000	-0.00037	-0.00055	-0.00036	-0.00014	0.00019	0.00044	0.00032	0.00040	0.00050	0.00028	0.00014	0.00013	0.00030	0.00073	0.00117	0.00176	0.00241		; offset and temperature correction info
a412	LtBlue	17.15231		-0.01972	-0.01823	-0.01612	-0.01381	-0.01272	-0.01080	-0.00959	-0.00866	-0.00710	-0.00532	-0.00354	-0.00148	-0.00028	0.00000	0.00176	0.00297	0.00394	0.00440	0.00453	0.00487	0.00804	0.00856	0.01065	0.01248	0.01388	0.01439	0.01659	0.01881	0.02256	0.02450	0.02719		; offset and temperature correction info
a440	LtGreen	18.00171		-0.00729	-0.00642	-0.00581	-0.00502	-0.00426	-0.00349	-0.00244	-0.00218	-0.00179	-0.00101	-0.00046	-0.00006	0.00036	0.00000	0.00040	0.00045	0.00030	-0.00015	-0.00024	-0.00035	0.00012	-0.00013	-0.00033	-0.00089	-0.00142	-0.00189	-0.00231	-0.00205	-0.00140	-0.00140	-0.00146		; offset and temperature correction info
a488	Yellow	18.86491		-0.00113	-0.00102	-0.00106	-0.00064	-0.00027	-0.00020	-0.00030	-0.00037	-0.00047	-0.00059	-0.00052	-0.00012	0.00008	0.00000	0.00025	0.00012	-0.00013	-0.00043	-0.00065	-0.00076	-0.00025	0.00010	0.00090	0.00111	0.00113	0.00104	0.00073	0.00068	0.00120	0.00186	0.00258		; offset and temperature correction info
c650	Blue	20.46075		-0.00145	-0.00097	-0.00092	-0.00139	-0.00185	-0.00196	-0.00237	-0.00266	-0.00238	-0.00163	-0.00083	-0.00041	-0.00010	0.00000	0.00005	-0.00001	0.00015	0.00034	0.00029	0.00065	0.00101	0.00164	0.00126	0.00156	0.00175	0.00270	0.00287	0.00371	0.00407	0.00473	0.00534		; offset and temperature correction info
c676	Green	20.10118		-0.00170	-0.00144	-0.00149	-0.00177	-0.00188	-0.00194	-0.00198	-0.00196	-0.00177	-0.00156	-0.00140	-0.00091	-0.00033	0.00000	0.00050	0.00092	0.00110	0.00141	0.00167	0.00199	0.00216	0.00265	0.00269	0.00289	0.00315	0.00374	0.00367	0.00408	0.00486	0.00561	0.00646		; offset and temperature correction info
c715	Brown	19.91219		-0.01201	-0.01097	-0.00859	-0.00680	-0.00651	-0.00592	-0.00535	-0.00440	-0.00387	-0.00303	-0.00222	-0.00153	-0.00028	0.00000	0.00093	0.00149	0.00247	0.00322	0.00330	0.00427	0.00373	0.00464	0.00536	0.00551	0.00643	0.00733	0.00779	0.00884	0.00899	0.01021	0.01120		; offset and temperature correction info
a510	Red	19.21192		0.00201	0.00193	0.00158	0.00098	0.00089	0.00049	0.00011	-0.00016	-0.00016	-0.00005	0.00028	0.00025	0.00006	0.00000	0.00035	-0.00022	-0.00023	-0.00080	-0.00144	-0.00154	-0.00153	-0.00204	-0.00220	-0.00219	-0.00190	-0.00128	-0.00069	-0.00018	0.00068	0.00152	0.00241		; offset and temperature correction info
a532	Magenta	19.41084		-0.00097	-0.00072	-0.00060	-0.00081	-0.00062	-0.00071	-0.00040	0.00020	0.00028	0.00043	0.00000	-0.00035	0.00007	0.00000	-0.00011	-0.00059	-0.00080	-0.00098	-0.00137	-0.00162	-0.00163	-0.00130	-0.00073	-0.00018	0.00090	0.00185	0.00175	0.00247	0.00291	0.00327	0.00349		; offset and temperature correction info
a555	Black	19.69776		0.00171	0.00183	0.00183	0.00186	0.00191	0.00170	0.00115	0.00131	0.00097	0.00073	0.00060	0.00013	0.00015	0.00000	0.00014	-0.00029	-0.00066	-0.00082	-0.00116	-0.00139	-0.00134	-0.00167	-0.00119	-0.00093	-0.00048	0.00053	0.00111	0.00095	0.00178	0.00206	0.00273		; offset and temperature correction info
c412	LtBlue	19.91180		-0.02051	-0.01853	-0.01589	-0.01311	-0.01059	-0.00877	-0.00705	-0.00581	-0.00413	-0.00231	-0.00098	-0.00066	-0.00011	0.00000	-0.00013	-0.00085	-0.00170	-0.00170	-0.00302	-0.00330	-0.00429	-0.00551	-0.00626	-0.00775	-0.00978	-0.01181	-0.01113	-0.01108	-0.01116	-0.01192	-0.01291		; offset and temperature correction info
c440	LtGreen	20.06241		-0.01064	-0.00992	-0.00892	-0.00766	-0.00639	-0.00531	-0.00478	-0.00384	-0.00287	-0.00187	-0.00102	-0.00063	-0.00023	0.00000	-0.00007	-0.00053	-0.00090	-0.00119	-0.00169	-0.00197	-0.00226	-0.00257	-0.00260	-0.00289	-0.00394	-0.00470	-0.00481	-0.00493	-0.00520	-0.00580	-0.00620		; offset and temperature correction info
c488	Yellow	20.35984		-0.01125	-0.01082	-0.00966	-0.00833	-0.00726	-0.00661	-0.00579	-0.00500	-0.00389	-0.00278	-0.00167	-0.00113	-0.00041	0.00000	0.00055	0.00121	0.00187	0.00226	0.00222	0.00251	0.00281	0.00359	0.00414	0.00427	0.00401	0.00404	0.00486	0.00563	0.00638	0.00684	0.00718		; offset and temperature correction info
0.003500	0.004000	0.015000	0.020000	0.015000	0.020000	2500.000000	2000.000000	1000.000000	; maxANoise	maxCNoise	maxADifference	maxCDifference	minACounts	minCCounts	minRCounts	maxTempSdev	maxDepthSdev
0			; auxilliary capabilities
1			; acquisition binsize
0	1.46138	0.63965	0.83256	3.17680	2.77130	3.55474	9.51991	5.77991	3.86447	1.60712	1.33985	0.86551	1.97742	1.91652	1.45520	9.51054	6.17818	3.39543	24.60	6.0	0.00	7.10	0.01274	0.01289	0.01672	0.00771	0.00575	0.00630	0.00467	0.01265	0.01686	0.00672	0.00687	0.00889	0.01489	0.01096	0.01197	0.00214	0.00609	0.00858
160	1.23610	1.06473	0.64797	3.53202	3.32788	2.30516	9.76075	5.62018	2.68807	1.38607	1.37965	1.15199	2.45233	1.76210	1.55587	9.03206	5.32965	2.95376
320	0.96724	1.93800	0.93914	2.01868	2.55174	1.79629	9.49990	5.61152	2.70176	1.31832	1.30951	0.76206	2.04411	2.28052	2.31165	8.94072	5.26941	3.22522
490	0.82078	0.89554	1.03664	3.42106	2.27973	2.20369	10.90524	5.89667	2.84592	1.11762	1.56368	1.32466	3.05720	2.19433	2.41913	10.84914	7.62015	7.09780
650	0.87949	2.51464	2.15785	3.03531	5.63717	5.64171	9.97931	5.95771	3.02565	2.65431	4.47549	4.12086	2.84524	1.69463	1.72692	12.75650	9.04752	4.86004
810	0.76295	0.53509	0.61156	2.49529	2.99720	2.87990	9.50773	5.93698	2.98825	1.63138	1.91200	1.24779	2.36562	2.06085	1.53486	13.74565	9.86465	5.22654
980	1.19950	0.74148	0.65108	5.54422	5.84901	3.11548	9.68379	5.81577	3.63527	1.51786	1.08066	2.50144	2.34010	1.79608	1.71481	11.70567	6.01391	3.80809
1140	0.91937	1.03674	0.61769	4.34315	3.55092	2.38958	9.48443	6.19341	3.30533	2.70118	2.69220	2.60846	2.83451	2.14257	1.40384	11.41816	7.38247	5.95432
1310	0.69172	1.18193	0.95635	4.81000	3.56154	3.33972	9.62446	5.86262	3.07197	4.30304	2.66098	4.72420	3.94045	2.22996	3.16102	11.46849	7.49705	5.38878
1470	1.68869	1.18376	2.04335	3.47168	5.44425	2.87802	10.38946	5.89480	3.37288	2.22437	1.88559	1.38399	2.48551	2.20352	2.29043	9.99604	6.78923	3.23863
1640	1.05595	0.65826	0.50908	3.34129	2.36474	3.96627	9.45816	6.13768	3.11061	3.00666	2.03346	2.24738	2.51144	1.98355	1.42390	11.29142	8.41411	7.25794	24.54	6.1	0.00	7.17	0.01274	0.01289	0.01672	0.00771	0.00575	0.00630	0.00468	0.01265	0.01686	0.00672	0.00687	0.00890	0.01489	0.01096	0.01197	0.00214	0.00609	0.00859
1800	1.31680	0.70784	1.07880	4.35603	2.75585	7.37588	9.81156	6.25939	4.17158	5.52501	4.40410	2.70392	3.36405	2.66355	2.73335	10.88541	7.10849	4.37559
1970	0.87979	0.87684	1.20459	4.95489	4.86998	3.66494	10.45653	6.32649	4.82193	2.45157	2.35020	2.10221	2.38136	1.80029	1.72055	11.42007	7.81328	5.53109
2130	1.05500	1.56604	1.34132	3.72964	3.15625	3.02727	10.04081	6.23541	2.81598	2.16934	2.48246	1.61353	2.60050	2.02264	1.77414	9.88030	6.55230	3.57016
2290	0.80948	0.69074	0.76074	3.00183	3.54060	3.59665	9.69622	5.66916	3.24777	3.83771	1.79723	2.13156	2.28292	1.86277	1.36376	12.10553	10.48316	7.15140
2460	0.68102	1.33137	0.83077	4.59764	4.07131	1.88448	9.67537	6.58770	3.46360	4.55820	1.92691	1.16321	3.34593	2.32647	1.62570	10.25830	6.43835	4.21084
2620	0.99865	1.15630	1.36090	2.50162	2.83855	2.18455	9.97442	5.72799	3.05496	2.31273	1.85485	1.92214	2.82888	2.06900	2.25668	10.36889	5.72959	4.46950
2790	1.53632	1.21030	0.67938	3.25952	1.93139	1.87759	9.92522	6.31624	3.69765	1.95284	2.41713	1.30476	2.71835	3.19485	2.32970	9.62058	7.29209	3.14684
2950	1.76041	0.91553	0.70891	2.75608	3.68193	2.04697	9.41560	5.55726	3.59865	3.88656	2.25342	3.79719	2.40997	1.87858	1.93565	11.30412	6.74636	3.97171
3120	0.88861	1.53966	0.97692	5.01028	4.34782	3.10663	9.70705	5.84859	2.92602	3.06753	2.44818	2.39176	3.24599	2.14931	2.20331	10.56001	7.28590	5.67216
3280	2.33961	2.18212	1.61284	3.37428	3.41526	4.28274	10.89165	7.55796	4.80134	2.38750	2.43265	2.67893	4.85318	3.20786	2.90805	9.82081	7.12854	4.75360	24.60	6.1	0.00	7.29	0.01274	0.01289	0.01672	0.00771	0.00575	0.00630	0.00468	0.01265	0.01686	0.00672	0.00688	0.00890	0.01489	0.01096	0.01197	0.00214	0.00609	0.00858
3440	2.21778	1.89818	1.55411	5.73170	3.04873	3.44070	9.93157	6.06566	3.00568	2.49155	2.66413	3.44567	2.79239	2.42287	3.20844	12.54988	10.75410	5.90382
3610	2.19402	2.53244	1.42769	3.44942	2.96942	3.44195	10.26940	6.50590	4.10829	1.63891	1.13190	0.82238	2.75193	2.72837	2.18982	9.69902	6.57367	4.22574
3770	1.88936	1.70909	1.44253	3.25911	3.86584	2.92777	10.91937	6.73057	3.95190	4.21253	1.93453	1.47043	3.71553	2.99171	2.43427	12.24253	10.03320	3.88648
3930	1.35762	1.97040	1.07009	4.08220	4.51497	4.36657	10.54127	6.72532	3.59669	1.58972	3.65713	3.33671	2.56428	2.22368	2.26852	12.84788	8.29190	3.40442
4100	0.95061	0.83861	0.49608	3.53563	4.32845	4.29735	9.43747	5.99606	2.79949	5.02612	4.35676	2.09674	2.49181	2.05463	1.24598	9.99116	6.77131	5.30494
4260	1.46971	1.16331	1.41075	3.39566	2.89856	1.68054	10.09950	5.99892	4.04712	2.81950	2.23569	1.09582	3.05002	2.54386	1.55808	10.26820	6.39253	3.63316
4430	0.92564	0.86473	1.69365	6.10184	2.84100	1.82493	10.11009	7.17252	3.22079	1.50607	2.29923	2.75446	3.00385	2.91130	1.90908	9.94391	7.18797	5.30912
4590	2.22089	1.68879	1.53786	4.17199	3.20171	1.79253	9.56811	6.04267	3.40395	2.71282	2.33131	2.31616	2.19629	2.37801	1.79895	9.69501	6.83391	3.44905
4750	2.08934	0.63845	1.39659	4.95135	2.83052	3.25667	9.66111	6.23104	4.30509	2.60491	2.16299	1.39814	3.67613	2.40427	2.26281	10.67834	7.12924	5.18811
4920	1.55625	1.68719	0.86075	2.89519	2.46081	2.10212	10.17625	6.56333	3.40729	1.55342	1.82159	2.35164	3.37875	3.75902	3.34790	11.76822	13.29403	6.14874	24.60	6.1	0.00	7.25	0.01274	0.01289	0.01671	0.00771	0.00575	0.00630	0.00467	0.01265	0.01686	0.00672	0.00688	0.00890	0.01489	0.01096	0.01197	0.00214	0.00609	0.00858
5080	1.75784	1.41764	1.65142	5.97620	4.53703	3.24414	9.71490	5.88348	3.24264	3.19835	3.12551	1.89528	2.76009	3.34635	4.79012	10.22283	7.68404	5.09067
5240	3.34018	3.71027	3.37574	4.96208	4.07857	4.10449	12.55055	6.67835	3.20100	5.51458	3.98584	4.51602	2.90218	2.05291	1.52611	14.61760	10.99377	8.44257
5410	0.93065	0.63034	0.74975	6.48590	8.96367	6.57231	12.55321	6.71612	3.80873	4.18765	4.25431	2.11425	6.07488	3.30042	2.81777	12.68143	6.24173	4.69589
5570	1.90066	1.31322	2.06295	5.07543	5.81553	5.22028	10.12800	6.39587	3.09149	1.33488	1.48744	1.40635	3.22875	2.15972	1.84760	10.69949	8.31051	4.84931
5740	1.53363	1.72622	0.93466	2.59725	3.55790	2.68008	9.82147	5.96852	3.74387	2.50955	1.88892	0.88807	3.94231	3.07952	2.91868	9.50453	6.94527	3.26227
5900	1.62499	1.54178	1.06725	4.74154	3.57862	2.42285	11.22241	6.49895	3.69796	1.66424	4.42464	5.59469	3.42830	2.23530	2.30260	10.41351	6.56818	4.54100
6060	0.96935	0.83835	0.99829	4.02189	4.56435	4.03663	9.53792	5.86337	3.71272	2.76425	2.23744	2.52869	2.62885	1.86714	1.26514	10.23318	6.81614	3.88445
6230	0.72917	0.82227	0.39979	2.76285	1.76690	2.11638	9.21083	5.62062	2.71616	1.18500	1.70833	1.78233	2.06645	1.58565	1.36892	10.17900	8.97330	3.54391
6390	0.66284	0.60291	0.67713	4.24003	5.58593	3.91341	9.71175	5.88150	3.26766	2.83144	2.43375	2.63882	2.64150	2.35270	3.73863	12.53402	12.45402	4.42365
6560	1.67667	1.77813	2.22406	3.73969	5.30477	4.61883	10.00911	6.33089	2.82220	2.35111	1.98599	0.97778	2.50338	3.19344	4.15803	10.32204	7.67401	5.81743	24.66	6.3	0.00	7.18	0.01274	0.01289	0.01671	0.00771	0.00574	0.00630	0.00467	0.01265	0.01686	0.00672	0.00687	0.00889	0.01489	0.01096	0.01197	0.00214	0.00608	0.00858
6720	1.22044	1.00234	0.77383	5.99976	3.77352	1.76812	9.85267	6.49997	3.76341	1.51967	1.64951	2.06249	2.13678	2.40157	1.88889	10.30541	7.31750	4.96002
6890	1.17590	1.22142	0.51040	3.13532	2.62871	2.19477	10.07657	6.76006	3.29534	3.25384	3.14788	2.90165	2.61483	2.41486	2.32891	9.62787	6.86964	4.38586
7050	1.21718	1.34912	0.95325	3.09458	2.08582	3.16860	10.10936	5.99157	3.18906	1.67505	4.24751	4.04929	3.18232	3.67668	4.40761	12.02638	13.28826	8.27862
7210	2.29969	1.50486	1.57335	7.91479	5.66638	6.72100	10.06532	6.10617	2.96641	7.00936	9.76269	6.64848	2.64131	2.12309	1.93002	18.58657	10.41886	7.02230
7380	1.88552	0.72808	0.43842	9.88975	9.35317	5.25211	10.32941	6.35562	2.86175	7.64332	5.95158	3.78631	2.94469	2.80537	1.59552	11.07122	11.77838	6.40083
7540	1.58482	2.45287	0.98119	10.38501	10.36044	12.91852	10.19987	6.23728	3.16541	4.93604	7.94489	4.18066	2.48257	2.19811	2.17951	11.01391	8.12006	5.39082
7710	1.77216	1.85764	2.99658	6.73657	3.50290	7.26895	12.24334	7.07175	4.26033	2.21181	4.31148	4.99805	2.69888	3.71308	2.42914	11.07099	8.97448	4.69972
7870	0.60012	0.90432	1.06177	3.90242	4.28832	4.69663	9.51885	5.58295	2.74924	1.17685	1.04108	2.93059	1.97406	1.74444	1.68721	9.35279	6.06998	4.28356
8040	1.41579	0.98460	1.21729	3.34366	2.76740	2.84936	10.04231	7.11330	3.51928	1.47511	1.28159	1.46827	2.46737	2.34688	1.81845	9.31193	6.77936	5.05278
8200	1.15779	1.95572	1.03683	3.55096	3.34260	3.16222	10.38765	6.16621	3.13998	3.12963	2.59478	2.52969	2.06143	1.71617	1.93298	10.87988	6.66800	5.83955	24.54	6.0	0.00	7.14	0.01274	0.01289	0.01671	0.00771	0.00575	0.00630	0.00467	0.01265	0.01686	0.00672	0.00687	0.00890	0.01489	0.01096	0.01197	0.00214	0.00609	0.00858
8370	1.11597	0.98562	0.71992	4.73081	3.21412	2.73514	9.63169	6.11289	3.22511	3.71544	3.40799	1.55336	2.66598	2.07293	1.42860	12.84134	6.94764	2.84769
8530	0.75867	0.91899	0.93278	5.39540	1.89559	2.22035	10.03599	5.82366	2.99009	1.42632	2.34328	3.47907	2.78000	2.51702	2.02130	10.50698	6.39491	5.36596
8690	0.71476	0.66246	0.56990	2.60443	4.16081	1.72429	9.48684	5.77903	3.23966	1.45210	3.33935	1.53962	2.71806	1.67927	1.27978	10.53145	5.47813	3.24801
8860	1.05025	0.73335	0.52758	2.86258	2.98378	1.56141	9.39119	5.59156	2.86473	2.55074	2.53891	3.05925	2.64546	1.64629	1.45403	9.54893	5.80244	3.73833
9020	0.65499	0.51163	0.45651	2.96342	2.80553	3.21949	10.03568	5.74143	2.90409	2.08245	1.38769	1.89262	2.54427	1.96523	1.44973	10.40508	5.47913	2.89187
9180	0.86752	1.01025	1.02078	5.55493	4.72215	3.20939	9.69259	5.84103	2.75984	2.54362	1.76264	1.38010	3.05016	2.65851	2.00487	10.02233	7.02686	3.86404
9350	1.48878	1.58202	1.29426	2.89249	3.09654	3.77145	10.45746	7.41263	5.91945	2.40538	2.72851	2.90940	3.42786	2.12029	2.44235	10.40680	6.74345	5.38272
9510	2.25084	1.58512	1.13077	6.64276	2.85826	1.99143	9.89545	6.42369	2.70542	4.81389	2.14029	4.65754	2.22561	2.07332	2.87758	10.32018	9.07507	7.43706
9680	1.55516	0.90997	1.78949	3.54330	4.34632	3.66481	10.93515	6.36278	3.45703	1.47563	2.72994	2.23972	2.71638	2.02359	1.83434	9.40111	6.83350	4.41775
9840	1.01436	0.87904	0.55444	3.55808	2.77939	4.22982	9.82515	6.74939	3.95751	1.94634	2.62420	1.81638	2.85468	2.38660	2.16801	11.70430	6.73756	3.72789	24.54	6.1	0.00	7.15	0.01274	0.01289	0.01671	0.00771	0.00575	0.00630	0.00467	0.01265	0.01686	0.00672	0.00687	0.00889	0.01489	0.01096	0.01197	0.00214	0.00609	0.00858
10010	0.88676	0.72182	0.55224	3.73599	2.22378	2.29743	9.52787	5.50707	2.84408	1.69711	0.76575	0.64312	2.28340	2.14805	1.47675	11.13929	5.85311	2.81110
10170	0.87605	1.22360	0.94622	2.43426	2.70387	1.74338	9.78857	6.11616	3.09610	1.02900	1.62826	2.17677	2.84678	2.10430	2.25281	10.10407	6.50529	4.06293
10340	1.08436	0.65666	0.73180	4.63435	3.50241	3.68623	10.14545	6.33704	3.07392	2.85068	4.15879	2.90702	2.19770	3.05701	2.09136	9.78518	7.04145	5.41940
10500	1.44208	0.69147	0.59853	7.10667	3.67629	2.78199	9.67067	6.02273	3.96324	3.55290	2.36725	3.69339	3.53288	3.02712	1.81006	11.41555	8.15001	6.41300
10670	2.25385	2.37497	1.82950	3.14575	5.48646	3.73111	9.31030	6.22044	3.65265	7.65842	4.27803	4.24777	2.01237	1.65686	1.22253	11.52510	9.42543	5.38673
10830	0.65036	1.00338	0.87142	2.51148	1.72056	2.26231	9.96364	6.39514	2.80594	1.05995	0.92624	0.81807	2.04714	1.71605	1.55050	9.57876	6.97533	4.48261
10990	0.73461	1.06816	0.87053	2.91462	3.14069	2.73819	9.70846	5.83766	3.12556	1.25023	2.08239	3.00958	2.46526	2.30832	1.67753	10.27536	6.60728	3.76814
11160	0.87163	0.59426	0.40108	3.23251	3.24542	3.92575	9.25144	5.84535	2.83236	1.70455	1.64337	2.24659	2.22235	2.20250	1.89216	10.21010	7.03970	6.76878
11320	0.49245	0.44123	0.45913	2.50845	3.00879	1.90448	9.50090	6.06814	2.69135	1.46740	1.97475	1.81780	2.36171	1.67653	1.30121	9.41579	5.73086	3.07040
11490	1.21482	0.60693	0.60828	2.44473	4.13680	2.44386	9.68331	5.62501	2.60695	3.02061	1.45845	8.58222	2.40310	2.26293	1.77483	9.86153	6.78392	4.88338	24.60	6.0	0.00	7.24	0.01274	0.01289	0.01671	0.00771	0.00575	0.00630	0.00467	0.01265	0.01686	0.00672	0.00688	0.00889	0.01489	0.01096	0.01197	0.00214	0.00609	0.00858
11650	1.02925	1.24345	0.84819	3.00035	4.76251	2.20404	10.03534	7.42075	4.70090	2.24953	1.90050	2.06955	3.05285	1.90758	1.37227	10.35383	6.31772	6.58110
11820	0.62775	0.78408	0.46435	3.19663	2.84165	2.04791	10.22301	6.38988	3.42099	1.51756	1.95081	0.69495	2.22616	1.55756	1.21797	10.15382	6.26686	3.01278
11980	1.52644	1.52554	0.62815	2.32308	2.35551	2.41486	9.39948	5.84754	2.74357	2.67674	0.67414	0.98481	2.14604	1.56523	1.54775	9.28868	6.18451	3.32048
12150	0.94090	0.81836	0.42025	2.93214	3.40770	3.49591	9.75140	5.76043	2.75924	1.99801	1.30798	2.18294	2.15965	1.53688	1.38260	10.91194	8.00703	5.92740
12310	0.71672	0.70364	0.77538	4.14049	3.27720	5.71719	10.21109	6.62644	3.27406	1.64598	2.00103	2.15504	2.97611	2.17938	2.48183	10.26997	6.89308	6.69944
12480	1.42861	0.64457	0.29488	3.54719	2.98672	4.17382	10.06393	5.97784	4.18205	2.38507	2.61501	3.64044	3.00985	2.46295	2.05753	9.49952	7.84747	4.69407
12640	1.74120	1.90297	1.47899	3.96669	2.93451	1.83840	9.81035	6.07344	2.88030	1.81383	1.21188	2.39741	2.44803	2.76630	2.58714	9.85878	6.47820	4.23816
12800	1.41472	1.28854	1.31364	3.04960	2.02693	1.61420	9.76516	6.09779	2.96940	3.20748	2.68288	2.16832	2.39365	1.91116	2.52300	10.28580	10.93912	7.27059
12970	0.83908	1.20398	0.99136	3.87417	3.26050	1.31101	10.45569	6.29034	3.76740	1.94548	2.02858	1.86104	2.22357	1.63513	1.73982	9.53426	7.51475	4.57117
13130	1.43913	0.77575	0.95142	2.86195	3.72675	3.11034	9.80253	6.27893	2.83287	1.14288	1.09969	0.94348	2.57753	2.27017	1.88387	9.50213	5.61817	4.74640	24.54	6.1	0.00	7.14	0.01274	0.01289	0.01671	0.00771	0.00575	0.00630	0.00467	0.01265	0.01686	0.00672	0.00688	0.00890	0.01489	0.01096	0.01197	0.00214	0.00609	0.00858
13300	0.61331	0.56785	0.33898	2.56490	2.07324	2.97639	9.26214	5.68521	2.80636	2.05758	1.37527	1.03498	2.86833	3.10065	2.61063	9.95249	5.83497	3.99073
13460	1.59634	1.34239	0.95932	2.84310	3.54796	2.58181	9.67045	5.78881	3.13748	1.77225	1.94002	1.25676	2.63025	2.11079	1.68075	8.92365	6.53457	5.16697
13630	0.50370	0.57030	0.43474	3.82654	2.59645	1.93338	9.90704	5.89975	2.84557	0.98744	1.39140	1.64614	2.27226	1.74170	1.46126	9.19221	6.10778	2.78781
13790	0.94619	0.62335	0.46647	2.92497	2.39438	1.82560	9.99506	6.87128	3.20386	1.24010	2.57156	3.02974	2.69813	2.12881	2.31979	9.53896	6.31434	3.35805
13950	2.03174	1.77482	2.12045	3.53531	2.85358	2.87666	11.83421	7.96166	3.29606	1.86538	2.35342	2.99593	2.28557	2.34517	2.31313	10.25123	7.69827	3.33796
14120	0.72141	0.72017	0.52897	2.89492	3.96837	2.46583	9.53818	5.94337	2.69560	1.80900	2.15227	1.46815	2.14035	1.58522	1.39940	10.73493	7.06463	4.57416
14280	0.96555	0.56432	0.56548	2.73713	3.88807	3.65623	9.51385	5.86765	2.82997	1.65005	2.55024	2.27036	2.38414	2.15760	2.24598	10.54694	6.35977	3.39608
14450	0.80735	0.70832	0.69024	3.75143	2.03281	1.74851	9.70400	6.88632	3.41160	3.23307	3.33769	3.44358	2.31557	2.16766	3.15230	9.88436	7.23208	5.83354
14610	1.17687	1.51333	0.66994	3.06800	3.76254	3.48725	9.94363	6.17194	2.61989	1.57400	3.00040	1.70263	2.65995	2.18856	1.43679	10.46459	6.91187	5.03468
14770	1.18479	1.26395	1.91105	3.35176	3.46892	1.61194	10.52838	6.14175	3.51263	1.81792	2.19950	2.24250	2.40259	3.10208	2.17950	11.60325	8.10936	6.56805	24.60	6.2	0.00	7.20	0.01274	0.01289	0.01671	0.00771	0.00575	0.00630	0.00467	0.01265	0.01686	0.00673	0.00689	0.00890	0.01489	0.01096	0.01197	0.00214	0.00609	0.00858
14940	1.23123	1.26491	0.68563	4.43529	4.82152	6.84135	10.11776	7.44944	2.75124	3.96204	2.28359	3.06189	2.43977	2.81787	2.67792	10.29119	7.05095	3.84288
15100	1.28638	1.48364	1.10972	7.06327	6.90340	4.60119	9.88547	6.24804	2.93928	2.54428	4.24654	3.12026	3.20146	2.97804	3.21620	12.60825	7.13710	4.56672
15270	0.68564	1.01540	0.89696	4.49028	3.81655	6.71037	9.56164	5.76002	3.70899	3.36747	3.79321	2.34537	2.62263	2.28410	2.18104	12.07131	7.63625	6.74635
15430	1.56760	0.91598	0.60238	5.86269	5.60979	4.03843	9.42416	5.65798	2.54794	3.60869	2.60952	1.12592	2.16111	1.74142	1.25150	9.48514	6.88663	4.24060
15600	0.82250	1.14450	1.05306	2.75092	1.98777	1.79108	9.45075	5.71391	2.71241	1.29772	1.08546	1.67748	2.11812	1.52922	1.54504	9.67136	5.50497	2.69695
15760	0.94608	0.75310	0.90150	2.69245	2.18514	1.78786	9.79658	6.01670	2.85150	0.99775	1.10940	0.51091	2.49219	1.94171	1.58231	9.82562	6.96719	4.20823
15920	2.20720	1.64460	0.92690	2.35813	2.23051	1.87892	9.78327	5.72539	3.41806	2.13252	2.26554	1.92518	2.94253	2.17291	1.66791	11.68265	7.64448	5.21606
16090	1.18564	0.88546	0.61805	3.67009	2.14356	2.24976	10.72003	6.20224	2.75966	2.02651	2.77593	2.36474	1.95815	1.61410	1.38347	11.41532	6.37602	2.66976
16250	0.89716	0.78265	0.53401	3.52098	3.32320	2.56801	9.34937	5.81679	2.70957	0.93941	1.30229	2.02934	2.12558	2.07254	1.85072	10.05663	6.92069	4.28934
16420	1.82632	1.03466	0.48881	5.32513	4.60231	3.47601	10.77969	6.92272	3.27325	3.57719	1.72544	1.83753	2.31619	1.82735	1.50412	14.18891	9.18913	3.43016	24.66	6.2	0.00	7.16	0.01274	0.01289	0.01671	0.00771	0.00575	0.00630	0.00468	0.01265	0.01686	0.00673	0.00689	0.00890	0.01489	0.01096	0.01197	0.00214	0.00609	0.00858
16580	2.12401	2.32857	1.35376	4.93354	5.99679	6.36113	9.63848	6.26266	2.82293	3.57671	3.28898	4.60065	3.35417	3.29200	2.35916	10.37931	9.03799	4.58142
16740	1.53412	1.92897	0.83331	5.19630	3.97222	2.03554	10.39183	5.94041	3.36787	2.72709	3.58491	3.28191	4.88290	2.23563	2.35186	11.44230	6.83513	6.34283
16910	1.79437	1.93998	1.97144	5.00975	3.64550	6.36984	10.87103	6.77863	4.06305	4.30231	3.15360	2.93822	3.69997	2.63017	2.48333	11.92513	7.46215	7.87915
17070	1.87056	1.21935	0.97560	3.79558	2.80453	6.54804	9.94768	7.40780	3.82080	3.02371	6.57397	5.49635	3.13688	3.34192	3.30484	13.36223	8.44561	6.47914
17240	1.49494	0.76937	0.89721	3.44371	4.68043	6.18331	10.22841	7.66276	4.14753	6.46381	4.26343	2.27453	4.12080	3.30764	2.57500	14.10646	8.88174	5.99313
17400	1.62460	1.07670	1.11898	4.79593	3.71432	5.43506	9.62015	6.30252	3.62428	1.61664	1.87957	1.94464	2.47133	1.72997	2.29072	11.03955	10.04974	6.29260
17570	0.88807	1.59803	0.60096	4.08254	3.97641	4.31264	10.25166	6.15989	3.95282	4.13950	3.21072	3.62582	2.49359	1.80115	1.60661	12.74598	10.83058	8.77162
17730	0.91518	0.94114	1.19049	8.29305	9.00471	3.70991	9.86971	5.93685	4.13098	2.97309	2.37258	4.05621	4.78603	3.17274	2.98240	13.47071	7.63056	6.87040
17890	1.91061	2.61923	1.80059	5.12497	4.10963	4.11081	11.23463	6.81306	2.71891	1.55140	1.45921	1.98489	2.20387	2.22042	1.95122	10.16683	6.94148	4.05728
18060	1.41728	1.46893	1.05870	2.68631	4.45565	5.93605	10.22887	6.48097	3.69273	3.44250	3.54204	4.47066	3.37718	2.17084	1.81544	11.84683	7.73529	6.28433	24.60	6.1	0.00	7.26	0.01274	0.01289	0.01671	0.00771	0.00575	0.00630	0.00467	0.01265	0.01686	0.00673	0.00689	0.00890	0.01489	0.01096	0.01197	0.00214	0.00609	0.00859
18220	1.25381	1.32515	1.52228	2.87933	4.03984	1.84179	12.20598	6.69821	3.33510	1.49476	2.11142	2.11424	2.19091	1.82463	1.54901	9.56580	6.36187	4.24284
18390	1.14587	0.79861	0.60604	3.09956	2.39226	1.56080	9.93570	6.13987	3.39714	2.04130	2.36195	2.63452	2.58299	2.11882	1.53713	9.48712	6.85239	3.56049
18550	0.71538	0.68340	0.83260	3.80006	3.44454	3.43036	9.60924	6.04479	3.24539	1.11238	0.71041	0.80253	2.74404	2.16377	1.26353	9.41743	6.11102	3.43551
18710	0.80357	0.82751	0.90751	2.88349	2.34306	2.03873	9.53854	5.96529	2.80596	1.36533	2.02227	0.92571	3.19613	2.31810	1.39279	11.08977	6.00618	3.48596
18880	1.69192	1.52098	0.89974	4.77360	4.14856	3.53606	9.72960	6.78628	3.78141	3.82749	1.69746	0.68580	2.21021	1.90408	1.25655	10.61481	8.24241	5.96217
19040	1.17731	1.50617	1.17041	5.60655	4.36973	2.37565	10.08433	6.30267	3.32520	1.58437	2.26830	2.50071	2.36583	1.74848	1.70016	11.38893	7.30088	4.95322
19210	0.78647	0.83203	1.26801	6.71511	5.73385	4.28550	11.34417	5.95828	3.00501	2.69296	3.18825	2.74280	2.81587	3.18998	2.32171	11.56256	8.83409	3.63230
19370	1.26710	0.91464	0.75277	3.42191	8.23341	5.23733	10.50397	6.53405	2.74487	2.78033	2.03488	1.90219	2.23658	1.63131	1.54065	11.24630	6.23826	3.46607
19540	0.95305	0.79119	0.71273	4.52160	3.85727	2.20826	9.53759	6.21440	2.88042	0.93361	1.58033	1.36186	2.95097	2.56929	2.00420	9.92396	6.52850	2.84801
19700	1.03000	0.76407	1.19454	2.55160	3.32802	2.79174	9.56163	6.23245	2.93390	1.81131	2.43820	1.98471	2.23212	1.67208	1.62550	10.24880	7.38641	5.68515	24.60	6.1	0.00	7.23	0.01274	0.01289	0.01671	0.00771	0.00575	0.00630	0.00467	0.01265	0.01686	0.00672	0.00689	0.00890	0.01489	0.01096	0.01197	0.00214	0.00609	0.00858
19860	1.00728	1.29452	0.67570	3.62278	2.12218	2.03124	9.83578	5.59096	2.65865	2.13084	3.56670	3.71869	2.08426	1.73731	2.09864	9.46409	6.84763	3.99414
20030	0.69178	0.77584	0.81824	5.24904	3.36625	3.12635	9.85579	6.48998	2.94083	4.01538	2.33192	3.67863	2.50012	2.12219	2.39793	12.77265	7.75708	5.14413
20190	0.84745	1.09031	1.12546	6.05766	7.47467	7.96270	10.44792	7.10321	3.47829	5.65532	4.06001	4.15678	2.95672	2.94750	3.85720	15.71450	8.76961	6.50972
20360	1.40215	1.38433	1.51398	4.31983	3.71765	3.34306	10.50620	7.72576	4.70038	2.52246	3.67766	4.03500	3.24987	3.23202	2.84243	11.61927	8.86337	5.07780
20520	1.56880	1.49192	0.72242	4.44285	7.72080	5.14889	9.29823	5.62297	2.76158	6.86870	1.69103	1.58510	2.52498	2.11664	1.79346	9.83137	6.34232	3.52580
20680	0.96428	1.17589	0.51758	5.22680	3.00180	1.76519	10.26050	6.46771	3.44750	3.18151	2.21602	1.53280	2.99761	2.66296	2.84726	10.04019	7.03549	3.98272
20850	2.00140	1.19308	2.12025	5.10820	7.67101	3.89892	10.98483	7.71348	3.97255	2.76871	3.70639	2.88941	5.56578	4.78303	3.30193	12.87923	8.92969	3.15465
21010	1.82286	0.84900	1.04556	4.34669	5.40680	6.13788	9.64482	6.29123	3.14382	2.52652	1.34767	2.83403	2.39877	2.71685	2.71378	11.77185	7.58348	4.72353
21180	2.38366	1.15640	1.07220	4.73772	5.81970	5.00944	10.06793	6.83010	3.79293	5.03144	4.34884	2.12117	3.56076	2.24184	2.29519	11.72020	9.00101	4.50387
21340	0.75657	0.76779	0.46950	4.12884	3.77706	5.31814	9.69797	6.43120	2.97025	3.09709	2.22100	4.64004	3.75097	2.54894	2.16474	12.58556	8.43984	8.23433	24.66	6.2	0.00	7.13	0.01274	0.01289	0.01671	0.00771	0.00575	0.00630	0.00467	0.01265	0.01686	0.00672	0.00689	0.00890	0.01489	0.01096	0.01197	0.00214	0.00609	0.00859
21500	1.40494	1.52525	3.75051	5.88782	6.84823	6.47042	12.31427	7.56541	3.33685	3.47041	3.23069	2.46970	2.17849	1.77596	1.94988	10.11889	5.80959	3.19398
21670	0.60375	0.65925	0.80122	3.46448	2.65526	2.21715	9.74856	5.73776	2.55502	1.63441	1.25737	1.40266	2.61838	2.44090	1.55461	9.53094	6.55386	3.09855
21830	0.96096	1.05326	0.46666	2.61301	2.17530	2.47957	9.85093	5.67506	2.66046	2.67856	1.59526	0.58516	1.87327	1.73347	1.25633	8.68479	5.37622	2.77683
22000	0.65094	0.41902	0.49561	1.94546	1.93622	1.52849	9.23975	5.56369	2.58567	0.96583	1.48606	0.85021	1.89270	1.57034	1.37878	10.54269	6.03492	3.54763
22160	0.47679	0.44691	0.41502	2.56895	2.45686	1.80029	9.52684	5.48571	2.70549	1.04512	1.24072	1.07095	2.13833	1.51605	1.22693	9.25744	6.51224	3.01103
22320	0.52869	0.39269	0.25591	2.24377	2.14338	1.25165	9.25699	5.53100	2.71306	0.64432	0.70375	0.56477	2.31801	1.73073	1.40731	8.89861	5.82521	3.27142
22490	0.52917	0.66048	0.36819	2.59146	3.68518	4.29489	9.43384	5.83254	3.31003	1.36278	1.31443	1.27992	2.25299	1.89310	1.26808	9.69286	6.66203	2.90441
22650	1.42814	0.86946	1.29965	4.29745	2.49297	3.11905	10.38724	5.94705	2.72367	2.10311	2.66900	2.58791	1.99184	1.49798	1.26799	9.42052	6.22441	3.31279
22820	0.69834	0.50284	0.50567	2.80491	2.34620	1.73588	9.59888	6.30688	2.76715	1.40791	2.26292	1.47988	3.09366	2.72604	2.23512	10.08288	5.57673	2.59993
22980	0.65127	1.29402	0.94125	2.62972	2.33109	1.89681	9.50555	6.02270	3.11570	1.85199	2.03724	1.64817	2.49173	1.67974	1.50580	10.67747	8.07550	3.89849	24.60	6.1	0.00	7.21	0.01274	0.01289	0.01671	0.00771	0.00575	0.00631	0.00467	0.01265	0.01686	0.00673	0.00689	0.00890	0.01489	0.01096	0.01197	0.00214	0.00609	0.00859
23140	0.69212	1.16604	1.20266	4.84528	4.53935	3.59958	11.16022	7.47932	4.14830	2.75795	3.08217	2.33975	2.87578	2.30670	1.86742	10.20368	7.28567	5.05116
23310	0.98444	0.85828	0.31889	3.67731	2.31406	2.73381	9.95230	7.08694	2.71342	1.30313	6.71177	2.33006	2.58841	2.96415	1.27932	13.05434	10.40667	5.73542
23470	1.84245	1.29887	0.80461	5.16276	3.73583	1.48074	10.31642	5.85310	2.79267	2.22081	0.62367	0.96963	2.21860	2.15048	1.09177	8.78762	5.75666	2.89998
23640	0.56754	0.39546	0.28023	2.45359	2.31455	1.93972	9.44596	5.75085	3.04715	1.84936	0.77617	0.89448	1.95398	1.58212	1.10569	9.99702	6.58915	3.02068
23800	0.73896	0.82390	1.30173	3.35746	3.07960	3.25142	10.11770	5.89744	2.71919	1.08185	1.27814	1.12281	2.29351	1.90426	1.64477	9.73792	5.81434	3.00126
23970	1.12624	0.55483	0.30053	2.48422	4.57386	1.61889	9.27438	5.51430	2.59327	1.32482	0.82401	0.56075	1.97262	1.47749	1.06245	9.69263	6.89943	3.58734
24130	0.48777	0.44277	0.37346	2.12849	2.47266	2.35484	9.43063	5.45813	3.71228	0.91866	1.15579	1.37472	2.11683	1.99578	1.85073	9.50452	6.89814	3.90951
24300	0.64540	0.65005	0.52355	2.45086	1.98755	2.00635	9.49060	5.58519	2.62075	0.91139	0.79034	0.85326	2.08405	1.78548	1.37452	9.62591	6.27474	3.17522
24460	0.60380	0.52411	0.27787	3.35735	3.44839	2.63403	9.26499	5.65230	2.78396	1.63647	1.12106	0.94358	2.15576	1.84977	1.31205	9.13690	6.60798	3.43847
24630	1.17980	0.63360	0.33198	3.20715	2.71033	2.59667	9.40937	6.07339	2.79070	1.70479	2.93767	2.75250	2.15557	1.83787	1.50815	9.80645	5.75669	4.62436	24.60	6.1	0.00	7.14	0.01274	0.01289	0.01671	0.00771	0.00575	0.00631	0.00467	0.01265	0.01686	0.00673	0.00689	0.00891	0.01489	0.01096	0.01197	0.00214	0.00609	0.00859
24790	0.81739	0.92604	0.69428	3.73483	4.27574	1.99685	9.66796	5.91894	2.92721	2.38349	1.40497	1.94025	3.11180	2.13097	1.53272	9.41213	5.72057	3.46819
24950	0.54045	0.62898	0.53033	2.54057	2.83909	3.10803	10.14904	6.07966	3.14088	2.04795	1.98538	2.02609	3.87175	2.26065	2.10515	9.92633	7.00679	3.29591
25120	0.75855	0.85615	1.56841	3.21894	4.68583	6.93820	9.84804	6.27947	2.83468	2.68371	4.70215	2.55720	2.75612	1.90025	1.97432	13.82822	6.21459	4.94053
25280	1.31140	1.72057	1.30894	4.88341	4.89229	2.99749	9.87973	5.77763	3.03618	1.24596	1.54207	1.31006	2.14211	1.92346	2.36319	8.89724	5.77307	3.14363
25450	0.66251	0.44229	0.49851	2.65049	1.79945	1.16081	9.57614	5.89946	2.78553	0.68338	0.72391	0.73242	1.86714	1.38449	1.27022	10.16787	6.48688	3.70192
25610	0.51925	0.44773	0.34842	2.16663	2.00118	1.89816	9.34555	5.62070	2.87373	0.73726	0.48013	0.48261	1.97889	1.50857	1.17839	8.71260	5.26128	2.76769
25780	0.44665	0.50477	0.35885	2.02153	2.00749	1.51968	9.39956	5.79038	2.76583	0.82197	0.65787	0.99597	1.94948	1.47058	1.23928	9.16904	6.14428	3.24962
25940	0.50711	0.77378	0.65754	2.82778	2.36798	2.21823	10.20777	5.82782	2.95780	2.11385	1.60088	1.56881	2.20393	2.29018	1.74322	10.67859	6.50362	4.19799
26100	0.97440	0.57076	0.40299	3.07550	2.53165	2.94614	9.67496	5.68539	3.20751	1.39133	2.02067	1.22222	2.51528	1.61997	1.42458	9.41496	6.89897	5.22200
26270	0.67890	0.55482	0.31269	4.27028	3.85941	2.57428	9.25703	5.75097	3.73237	2.19802	1.78950	1.34111	2.19752	3.19218	2.73867	9.94235	6.73676	3.88121	24.60	6.1	0.00	7.48	0.01273	0.01289	0.01671	0.00771	0.00575	0.00631	0.00467	0.01264	0.01686	0.00673	0.00689	0.00891	0.01489	0.01096	0.01197	0.00214	0.00609	0.00858
26430	1.40725	1.07283	0.90869	3.75881	2.91409	2.33511	10.72635	5.71558	2.54181	1.22715	0.68872	1.12692	2.72810	2.35315	1.49577	9.45417	6.74064	4.29601
26590	0.70874	0.95933	0.71239	4.66753	2.58254	2.70720	9.84202	6.10402	3.65652	4.65381	4.57228	5.00453	2.11464	2.23653	1.89445	9.40505	7.04344	6.59069
26760	0.90779	1.30092	0.66663	5.87854	2.08509	1.83202	9.60625	6.83684	3.60462	3.59048	2.61012	1.39852	2.82266	2.35526	1.63582	10.05635	5.99459	3.61592
26920	0.99056	1.53340	0.92796	3.91106	2.23248	1.80358	10.98954	6.66755	4.18706	2.37579	2.25704	1.32937	2.33752	2.35330	1.87847	10.19142	5.95905	4.52182
27090	1.06251	0.79249	0.45713	3.73906	2.34209	4.23434	9.50745	5.96239	3.11391	4.25149	4.21390	2.10558	3.11850	2.16413	2.00824	10.73349	7.53916	4.35754
27250	0.78068	0.99627	0.80950	3.73239	6.77124	3.30232	10.55611	5.61830	2.57347	2.33668	2.36015	2.32070	2.98125	2.51939	1.99394	10.28387	5.79784	4.11725
27410	1.06886	1.26183	0.93038	3.57159	4.35074	3.11841	9.48355	5.76098	3.34484	0.79578	0.93276	0.82306	2.70197	1.73570	1.56213	9.16605	6.34560	3.69228
27580	0.59848	0.46320	0.27501	2.64324	2.11260	1.96690	9.70701	5.59266	2.52772	0.90799	1.11384	0.70097	1.89836	1.48219	1.54025	8.95492	5.63782	3.37768
27740	0.68298	0.74146	0.63587	2.85095	1.98869	2.25088	9.72496	5.92576	3.01993	1.41962	2.17253	2.03068	1.97529	1.83359	1.53752	9.60735	9.11111	3.44224
27910	1.12790	0.54166	0.55556	4.63290	2.70182	2.49127	11.36777	7.17503	4.39810	3.30255	3.69216	2.92723	2.05899	1.73026	1.40435	9.13071	5.49908	3.81098	24.60	6.2	0.00	6.25	0.01273	0.01289	0.01671	0.00771	0.00575	0.00631	0.00467	0.01264	0.01686	0.00673	0.00689	0.00890	0.01489	0.01096	0.01197	0.00214	0.00609	0.00859
28070	0.53593	0.47060	0.39538	2.17034	2.52005	1.63844	9.52381	5.76584	2.91783	1.01285	0.85876	1.01415	2.68749	2.40381	2.02568	8.94812	5.78938	2.94926
28240	0.92993	0.85726	0.89193	2.81100	1.82332	1.72528	9.83467	5.82879	2.72040	2.03192	1.40302	2.31929	2.36692	1.83833	1.46175	9.54989	6.62946	4.31873
28400	0.61915	1.20314	0.86648	3.06195	6.74985	3.16243	10.75481	6.23075	3.12348	1.51943	2.80310	2.53192	2.96146	2.14478	1.94318	9.52261	7.12564	3.42372
28560	1.11947	1.05168	1.27484	3.40054	2.19361	2.66598	9.36874	5.71974	2.80243	1.58420	1.64170	1.41184	1.90988	1.57278	1.30441	9.54171	6.83736	3.46633
28730	0.68726	0.86254	0.46700	3.41999	2.42542	1.80180	9.29779	5.93179	2.63744	1.46742	0.93441	0.78361	2.32668	2.10378	1.68929	8.83312	5.34778	2.79729
28890	0.74547	0.65527	0.57876	2.58519	2.47397	2.05475	9.53458	5.66594	3.16058	0.98127	1.12635	1.25655	2.58075	2.12491	2.01932	10.42620	8.87791	4.30049
29060	1.34450	1.16524	0.94202	3.49861	2.54121	3.09554	9.61617	5.77315	2.81564	3.38570	2.31832	2.25274	3.52015	1.86039	1.77167	10.89449	6.73189	3.61521
29220	1.36099	1.00657	1.18258	2.34066	3.00282	2.22794	9.68858	6.25591	3.34162	2.09913	0.95860	1.23045	2.31887	2.20528	1.93599	9.08600	9.34461	3.77968
29380	0.72337	1.15272	1.63808	4.08281	7.20845	3.72434	10.16489	7.45867	3.84195	4.78652	6.01931	2.54918	1.94685	1.57815	1.51133	9.53265	6.01283	4.79684
29550	0.61908	0.55159	0.86091	3.13970	2.58660	1.89160	9.50745	5.87391	2.97015	2.71229	2.26984	2.22072	2.57843	2.57492	1.99896	10.15044	6.61410	3.37653	24.66	6.1	0.00	7.57	0.01273	0.01289	0.01671	0.00771	0.00575	0.00631	0.00467	0.01264	0.01686	0.00672	0.00689	0.00890	0.01489	0.01096	0.01197	0.00214	0.00609	0.00859
29710	0.91950	0.81126	0.74142	3.77828	5.54026	5.57624	9.58570	5.96569	2.83951	3.94268	4.18860	4.47468	2.90605	1.85634	1.61982	13.49763	10.01023	8.40153
29880	1.29700	1.24722	1.04754	3.47414	3.32812	3.19608	9.80791	6.05642	3.22227	4.96733	3.15085	4.38708	2.38333	2.28786	2.45116	12.01717	8.48293	5.42920
30040	1.17179	1.12102	0.63974	7.51839	3.32787	3.28228	10.02742	6.81186	3.84729	1.70617	3.39349	1.74196	3.33185	2.27199	1.94735	11.84449	6.74113	2.79601
30200	0.75517	1.00082	1.77568	4.02852	2.21994	1.91381	9.77146	7.09561	4.41225	2.86280	1.37397	1.02778	3.30027	3.54427	2.48967	9.17549	5.96527	3.21933
30370	0.86473	0.81951	0.58818	3.64088	3.11551	3.57138	9.68636	5.46539	2.50779	1.60482	1.66189	2.30613	2.14409	1.54168	1.19792	11.16835	7.55456	3.52362
30530	0.60888	0.79509	0.47046	4.60727	4.31454	4.83506	9.71027	5.79636	3.01090	2.83114	3.38327	2.36648	2.31335	1.50548	1.27459	9.83279	5.88243	3.97342
30700	0.74305	0.65403	0.42311	4.34111	3.38047	3.37259	9.61860	5.66418	3.05171	2.18856	3.39097	2.09354	2.24376	2.29333	1.64804	9.22100	6.20821	3.06240
30860	0.80964	0.80025	0.74364	5.27130	3.42654	3.57518	10.26766	5.94919	3.05214	2.51113	2.55875	1.19332	2.45291	2.16455	1.62635	11.51120	5.40851	3.30777
31020	0.87410	0.70109	0.51792	1.97186	1.81597	1.89858	10.44695	6.72556	3.66050	1.21676	1.88921	0.75385	2.73540	2.68130	1.88114	8.87900	5.51294	2.84389
31190	1.12189	0.63822	0.83966	2.59532	2.13500	2.07996	9.38541	6.25793	2.99405	1.05474	1.61032	1.59673	2.09516	1.91397	1.44119	9.42143	5.70182	4.17341	24.66	6.2	0.00	7.23	0.01273	0.01289	0.01671	0.00771	0.00575	0.00631	0.00467	0.01265	0.01686	0.00673	0.00689	0.00891	0.01489	0.01096	0.01197	0.00214	0.00609	0.00859
31350	0.83187	0.82406	0.93263	2.52105	2.08059	3.47695	10.09237	6.77199	2.91287	1.52272	2.43076	2.15860	2.26546	2.39285	2.05686	10.31943	6.80852	3.30252
31520	0.98068	0.66924	1.83961	3.37562	2.88680	3.31034	9.35596	5.66310	3.54364	2.11720	2.71183	2.17996	2.22926	1.53422	1.38103	10.46859	7.81049	4.67309
31680	1.00222	0.76602	0.42751	2.69063	3.12486	2.88662	9.75434	5.66989	2.60213	1.08982	2.00670	1.91500	1.98440	1.53700	1.33398	10.73138	5.70839	3.26311
31850	0.48957	0.45676	0.54696	2.95152	4.50015	3.00767	9.23295	5.51289	2.47335	1.37033	0.77959	1.23115	1.92617	1.46165	1.10530	9.13910	5.29278	2.62358
32010	0.52590	0.48613	0.70402	2.26459	1.89984	1.21491	9.51817	5.90628	3.35955	1.23061	1.05514	0.94996	2.54414	1.91982	1.42677	9.31509	5.52662	2.97972
32170	0.45618	0.41067	0.27542	2.47785	2.13613	1.31300	9.44493	5.59152	2.59874	1.99410	1.13520	1.33595	1.97021	1.44329	1.14536	8.99467	5.90409	3.34934
32340	0.51720	0.68382	0.52206	3.43490	1.94976	1.61653	9.74236	6.10040	3.37794	2.27546	1.35507	1.29202	2.27185	2.05546	1.58687	11.01278	7.09517	5.57520
32500	0.93380	0.87900	0.69690	3.07697	3.76523	4.35053	10.15639	6.51169	3.04359	2.49760	2.18546	1.12690	2.29388	1.72038	1.10623	11.14216	7.31768	3.83022
32670	0.43720	0.35339	0.38655	2.67822	3.14474	2.31591	9.75696	5.69865	2.57190	1.91205	1.83632	1.78631	2.06621	1.93603	1.93127	11.31445	7.33217	3.81448
32830	1.33522	1.56679	0.61722	4.64441	3.21670	2.61349	9.44282	5.62225	2.86166	2.15444	2.53996	1.77481	2.41709	1.98174	2.11424	10.27750	5.77740	3.92861	24.66	6.2	0.00	7.18	0.01274	0.01289	0.01671	0.00772	0.00575	0.00631	0.00468	0.01265	0.01686	0.00673	0.00690	0.00891	0.01489	0.01096	0.01197	0.00214	0.00609	0.00859
33000	1.04130	0.73133	1.06735	2.97253	2.44519	1.89294	11.06477	5.94148	3.17846	1.42183	4.00568	4.90624	2.66980	2.74378	2.17759	10.27018	6.48445	3.60046
33160	1.55064	0.69428	0.33835	3.73005	2.67974	3.85940	9.70291	6.55192	3.50542	3.80303	2.34016	2.28302	3.27031	2.83129	2.66408	10.95777	6.69823	4.80196
33330	1.56047	1.79562	1.46107	2.58057	3.40314	3.12241	9.67934	6.26300	3.83628	1.26042	2.03067	1.44824	2.56035	1.79553	1.55769	11.54501	6.62536	3.98956
33490	1.00799	1.17139	0.98889	3.79669	4.00028	2.61055	10.32004	6.16006	2.91161	1.00642	2.42216	1.14568	2.31292	1.89775	1.32627	8.90116	5.36800	2.91502
33650	0.94115	0.77444	0.94231	3.51313	3.42740	2.81452	9.75826	6.82248	3.39662	1.82418	1.77521	2.55315	2.20240	1.75247	1.33612	9.70305	6.28568	4.62236
33820	0.72177	0.71051	0.50860	3.31670	3.07817	2.72695	9.33608	5.63701	2.96912	3.59495	2.04442	1.63607	2.26894	1.63400	1.79911	9.62207	6.49075	4.36831
33980	1.19844	1.09241	0.87912	3.68594	3.24207	4.34172	10.06945	5.96400	3.73789	3.47812	1.67192	0.41340	2.05172	1.97405	1.74602	8.64297	5.80307	2.78931
34150	1.35162	1.16106	0.85963	2.00764	1.68257	1.77301	10.28700	6.51849	2.84359	2.66325	1.49678	2.66436	2.33784	2.00285	1.29149	11.52529	5.75183	3.13347
34310	1.46989	0.82105	0.76561	5.51535	2.94730	2.95414	11.04087	6.54948	4.01194	3.39011	2.19069	2.26446	2.47082	2.18574	1.90373	9.22214	6.71697	4.49061
34480	0.99982	0.93084	0.51644	7.34457	5.14695	3.81555	9.93890	6.05660	3.53406	2.87754	6.31269	4.14792	2.27611	1.92452	1.57970	11.10290	5.92944	6.28006	24.66	6.2	0.00	7.07	0.01274	0.01289	0.01671	0.00772	0.00576	0.00631	0.00468	0.01265	0.01686	0.00673	0.00690	0.00891	0.01490	0.01096	0.01197	0.00214	0.00610	0.00860
34640	0.49897	0.45973	1.10648	5.14973	6.07071	4.97097	9.57411	5.80071	2.76513	2.24770	2.58443	3.72149	1.84418	1.47494	1.15269	9.87837	6.23591	4.06358
34800	0.56369	0.58893	0.30181	2.96772	2.33143	2.31761	10.90325	5.84297	3.30169	0.93337	0.88729	1.72532	2.45709	2.58312	1.89634	10.19456	6.35244	2.91734
34970	0.52635	0.88563	0.72456	2.81786	2.16520	2.50310	9.57549	5.94465	2.58780	1.44997	0.70382	0.44168	2.16952	1.70358	1.11606	8.72862	6.69099	3.30815
35130	0.87419	0.63858	1.01872	5.80880	2.24573	3.05902	9.76248	5.71948	3.45462	1.95995	4.23930	2.04755	2.42487	1.61194	1.53314	10.66865	5.98514	2.67926
35300	1.03776	1.09152	0.77031	2.03512	2.64321	2.16058	10.05023	6.93410	3.28055	1.33384	1.17161	0.67206	2.71093	1.73123	1.63687	9.04282	6.81105	3.71140
35460	0.66139	0.79280	0.41824	2.24071	1.66623	1.70763	9.61697	5.67819	2.70016	1.91856	1.53973	1.21774	1.96652	1.50497	1.24672	9.99884	5.69595	2.75929
35620	0.76292	0.62623	0.75886	2.82688	2.44422	2.06983	9.30700	5.79555	2.68581	2.89052	2.81079	0.68507	2.13398	2.05822	1.54902	9.25361	6.61300	7.43243
35790	0.83476	0.82837	1.22017	4.27350	4.12031	4.49947	9.70422	6.00755	2.91423	3.51104	3.01674	3.01156	2.66822	1.86587	1.63789	10.53673	7.69044	3.81736
35950	0.65144	1.14722	1.43176	2.85795	2.83396	1.82702	10.95860	7.69722	4.13668	1.03497	1.27292	0.68515	2.67312	3.31087	1.63041	9.81265	6.82627	2.63389
36120	1.37249	1.17979	1.09585	3.37173	3.15551	4.96921	10.18893	5.83133	2.83229	1.19595	0.73641	1.50776	2.91613	1.86468	1.45183	11.00542	6.18441	3.11163	24.72	6.0	0.00	7.21	0.01274	0.01289	0.01671	0.00772	0.00576	0.00631	0.00468	0.01265	0.01687	0.00673	0.00690	0.00891	0.01490	0.01096	0.01197	0.00215	0.00610	0.00860
36280	1.20497	1.44401	0.75543	3.41855	2.02431	3.10434	9.97931	5.78068	3.00807	2.33748	3.04984	2.59003	2.25717	1.75195	1.38197	10.20258	6.67748	5.37567
36440	1.03453	1.30900	0.98540	4.65698	3.68978	2.84963	10.71607	5.94397	2.75374	3.86839	4.15375	2.52701	2.37792	3.37315	2.19070	12.01557	6.59723	4.19835
36610	1.06725	1.07491	0.97579	3.32738	2.99456	1.66637	9.66255	6.34195	2.74969	1.09265	0.98412	0.74950	2.62614	1.62356	1.53024	9.11727	5.81790	3.45290
36770	0.82177	0.86415	1.23926	2.33761	2.22928	2.12202	9.94751	5.96087	3.08211	2.03830	1.84982	1.51124	2.66588	1.92916	1.37196	10.14707	6.42203	5.04660
36940	0.92851	1.60464	1.25321	5.32748	3.74033	3.37975	9.56450	5.97556	3.39942	1.55776	2.39294	3.71222	2.38046	2.12191	1.64072	12.05881	9.70261	5.21576
37100	1.47942	1.52811	1.20423	6.03087	3.49032	1.61282	9.87646	6.46057	3.58823	3.40389	2.76138	2.09176	3.02111	1.99029	1.91063	12.47176	11.25196	5.79378
37270	0.98967	1.10219	1.04439	4.77449	6.39658	3.82629	9.53566	5.99717	3.26254	4.05415	3.66889	6.01585	2.20809	1.92697	1.51706	11.04072	8.95875	7.71013
37430	1.02480	1.47378	1.68082	5.00655	4.48424	3.83351	10.20928	6.66068	3.29675	3.20683	2.49677	3.22703	2.43505	2.17121	1.58386	13.75185	7.08719	4.02310
37590	0.69383	0.85807	0.79869	4.72882	4.88931	3.15750	9.42565	5.65928	2.72626	1.47360	1.83135	1.06899	2.12742	1.64280	1.51567	8.99370	5.67932	3.27239
37760	0.79094	0.50594	0.42211	2.89116	3.69967	3.08412	10.17132	6.36129	3.58655	3.06037	2.64266	1.58799	2.81969	2.64138	2.09349	12.43800	6.01878	6.17180	24.60	6.1	0.00	7.27	0.01274	0.01289	0.01671	0.00772	0.00576	0.00631	0.00468	0.01265	0.01687	0.00674	0.00690	0.00892	0.01490	0.01096	0.01197	0.00215	0.00610	0.00860
37920	1.36569	1.30562	1.15446	3.99294	5.95796	3.08723	10.16277	5.65939	2.48283	2.29592	1.41012	1.12377	1.87611	1.71644	1.15346	10.06876	5.91013	3.86996
38090	0.56570	0.67541	0.66172	3.37993	4.20472	2.20098	9.77428	6.03990	2.93077	1.20794	2.49841	1.84873	2.54775	2.16664	1.75495	13.21405	10.27625	4.26215
38250	1.47162	0.99706	1.16505	5.10526	6.79337	2.95544	9.46515	5.78838	3.39999	5.32548	2.45094	2.48233	2.27406	2.09473	1.24840	15.68771	8.28298	4.18127
38420	0.89435	0.90383	0.81978	4.36737	6.44939	6.30713	9.59090	6.00014	2.82173	3.24921	1.28687	2.15772	2.39081	1.70039	2.12842	9.82726	6.81850	3.49222
38580	2.15038	2.03752	2.19420	3.14243	2.93444	3.23344	11.36144	7.21318	4.69403	1.74676	2.87013	3.29799	2.59443	1.93085	1.67016	13.51814	8.22514	4.18538
38750	0.80092	0.71894	1.83305	3.64959	2.05005	3.84016	9.64634	6.05457	3.33895	1.90471	3.13720	3.11479	3.89978	2.58654	1.99375	10.54905	6.73078	4.29224
38910	1.43576	1.61428	2.01990	3.38876	3.55608	4.76265	10.72433	6.27978	3.15239	1.88884	2.00303	2.17596	3.31843	1.80165	1.14403	9.83233	8.29692	7.97439
39070	1.21830	0.86483	0.95651	5.18581	3.89586	3.33193	9.82321	7.23635	3.28817	3.40565	5.27395	3.34166	2.80904	2.55696	2.28767	9.13685	5.72202	3.53159
39240	1.00374	1.01500	0.71652	3.44403	2.49509	2.35988	9.59647	5.87924	3.67670	1.37171	2.55284	2.67657	2.99591	2.06048	1.79780	9.40521	5.68858	4.16657
39400	1.22004	1.45744	1.02118	3.10881	2.14417	3.53301	10.02886	6.76652	3.44644	3.66874	2.46085	2.44049	4.11905	2.11771	1.87708	9.87811	7.87570	4.21497	24.66	5.9	0.00	7.17	0.01274	0.01289	0.01671	0.00772	0.00576	0.00632	0.00468	0.01265	0.01687	0.00674	0.00690	0.00892	0.01490	0.01097	0.01197	0.00215	0.00610	0.00860
39570	3.80672	2.32474	1.96692	4.73369	4.14755	2.66949	9.47854	6.73937	3.32115	1.80153	2.02185	2.24461	2.71528	2.48476	3.50733	11.49775	7.41080	4.85220
39730	1.25660	1.43362	2.10840	3.05289	5.24140	6.14184	11.48519	7.41675	3.62833	4.48683	3.61479	2.18705	3.33682	2.20707	1.69286	13.83867	8.70740	7.22282
39890	0.75700	0.94764	1.66570	8.10201	7.06260	6.00066	9.75028	6.40314	3.25835	3.01900	2.58799	3.84631	2.31786	1.75241	1.24309	9.63765	5.90122	5.42215
40060	0.47044	0.52249	0.50730	3.35800	2.79835	3.23261	9.33920	5.79972	2.73272	2.11685	2.87863	4.30937	2.30387	2.04249	1.14789	9.61768	7.58656	7.57317
40220	0.85973	0.90202	0.50742	4.48500	3.35485	3.28973	9.81351	6.61174	3.68928	2.12459	2.30286	1.55647	3.12051	2.29289	1.61571	10.91360	7.82405	5.96231
40390	1.19373	1.65649	0.92606	3.37086	2.79618	3.05692	10.12407	6.25517	3.03595	1.87051	2.15952	1.65129	2.20423	2.50456	2.64919	10.93770	7.30149	4.47274
40550	1.86952	1.06032	0.75911	3.80342	3.31076	2.97247	9.58816	5.75022	3.12025	2.99589	1.92425	1.65787	2.22028	1.51902	1.50437	10.68992	6.05481	4.07635
40710	1.45967	1.03711	0.94330	1.97679	2.20289	2.04998	9.53555	5.65946	2.70168	0.74854	1.02650	0.70672	2.42612	1.81787	1.54407	9.20680	5.39520	3.42056
40880	0.80585	0.63159	0.29559	4.10343	4.02824	2.72827	10.14833	6.97826	3.52698	1.61664	1.50565	1.42968	2.54190	2.59027	2.54545	9.99977	6.66869	3.10465
41040	1.16201	0.86461	0.55188	2.38083	1.76446	2.22388	10.58681	5.78548	2.88686	0.53621	0.79146	1.88599	2.36797	1.69020	1.32409	9.57447	5.38346	3.41013	24.60	6.2	0.00	7.13	0.01274	0.01289	0.01671	0.00773	0.00576	0.00632	0.00468	0.01265	0.01687	0.00674	0.00690	0.00892	0.01490	0.01097	0.01197	0.00215	0.00610	0.00860
41200	0.79733	0.68600	0.48697	2.80285	1.99862	2.48911	9.82067	5.91208	2.83936	3.64173	1.68336	1.48546	2.45026	2.27522	2.00761	9.10728	5.65751	3.69277
41370	1.24605	0.92621	0.70481	3.19790	2.78445	1.95312	9.69852	5.81103	2.61869	1.88387	0.62965	0.69359	2.47073	1.62588	1.40737	9.32051	6.60872	4.51543
41530	0.59930	0.54052	0.53608	2.67838	2.61978	3.88720	9.86441	6.11015	2.99716	1.09279	1.19111	1.86994	2.87687	1.71797	1.74734	9.17643	6.16718	3.95219
41700	1.37942	1.28867	0.59156	2.64429	4.34880	2.83824	9.99166	6.07239	2.89531	1.59318	1.70620	1.47674	2.51385	1.54617	1.34504	9.41144	5.82880	2.85019
41860	0.86285	0.81674	0.47916	2.65995	1.99462	1.71524	9.68342	5.85528	2.71833	1.18254	1.09157	0.75622	1.98959	1.42916	1.34429	9.64236	8.25402	3.39963
42030	0.64384	0.63123	0.47155	2.62236	3.43125	2.17388	9.70947	6.13385	3.06043	2.18326	2.03561	2.55987	2.37041	1.75644	1.30618	9.31290	5.93408	3.73811
42190	0.65755	0.82563	0.89238	5.10763	4.25919	2.95925	9.52595	5.73450	2.83038	3.71451	2.75541	2.46470	2.87011	2.68249	2.27320	11.82781	7.66651	4.23799
42350	1.37517	1.30842	0.95874	3.69436	3.24849	4.17089	9.62827	5.90939	3.65055	2.53915	1.21826	0.78182	3.36813	2.20968	1.46621	9.96074	7.45159	4.63204
42520	0.81320	1.20087	1.97873	4.01363	2.82551	1.77722	10.65776	7.73405	4.69672	1.91003	1.34028	2.06494	3.23077	2.81578	1.94189	11.31715	8.34106	8.92838
42680	1.31686	1.26944	2.00981	7.00718	14.23802	10.92459	9.41746	6.51020	3.89474	2.53635	5.02842	4.42463	3.21741	2.32341	1.74630	12.54870	6.62375	6.32887	24.66	6.2	0.00	7.18	0.01274	0.01289	0.01671	0.00773	0.00576	0.00632	0.00468	0.01265	0.01687	0.00674	0.00690	0.00891	0.01490	0.01097	0.01197	0.00215	0.00610	0.00860
42840	3.32383	1.66282	1.45708	3.24411	2.47282	3.69439	10.48119	5.70040	3.23392	2.04360	2.26517	1.29528	2.20894	1.75399	1.89460	10.07261	6.10181	3.48009
43010	0.91394	1.03944	0.93396	5.67872	2.41421	2.29047	9.51480	5.80364	2.61414	1.38259	1.72588	5.06857	2.73470	1.56588	1.40356	10.89919	6.15670	3.45524
43170	0.72294	2.08289	0.95774	2.97634	2.30193	2.52535	11.78202	6.54624	3.31432	3.79101	2.95489	3.48626	3.18988	2.22078	1.87470	11.45357	13.52124	9.31247
43340	1.10487	1.11811	1.02523	4.29806	5.52295	3.19481	10.16816	6.23995	4.35077	3.28319	2.97194	5.95790	3.68782	2.76122	2.63198	10.82045	8.63700	5.44731
43500	1.24347	2.08266	1.93270	5.24539	4.46961	4.63415	13.65709	6.72028	3.54328	5.15615	9.32283	4.49852	4.04127	4.12701	3.56325	10.65731	9.03943	8.80141
43670	1.30587	0.92817	0.83117	8.92961	7.35977	6.95449	9.68993	5.77344	2.86912	4.05290	5.23964	4.67615	2.40714	2.07886	2.21286	10.62094	7.64871	7.30089
43830	2.18167	1.93083	1.01105	3.64236	4.73021	1.84251	10.37002	5.89315	2.86579	2.07341	3.06134	1.31903	2.23163	1.96388	1.45870	12.54764	8.74096	3.99900
43990	0.87011	0.79061	0.91232	2.82076	2.31012	2.25074	9.53132	6.26069	2.99312	1.48306	2.58864	2.41828	3.22780	2.46133	1.78444	9.70695	6.69562	4.31025
44160	1.24045	1.42729	0.71897	3.54026	3.00223	3.19005	10.47413	6.52119	3.07940	3.65913	3.40136	5.13320	2.19001	1.66475	1.62164	12.24726	8.87021	5.22371
44320	1.23280	1.59763	1.57329	3.85449	3.37808	2.94611	9.82064	6.09935	3.00159	1.79964	2.60447	2.23784	2.24780	2.07908	1.57000	10.27531	6.22296	3.31555	24.66	6.0	0.00	7.10	0.01274	0.01289	0.01671	0.00773	0.00576	0.00631	0.00468	0.01266	0.01687	0.00673	0.00690	0.00891	0.01490	0.01097	0.01197	0.00215	0.00610	0.00860
44490	1.61580	1.26800	1.49571	2.71636	3.40181	2.63442	9.68048	5.72526	2.84741	5.64694	1.52821	3.49990	1.96637	1.87288	1.66317	11.40821	6.45890	4.13799
44650	0.81737	1.09914	0.93738	5.18895	5.59989	4.87987	9.80981	6.53168	3.68132	1.92951	3.58468	3.63461	3.78998	2.82266	3.41153	17.79259	13.60409	6.57055
44820	2.56513	2.17910	1.35308	4.07368	7.67357	7.06142	10.84899	6.42138	3.33248	2.29512	2.69286	3.50781	2.74745	2.16684	1.99992	10.22932	6.72784	4.64765
44980	1.40532	1.30833	0.45196	6.23960	4.18064	4.95421	9.62955	6.19569	3.25222	1.48652	2.01402	2.70781	2.60643	2.41492	1.99003	9.57918	6.58315	2.69980
45150	1.03276	0.80952	0.92170	2.21747	3.44941	5.66179	10.30302	5.89488	2.60111	3.30295	2.61687	2.39157	3.49344	2.94193	1.33941	11.73844	7.81273	4.23085
45310	1.08731	0.99759	0.78256	4.71843	4.23822	2.71563	10.74379	6.93832	3.55648	1.38354	0.98209	1.66279	3.40299	2.60484	1.27873	9.57720	6.11537	3.21052
45470	0.92539	0.80613	0.64986	3.85828	3.63412	3.73069	9.98566	6.46910	3.22007	2.51331	3.05666	4.46906	2.69068	2.69058	2.27340	10.68602	9.45420	4.42717
45640	1.96774	0.76966	0.65222	3.60045	3.67998	4.36322	10.89789	8.25245	4.56423	3.61336	2.38459	2.90559	2.54978	1.86636	1.94455	10.05542	7.64552	5.68069
45800	1.65480	1.17948	0.99417	3.53706	3.53153	4.11468	10.26315	7.07021	4.04221	2.43354	2.17454	4.98550	2.85460	4.47368	2.31401	11.94581	11.39638	8.74767
45970	1.35455	1.47657	3.21811	7.60536	5.45032	6.70049	11.63898	8.30211	3.12222	7.46010	7.20072	7.03223	2.50496	3.31606	3.66714	12.31176	8.91271	8.10737	24.66	6.1	0.00	7.14	0.01274	0.01289	0.01671	0.00772	0.00576	0.00632	0.00468	0.01265	0.01687	0.00673	0.00689	0.00891	0.01490	0.01097	0.01198	0.00214	0.00610	0.00860
46130	2.38232	1.17851	2.25640	4.96124	4.21343	2.53063	9.93286	6.13619	2.96871	2.30781	2.42232	3.72016	2.70584	2.31809	1.33025	9.05893	6.00369	5.05319
46290	0.94407	0.68762	0.87693	6.86838	3.46732	2.40119	9.43241	5.93198	3.05439	2.24199	1.35023	3.00392	2.65745	1.67447	1.39861	10.11170	8.56558	3.96156
46460	1.19119	1.22580	1.13721	4.37111	4.92890	2.14364	10.04208	5.97354	5.15184	2.83481	3.42876	3.74096	2.95103	3.75986	2.68848	10.28400	9.39440	6.93267
46620	1.21306	2.12984	2.05565	6.48725	3.67306	4.04655	9.81992	5.90779	3.27085	3.24687	6.28671	2.09466	2.81940	1.77363	2.54337	15.84817	7.90448	4.57040
46790	1.83633	2.33846	1.96995	6.44950	5.24562	4.43492	9.83903	7.00447	3.30851	3.66233	2.81930	5.40750	5.22348	3.29502	2.46774	11.25744	8.03205	5.55378
46950	1.68629	2.26177	2.96490	4.35546	2.56526	2.62340	10.36545	6.81365	2.89460	2.87724	2.38314	2.26615	2.41158	3.08025	2.60097	9.99062	7.10464	4.21078
47120	1.46843	1.29306	0.73131	2.81108	2.81542	2.66982	9.33183	5.65229	3.01335	1.26358	1.54221	1.33186	2.13336	2.11442	1.46791	11.57143	6.21418	3.90841
47280	0.62571	0.70397	0.43432	2.51064	2.81273	3.97297	9.63984	6.47110	3.26300	3.76063	2.71154	5.86817	2.35936	1.64062	1.40480	11.18450	8.13440	5.38885
47440	1.12000	0.87136	0.83953	4.53249	3.34312	3.05074	9.69566	5.92146	3.38723	3.00611	3.38701	5.14894	3.00152	2.53387	3.81368	11.18787	7.45540	5.74652
47610	1.46184	2.98146	2.52441	6.49195	3.16116	4.86272	11.23133	7.29194	4.29796	4.08105	4.35458	3.86820	3.19153	2.81902	1.68657	10.01035	7.58220	5.78694	24.66	6.1	0.00	7.12	0.01274	0.01289	0.01671	0.00772	0.00576	0.00631	0.00468	0.01265	0.01687	0.00673	0.00689	0.00891	0.01490	0.01097	0.01198	0.00214	0.00610	0.00860
47770	1.14780	1.63390	1.02170	8.32980	2.68596	3.55280	10.01892	5.59677	2.79604	2.53641	3.30213	1.32850	3.12214	1.85668	1.51477	12.34550	7.24658	4.49972
47930	1.13616	0.64875	0.36919	2.57185	2.76884	3.12960	9.41006	6.07746	2.94745	1.93734	1.69414	2.97059	2.50975	1.50641	1.51557	9.75241	6.19993	4.01161
48100	0.47802	0.63109	0.44134	3.10148	2.91679	3.37198	9.46650	5.73872	3.35821	1.57520	2.21207	3.47068	2.35989	1.93120	1.21263	11.52262	6.46129	3.23547
48260	1.23977	0.96822	0.97336	4.07926	2.70903	3.94478	9.87750	6.66813	4.44778	2.35018	1.66817	2.04379	3.00920	2.47492	1.74633	10.00715	8.12722	4.36098
48430	2.94398	1.42826	1.20842	4.44417	4.86338	3.84378	10.17511	7.01998	4.22899	3.01491	2.54904	1.93873	3.09268	3.16162	2.12878	10.88512	7.11295	5.87782
48590	0.95648	1.13067	1.40988	5.63818	4.26985	5.48114	10.26200	6.31090	3.36908	4.32425	2.32788	2.29258	3.90934	3.82898	2.93474	11.49036	11.16784	4.73852
48750	1.11960	0.86480	0.86193	3.75954	2.36131	3.64943	9.92669	5.96863	3.86184	2.68444	2.44853	2.79491	2.29759	2.07535	1.66315	10.06047	7.69628	3.71183
48920	0.89714	1.33690	0.59677	3.27441	2.93972	2.62899	9.76364	6.15455	3.58870	1.90292	3.84218	3.57272	2.36462	2.05359	1.51049	9.72126	5.99963	4.28671
49080	1.18562	0.57797	0.65889	4.21816	3.66950	2.58838	9.29998	5.75140	2.96101	1.53584	2.11263	2.20422	2.35921	1.89854	1.60942	11.63000	8.44405	4.15733
49250	1.55763	0.75091	0.61590	4.97847	4.62773	5.24242	9.89065	6.51064	3.48334	2.94286	5.04485	6.04855	2.29422	2.20995	2.83642	11.16130	7.93773	6.71226	24.66	6.1	0.00	7.18	0.01274	0.01289	0.01671	0.00773	0.00576	0.00631	0.00468	0.01265	0.01687	0.00673	0.00690	0.00891	0.01490	0.01097	0.01198	0.00215	0.00610	0.00860
49410	1.14971	0.86741	0.53587	4.20052	4.73036	5.95745	11.44971	5.96314	3.01705	2.49126	2.60099	1.42353	2.79339	3.31356	1.42004	11.19215	11.25170	4.93897
49570	1.09658	1.32486	1.51145	3.59995	3.85976	4.49345	11.01813	6.23125	3.15103	2.04417	1.90053	1.70280	2.51102	2.15184	1.95453	10.63745	6.37782	3.64547
49740	0.66246	0.41589	0.31955	2.80730	2.43067	1.92282	9.40725	5.75660	3.42624	2.10905	1.72338	0.81045	2.40629	2.15671	2.13263	9.46611	6.22321	4.76201
49900	1.59475	1.12338	0.54723	3.28640	2.23285	2.31561	9.34373	5.76053	2.89587	1.99551	1.82956	1.63375	2.49339	2.34787	1.90969	10.36903	6.54533	5.32903
50070	0.94891	1.18056	0.84352	3.40886	3.34834	2.35029	9.74422	6.22154	2.92919	2.34243	5.10660	2.51760	2.55409	2.68208	1.84156	14.72126	8.60990	4.73565
50230	2.47592	1.20229	1.51380	3.16715	3.01030	3.57257	11.07737	5.96639	3.39291	2.03068	1.01899	1.52824	3.47178	3.98104	2.95579	11.32085	7.66732	5.47029
50390	0.93190	0.84298	1.41996	3.88472	3.33160	2.89477	9.79416	5.77482	2.83985	2.94331	2.68630	1.96763	2.79883	1.95805	1.60947	9.45615	6.15621	3.20484
50560	1.07615	1.25841	0.76724	3.24212	3.59318	4.52771	9.84140	6.20657	3.07945	1.50134	0.82932	0.76846	2.70651	2.20285	1.65516	10.50526	6.76447	5.37067
50720	1.84617	0.91107	0.78296	3.43161	2.81291	2.69689	10.50665	6.33135	3.17881	1.79651	1.07569	0.96550	2.42663	1.99586	1.26216	10.15997	6.29059	4.57353
50890	1.04111	0.89032	0.92729	3.05646	2.14528	2.82789	9.87727	6.88655	2.77993	1.50092	1.04076	1.22534	2.23674	1.90609	1.56582	10.46698	7.26295	3.89051	24.66	6.0	0.00	6.56	0.01274	0.01290	0.01671	0.00772	0.00576	0.00631	0.00468	0.01265	0.01687	0.00673	0.00690	0.00891	0.01490	0.01097	0.01198	0.00215	0.00610	0.00860
51050	1.65784	1.11253	1.19466	4.84836	2.89357	3.36736	9.99305	6.86448	3.77198	1.53452	1.02956	2.53589	3.68001	2.35614	1.68838	9.74395	6.65771	3.54141
51220	1.32793	0.94975	0.91622	4.74468	1.90088	2.35388	9.52793	5.96170	3.24127	2.47420	1.84928	1.09310	2.45147	1.83008	1.35351	9.53592	6.14910	3.31757
51380	0.87830	0.59385	0.37640	2.18103	2.70781	1.81986	9.66976	5.76859	2.85676	1.76037	1.59760	1.73110	2.05619	1.69068	1.28595	12.40681	6.75779	5.31278
51550	0.76353	0.56754	0.40657	7.10114	3.75182	2.60325	9.50696	6.34366	3.25253	4.30144	3.65861	2.40237	3.05483	2.61869	1.66357	9.23297	6.86347	4.50613
51710	0.91019	0.77714	1.31896	3.52320	3.05367	2.52846	10.73256	6.12247	3.13133	3.75529	2.38458	2.03797	2.78567	2.38572	2.94106	11.87364	7.80012	3.51914
51870	1.63917	1.20969	1.54824	10.56300	9.54428	5.68223	10.48244	6.03239	2.73298	2.52321	5.14022	3.71947	4.16789	3.96529	2.39678	13.31050	6.50187	2.76818
52040	1.18829	0.87833	0.89037	4.50860	2.77745	2.13024	9.39265	5.55030	2.93652	1.23735	1.10394	1.75584	2.13069	1.62383	1.35273	9.40614	6.88424	4.59647
52200	0.56167	0.76910	0.53550	4.69425	5.19685	3.84835	9.63887	5.94690	2.82737	2.39543	2.45497	1.99188	2.31838	2.01738	1.37923	9.95281	6.88126	5.03880
52360	0.54509	0.77071	0.57633	6.06386	3.47579	4.60281	9.99205	5.87975	2.92817	3.52485	5.91959	4.95799	2.93021	2.28999	2.18267	13.30175	7.16013	3.73721
52530	0.62204	0.49969	0.34815	6.83233	2.33886	1.87229	9.81259	5.73721	2.66621	1.41078	1.38156	2.41055	2.01119	1.45637	1.33570	9.82772	5.82269	3.45205	24.72	6.3	0.00	7.27	0.01274	0.01290	0.01671	0.00772	0.00576	0.00632	0.00468	0.01265	0.01687	0.00673	0.00690	0.00891	0.01490	0.01097	0.01197	0.00215	0.00610	0.00860
52690	1.46886	0.97947	0.85837	2.53982	1.78820	1.87403	9.54723	5.58028	2.78552	2.08005	1.15429	0.97204	2.24150	1.81268	1.31042	9.34966	5.95454	4.00031
52860	0.75658	0.69744	0.72357	2.36242	3.15838	2.29002	9.97241	6.05331	2.91493	1.26672	0.87576	1.84791	2.59347	2.27543	2.10196	9.69956	6.22564	3.30675
53020	1.54443	1.04256	1.36802	3.34514	3.87909	2.06179	11.26565	7.24001	2.88043	2.16289	1.62787	1.28151	2.85020	2.34643	2.28065	11.77279	6.81617	3.11157
53180	1.05446	0.94931	1.18077	2.60556	2.96984	5.69851	10.67529	7.08894	3.52170	2.01566	2.90039	2.03326	2.97158	2.31455	1.45384	9.95343	5.95311	3.09978
53350	1.30064	1.90597	1.18211	2.58619	3.39527	2.34428	9.58435	5.59848	2.77418	2.43331	1.58206	2.03787	1.88892	1.57243	1.53540	9.45423	6.33796	3.33059
53510	1.21389	1.31968	1.99289	3.52326	2.42637	2.19894	9.52754	5.70644	2.88954	2.01449	2.46814	1.41090	2.30234	1.85998	1.23273	9.28112	6.65394	3.92737
53680	0.73489	0.66703	0.65627	4.06921	5.31110	2.09840	9.41721	6.88219	4.01858	1.86300	2.04486	1.26945	2.71182	2.32168	2.47980	10.45845	6.30397	4.35563
53840	1.02456	0.96762	0.29831	3.40675	2.76661	1.31043	9.29931	5.46142	2.86031	1.11092	1.93522	1.02593	2.44629	2.03856	1.29535	9.23719	5.33722	2.58966
54010	0.50236	0.47944	0.42380	2.18464	2.17106	1.45059	9.36548	6.04752	3.14526	0.89782	1.07743	0.73722	2.05535	1.54903	1.98158	9.13494	5.30613	2.96705
54170	0.97057	0.89570	0.64016	2.97377	2.28203	1.69161	9.53151	5.92424	3.32637	1.56754	1.17927	1.51261	1.98101	1.60100	1.59260	9.23808	6.05007	3.42625	24.72	6.2	0.00	7.29	0.01274	0.01290	0.01671	0.00773	0.00576	0.00632	0.00468	0.01265	0.01687	0.00674	0.00691	0.00892	0.01490	0.01097	0.01197	0.00215	0.00610	0.00861
54340	1.17060	1.20064	0.74202	3.33498	4.50465	3.39709	9.61255	6.15876	2.71709	0.93065	1.25178	2.00841	2.55659	1.59746	1.22546	9.81162	6.14756	3.87627
54500	1.73471	1.50588	1.31032	2.83895	2.08535	1.73761	9.61435	5.82183	2.99382	1.58251	0.61551	0.67465	2.30886	1.55963	1.44256	8.84149	5.33747	3.57516
54670	0.81341	0.70359	0.44209	3.19716	2.69894	1.86087	9.25575	5.71059	2.64412	1.36339	2.84144	1.65595	2.61719	1.79787	1.93596	9.49615	5.95005	3.27076
54830	0.66362	0.86027	0.62820	2.88368	2.70103	2.73445	9.71955	5.74011	3.08424	2.17400	2.35353	1.33204	2.19662	1.81022	1.52922	9.50459	6.49124	4.98295
55000	1.15413	1.03619	0.69079	2.82173	2.43341	3.99140	9.90279	5.96725	2.79133	1.75509	2.93391	2.42346	2.05626	1.97079	1.34507	10.83406	7.23513	3.99840
55160	0.90692	0.66385	0.62679	2.41346	1.72522	1.44296	9.91180	6.46465	3.01670	0.89437	1.53674	0.59910	2.55342	2.01450	1.65756	8.74410	5.59699	2.39946
55320	0.62525	0.57403	0.37869	1.90146	1.45286	1.59123	9.32601	5.48838	2.77433	1.49793	0.94809	0.51334	1.90227	1.65164	1.20893	9.07107	6.49514	3.09075
55490	0.67071	0.88559	0.50491	2.12069	1.62911	1.32727	9.74503	5.83420	2.92070	0.83531	0.53888	1.05335	2.28631	1.46172	1.36584	11.33579	6.70388	3.54115
55650	1.19961	1.03664	0.82794	3.57947	3.52666	2.71013	10.39817	6.98917	4.09627	1.53260	2.21828	1.41427	2.88322	2.54849	1.60441	10.37170	7.01378	3.35386
55820	0.75224	0.84992	1.04618	3.20732	4.98575	3.94499	10.08098	6.46375	5.07316	2.95089	2.57685	2.36123	2.98146	2.08350	1.53188	10.75237	6.63253	4.54188	24.66	6.1	0.00	7.31	0.01274	0.01290	0.01671	0.00773	0.00577	0.00632	0.00468	0.01266	0.01687	0.00674	0.00691	0.00891	0.01490	0.01097	0.01197	0.00215	0.00610	0.00861
55980	1.15155	1.24126	1.43375	2.81645	2.24884	4.26155	10.22190	5.99861	2.77029	1.13416	2.10493	2.31759	2.41139	1.69072	1.38031	9.09797	5.86830	3.35908
56150	0.89894	0.75763	0.69254	3.57025	2.84176	4.41703	10.37998	5.88197	3.12048	2.46114	1.16808	1.41117	2.17320	1.66659	1.48794	9.04342	7.97923	3.77543
56310	0.71630	0.73880	0.95511	3.50270	2.48631	1.81535	9.63951	5.64028	2.86504	0.82143	1.91572	0.73033	2.59667	1.99227	1.51587	9.00417	5.65515	2.54185
56480	0.76863	0.50356	0.38964	2.12252	1.67056	2.58589	9.24765	5.50938	2.53256	0.96412	1.14956	1.30154	1.93339	1.48031	1.12515	9.25701	5.70313	3.59249
56640	0.58133	0.56913	0.43018	3.04028	2.77054	3.41033	9.32256	5.62731	2.89598	2.85777	1.89099	2.53111	2.13033	1.72682	1.40252	9.32419	5.99145	4.36064
56810	0.79932	1.09568	0.75506	4.85462	4.02528	3.27137	9.36003	5.88212	3.04929	1.74432	2.29098	2.49113	2.83220	2.14526	1.27063	9.80894	6.18497	5.20968
56970	0.79692	0.97619	0.65782	3.14792	2.22596	2.43311	10.92310	6.44226	3.03250	2.01183	3.33570	2.35309	2.27243	2.15314	2.26957	10.65048	7.65949	3.53967
57130	0.94165	0.80400	0.46131	3.85853	2.03129	1.88628	9.65943	5.73767	2.71666	2.46467	2.63760	3.49901	2.53607	2.44202	2.13888	15.78597	12.27154	7.30383
57300	1.14944	0.86177	0.77368	3.12470	2.49791	2.05359	10.60747	6.68538	2.64613	1.89566	3.88457	2.33325	2.60367	1.98006	1.32253	8.81452	5.72401	2.93012
57470	0.61673	0.64485	0.67035	2.66792	2.80374	2.10297	9.94408	6.02561	2.76797	2.08349	2.07981	1.04235	1.94889	1.60245	1.85139	10.35338	7.44491	4.11934	24.72	6.1	0.00	7.19	0.01274	0.01289	0.01671	0.00773	0.00576	0.00632	0.00468	0.01265	0.01687	0.00673	0.00690	0.00891	0.01490	0.01097	0.01197	0.00215	0.00610	0.00860
57630	1.42910	0.92747	0.63858	3.49159	4.05374	5.33015	10.53521	6.60755	2.86954	4.90974	3.79884	1.11762	2.56771	2.44588	2.12496	12.25321	11.35764	6.22062
57790	1.61135	1.09455	0.84796	5.54194	5.22219	2.26878	10.97063	5.76551	2.63036	4.57541	1.51147	2.12232	2.16292	1.74776	2.49864	10.35583	7.89410	6.65096
57960	1.28662	1.47793	1.82528	6.33128	2.53938	4.60535	9.71641	6.21474	4.48116	5.69028	5.69083	4.99801	4.16054	3.07024	1.62164	10.52550	8.98193	5.60876
58120	1.79972	0.88945	0.97943	4.46806	3.65158	2.89933	9.80851	6.75039	3.37656	1.97870	1.54172	1.23796	2.87260	2.13583	1.54366	9.58161	6.53480	4.74084
58290	1.38768	1.19080	0.92501	3.63347	5.35413	3.21124	10.62048	6.29019	3.11338	2.54534	2.98851	2.54724	2.64688	2.23160	1.58552	10.36138	7.63127	4.88534
58450	1.27934	2.19059	2.47955	3.86924	3.89650	3.34908	10.87452	7.06025	5.95574	3.38063	4.46084	4.31248	3.62849	1.94399	2.23666	10.33546	6.84481	4.44451
58610	1.02326	0.85471	0.59367	3.59867	2.72817	2.92048	9.85982	6.56426	2.97441	1.80229	2.97464	2.83133	2.14799	1.87367	1.32176	9.47381	5.55877	3.12898
58780	0.91728	1.15955	0.73174	3.47307	2.33121	2.17914	9.63115	5.85508	3.33404	2.57921	1.71651	2.19452	2.37665	1.57862	1.65348	10.86697	6.79180	3.89393
58940	1.08819	0.87460	0.86222	2.52236	2.59557	1.80675	9.57603	5.82407	3.13283	1.61011	1.28333	0.58985	2.03029	1.78564	1.72132	9.52673	6.25775	3.53981
59100	0.63983	1.11775	0.98843	2.47001	1.95370	1.48928	9.33108	5.79395	2.77163	0.79854	0.79366	1.19224	2.51888	2.08023	1.56139	9.61779	5.93736	3.20579	24.72	6.1	0.00	7.12	0.01274	0.01289	0.01671	0.00773	0.00577	0.00632	0.00468	0.01265	0.01687	0.00674	0.00691	0.00892	0.01490	0.01097	0.01197	0.00215	0.00611	0.00860
59270	0.69763	0.63279	0.53676	2.30368	1.85836	1.92955	9.52230	5.72459	2.53863	0.81830	0.86200	0.93081	1.95130	1.47280	1.17848	9.53476	5.99020	2.68763
59430	0.42216	0.40933	0.34286	2.35190	2.03150	1.80887	9.78503	5.45807	2.60224	0.95916	1.57538	1.63206	2.37560	1.54858	1.23530	9.38030	5.99601	3.09615
59600	0.44284	0.61990	0.45652	2.29525	2.11188	2.00380	9.42267	5.68004	2.67415	1.55743	1.14590	1.00668	2.17105	1.65861	1.19446	9.16262	5.53496	2.70963
59760	0.70838	0.54327	0.77303	2.27948	1.87357	1.75908	9.94200	6.75862	3.21648	1.22499	1.24870	0.58211	2.62823	2.06721	1.68474	8.98310	5.42149	3.79018
59930	1.18112	0.86727	0.56970	3.15195	3.47733	4.25894	9.38649	5.55112	3.04316	2.26197	3.75543	3.57724	2.28887	1.94319	1.72814	9.36589	5.47835	3.81952
60090	1.47526	1.26837	1.00808	5.61587	3.37395	4.71376	9.90810	6.34780	4.08853	2.50725	3.48744	1.76471	3.14595	3.38628	2.66749	11.01637	6.08024	4.38846
60250	2.01937	1.65352	0.71791	4.40973	3.44351	3.01732	9.93110	5.77668	2.95691	2.72346	2.42568	2.05748	2.14301	1.56270	1.22967	11.11434	7.27592	4.48747
60420	1.20123	0.69862	1.94880	3.80066	2.45476	1.69739	9.73216	5.86727	3.40702	2.01541	1.96963	4.78108	2.41398	1.99260	1.88436	11.81323	8.29174	6.50529
60580	1.30824	1.02593	0.53132	5.14363	3.87334	2.06258	9.78863	6.66939	3.14243	1.09769	1.68542	0.91530	2.65493	1.81742	1.99131	8.92068	5.62020	4.01022
60750	0.93401	1.39123	0.76071	3.36312	4.74629	3.74782	9.36610	5.92527	3.02663	2.90714	2.92546	1.34918	3.06002	2.64791	2.02405	9.83936	7.38451	3.60604	24.66	6.0	0.00	7.50	0.01274	0.01289	0.01671	0.00773	0.00577	0.00632	0.00468	0.01265	0.01687	0.00674	0.00691	0.00892	0.01490	0.01097	0.01197	0.00215	0.00611	0.00861
60910	0.89375	1.39771	1.60145	3.76314	2.81528	2.14739	11.45877	6.03883	4.29513	1.94567	2.72820	1.74956	2.71844	2.08839	2.60193	10.31376	6.65413	3.45825
61080	1.57661	1.01422	0.70765	3.21170	2.48578	2.19239	9.98307	5.66626	2.94423	0.73033	0.98491	1.22142	2.13369	2.28156	1.93910	9.08406	5.80243	3.24744
61240	0.49703	0.49864	0.48893	1.97384	1.42988	1.60227	9.80423	5.67488	2.58040	0.97048	0.55985	0.35885	2.00348	1.58642	1.22070	8.92651	5.25037	2.77524
61410	0.62959	0.50229	0.35951	2.14839	1.48757	1.15994	9.21555	5.44808	2.46978	0.99586	0.54891	0.64836	1.95266	1.57558	1.18354	9.30188	5.39283	3.06233
61570	0.48844	0.64765	0.48333	2.03245	2.82192	1.45787	9.69150	5.86551	2.71116	1.13236	1.67878	1.54961	1.94613	1.52910	1.16737	9.67214	6.24317	3.60862
61730	0.51683	0.40827	0.35310	3.16946	3.10414	2.11724	9.67465	6.36100	3.09568	1.92561	2.16264	1.74755	2.07929	2.74300	2.75268	10.08797	7.14984	4.77045
61900	1.10153	1.42150	0.79553	3.65146	3.06125	2.07067	10.07207	6.01961	3.92523	1.18607	1.78013	2.85223	2.79812	2.36396	2.29624	10.63257	7.37912	3.42682
62060	1.51554	1.09274	0.69354	3.90903	2.77244	3.01756	9.88672	7.11325	3.50957	2.16052	1.42976	2.84041	3.85960	2.35746	3.08805	10.54085	7.17459	4.30500
62230	1.78254	0.90434	1.65210	4.05227	2.79567	2.23866	10.00069	5.98368	3.07646	2.82286	1.61635	1.77472	2.23011	2.07687	1.52362	10.18548	5.83619	3.83853
62390	1.19302	1.20078	0.88291	3.42831	2.49567	1.82452	9.95036	6.67220	3.27703	2.01003	1.82837	2.90697	2.81440	2.47969	2.23399	9.85552	6.47526	3.91648	24.72	6.1	0.00	7.18	0.01274	0.01289	0.01671	0.00773	0.00577	0.00632	0.00468	0.01265	0.01687	0.00674	0.00691	0.00892	0.01490	0.01097	0.01197	0.00215	0.00611	0.00861
62560	0.96971	1.12937	1.18444	3.36457	3.85474	1.54348	10.02190	6.25611	2.69843	1.68496	1.76701	1.42407	1.96012	1.59816	1.24677	9.65311	8.88837	3.78005
62720	0.56382	0.45152	0.87307	2.29750	2.64436	1.65795	10.50237	6.91898	3.50871	2.01554	1.15912	1.49526	3.50284	2.79488	1.54583	11.62062	6.46807	3.38538
62890	0.86020	0.92400	1.63628	3.42712	2.61528	2.26181	9.53146	5.79028	2.71566	1.27496	2.74163	3.70860	2.16732	1.85322	1.72304	9.93069	6.06831	3.17097
63050	1.64523	2.76190	1.15024	3.21678	3.11879	3.02925	11.21696	7.08973	5.38544	1.24648	1.79332	1.63528	3.11521	2.04717	1.68432	9.15405	5.80361	2.64375
63210	1.22877	1.42234	0.98967	2.09236	1.74031	1.70555	11.80264	7.17196	3.49470	1.14855	0.52939	0.54957	3.70793	2.50191	1.97852	8.89014	5.35194	2.58157
63380	1.33227	1.83247	1.78071	2.08379	1.61817	1.18265	9.50888	6.12625	3.83996	0.56475	0.65315	0.72373	3.05255	2.15707	1.39631	9.07284	5.60965	3.90689
63540	0.74091	0.90746	0.52832	2.07231	1.84771	2.38961	9.32421	5.78822	2.80127	1.96888	1.73664	2.84406	2.21395	1.59391	1.22999	9.03229	6.46664	3.42051
63710	0.61493	0.55637	0.50172	2.42074	4.35847	3.66346	9.45395	5.59500	2.75637	1.20657	1.50878	1.40879	2.09471	1.39277	1.24803	9.64585	6.44565	3.06780
63870	0.88203	0.94079	0.81613	2.28353	2.96775	2.42884	9.78791	6.12488	3.06656	1.90602	1.55232	2.00200	2.63475	1.73823	1.59273	10.33705	6.02344	3.66263
64040	0.88658	0.87923	1.25917	3.55717	3.90683	2.21346	9.97339	6.00473	3.17844	1.54642	2.69981	2.37774	2.95824	3.88989	2.33600	10.17976	7.60770	5.84905	24.72	6.1	0.00	7.18	0.01274	0.01290	0.01671	0.00773	0.00577	0.00632	0.00468	0.01265	0.01687	0.00674	0.00691	0.00891	0.01490	0.01097	0.01198	0.00215	0.00610	0.00861
64200	2.47437	1.54081	0.66332	3.78867	3.65715	3.81358	10.23158	6.22566	3.02317	2.60751	4.76900	4.74363	2.76914	1.86403	1.49881	11.48910	11.38190	5.74563
64370	0.88208	1.15625	2.31577	5.36675	7.85578	4.64626	9.89265	8.14128	3.90200	4.20359	5.82802	4.77524	2.17083	1.62152	1.09141	14.29231	8.31262	4.51727
64530	0.65403	0.69921	0.60097	5.49338	4.68120	2.90425	9.97674	6.23846	3.42854	3.03427	1.18097	2.50372	2.76322	2.67464	1.74744	11.37533	6.97572	3.04483
64690	0.73663	0.80894	0.98565	4.31514	3.21227	3.45356	9.36968	5.77284	3.75757	1.72297	2.10132	1.17467	2.12856	2.06183	1.28470	9.43591	6.52663	3.09313
64860	1.36774	0.87273	0.75909	2.73893	3.00884	3.00471	9.83294	6.73123	3.47098	1.09053	2.91706	2.88248	2.90650	2.98753	1.55957	11.13211	7.49840	7.16990
65020	1.05294	1.52942	1.27822	4.10566	6.99184	4.99761	10.14798	7.26676	5.12727	3.64605	2.99050	2.21127	2.24917	2.20613	1.97186	9.82698	7.56035	6.67711
65180	1.13266	1.60429	1.03285	4.46738	4.78052	6.02492	10.31987	6.71716	4.08719	2.46915	2.23752	1.46314	2.45317	1.99689	1.41433	10.36567	6.65752	4.37391
65350	0.61892	0.97202	0.93769	3.80038	3.44466	3.27764	9.93801	6.28211	2.74849	2.47005	2.02795	3.86946	2.07864	2.04526	1.62828	9.93120	6.40794	3.72916
65510	0.89354	0.84989	1.20307	3.16175	2.52427	2.37297	9.55254	6.10390	2.73075	1.52248	2.12999	2.14038	2.12934	1.47798	1.84543	9.35879	5.39222	2.98999
65680	0.76872	0.62546	0.52133	2.15004	2.62956	2.08869	9.83174	5.57179	2.97879	1.81828	0.82146	0.79219	2.33622	1.82205	1.19787	10.30990	7.06230	3.25080	24.72	5.9	0.00	6.96	0.01274	0.01289	0.01671	0.00773	0.00577	0.00632	0.00468	0.01265	0.01687	0.00674	0.00691	0.00892	0.01490	0.01097	0.01197	0.00215	0.00610	0.00861
65840	1.62619	1.06798	0.71147	4.18243	3.50055	2.70688	9.64175	5.76660	2.94361	3.59642	2.88562	2.75477	1.96975	2.00758	1.50263	9.92706	7.73953	3.81203
66010	0.83281	0.79615	1.35739	2.45029	1.85291	1.97225	9.31908	5.65323	2.56431	0.66107	0.84008	0.75350	2.27485	1.86820	1.20777	9.62096	5.79137	2.55420
66170	0.50307	0.81655	0.66819	2.35843	2.55078	2.01825	9.78930	5.91406	2.67129	1.13474	1.45917	2.39844	2.16060	1.84977	1.81426	9.74136	5.47169	3.82184
66330	1.19070	0.80882	0.68872	3.46135	2.59806	1.90918	10.07006	5.95436	3.40622	1.91444	2.84236	3.30515	2.56397	1.51513	1.28267	11.76203	6.85063	3.63095
66500	1.09154	0.72690	0.89203	3.33697	2.99785	4.02480	10.31664	6.34973	2.69867	3.58729	1.70017	0.78456	2.97197	2.44998	1.29362	9.24836	6.42929	3.49664
66660	1.34827	0.95023	0.98677	3.04755	2.50297	2.55817	9.89864	6.03312	3.73724	2.21458	1.87555	1.45849	2.62536	2.52356	2.12204	10.21725	6.18989	3.38133
66830	1.14306	1.17577	1.06219	2.47605	2.64277	3.77554	10.64428	6.55999	3.24372	1.45665	2.56389	2.25929	2.95218	2.18392	1.66780	9.24559	6.43891	3.99277
66990	0.91972	1.33954	1.46819	2.85895	2.87212	3.49794	10.85574	6.21720	3.16777	3.18454	2.65888	2.32637	2.35134	1.92255	1.27588	10.50918	6.66300	4.08218
67150	0.68060	0.78438	0.49889	2.46759	2.18111	3.10600	9.35121	5.77732	2.74819	2.26402	0.97260	0.95965	1.89396	1.53627	1.35311	9.84406	5.44372	4.84957
67320	0.86920	0.80566	0.44483	2.66543	2.55340	2.91294	9.94752	6.20034	2.81241	2.36213	2.42721	3.11195	2.42122	1.79433	1.20327	9.59535	9.06443	3.70801	24.72	5.9	0.00	7.15	0.01274	0.01289	0.01671	0.00773	0.00577	0.00632	0.00468	0.01265	0.01687	0.00674	0.00692	0.00892	0.01490	0.01097	0.01198	0.00215	0.00610	0.00861
67480	0.73118	1.19127	0.94115	3.78888	2.64923	3.32488	10.49318	6.50540	3.26546	1.78655	1.69552	0.86850	2.17337	1.81212	1.38331	10.88074	7.34317	3.12762
67640	0.87397	0.82225	1.03939	3.75348	3.31822	2.70796	9.76372	6.10721	4.11746	1.72582	1.98948	1.72331	2.09120	1.65863	1.55075	9.65961	6.27019	3.51957
67810	1.05575	1.18157	0.74117	3.68234	3.51042	3.55547	9.73163	5.61441	2.56192	1.99168	2.12569	0.64662	2.34441	2.34631	2.04104	9.49415	5.87070	2.68120
67970	1.00415	0.66186	0.65881	2.06672	2.03458	1.95779	9.92888	5.65821	3.26534	1.46733	1.44440	1.54048	2.23685	1.81328	1.67837	9.26633	8.37976	5.28715
68140	0.71411	0.59602	0.22599	3.41657	2.44635	3.06030	9.39695	5.67496	2.64107	1.10203	0.93790	1.10975	2.39637	1.92803	1.45954	10.14869	6.50131	2.79037
68300	0.97885	0.96749	0.70593	3.15676	2.60556	2.05453	9.42863	6.34348	2.86989	1.70458	1.35472	1.15553	2.21831	2.35691	1.73180	9.26470	6.26744	3.17758
68460	0.87976	0.79152	0.40332	2.46804	1.67760	1.23195	9.37884	5.53544	2.52979	0.79000	0.51900	0.34096	2.21533	1.60601	1.18187	8.88674	5.33415	2.81049
68630	0.87315	0.57810	0.39053	3.11588	3.02766	2.30135	9.69057	5.82377	2.70988	0.82261	1.74980	0.88790	1.83269	1.40622	1.16580	9.07290	5.58383	2.87671
68790	0.34650	0.35057	0.25313	2.39375	1.77978	1.92922	9.34428	5.93768	3.01285	1.52353	1.73892	1.02058	2.34360	1.87018	2.16771	8.94279	5.61200	2.92464
68960	1.05856	1.00655	0.73220	2.96709	3.74851	2.05176	10.35321	6.07199	3.93117	1.58002	0.87954	0.85640	2.36905	2.61957	2.15293	9.87034	5.97482	2.98649	24.72	6.1	0.00	7.21	0.01274	0.01289	0.01671	0.00773	0.00577	0.00632	0.00468	0.01265	0.01687	0.00674	0.00691	0.00892	0.01490	0.01096	0.01197	0.00215	0.00610	0.00861
69120	2.09783	1.42304	0.80771	3.41372	2.55191	1.98238	9.74108	6.27580	2.77688	2.76453	2.13338	1.83740	2.26411	1.63425	1.73182	10.24423	7.99330	5.98036
69290	0.64543	0.50038	0.36005	3.37640	2.37194	2.50982	9.85471	5.84372	2.65196	1.33940	1.78532	2.31577	2.31862	1.67036	1.38167	9.72968	6.51519	3.58142
69450	0.83507	0.77288	0.59787	4.67708	2.77043	2.31483	9.77412	6.00761	3.40616	2.56905	7.26477	4.36193	2.32795	1.53887	1.26000	12.95685	9.88683	6.46738
69620	0.59900	1.12302	0.93472	5.33279	4.55283	4.58352	9.59683	5.89724	3.13918	5.07497	3.76152	3.63542	2.54722	2.11895	1.80152	12.78921	10.26292	6.40943
69780	0.77891	0.98257	1.01746	4.83137	4.43777	4.17161	10.33102	5.96929	3.53634	2.57713	3.94914	3.73211	3.05250	3.42945	2.75735	10.22999	6.49055	4.23757
69950	0.97520	1.09046	0.75242	2.54434	2.26333	2.96951	10.31486	6.08368	3.02989	1.75348	1.93400	2.10901	2.39896	2.45949	2.13561	9.48788	8.33174	3.54114
70110	0.48828	0.71825	0.71360	3.87003	2.80507	3.03690	9.53261	5.53921	2.54470	1.23125	1.56357	1.54810	2.49130	1.47246	1.47860	10.31956	6.23666	2.63203
70280	0.57950	0.41977	0.54604	1.88801	1.52045	2.38514	9.25672	5.42524	2.83508	0.59017	0.89833	1.02262	2.28230	1.73681	1.83256	8.77307	5.31616	2.42162
70440	0.45532	0.73848	0.48196	1.94594	1.39356	1.13767	9.36565	5.50466	2.51617	0.42287	0.33184	0.43458	1.86124	1.45243	1.17104	8.85606	5.07321	2.38360
70610	0.53517	0.53714	0.52700	2.01242	1.72519	1.34962	9.60416	5.59640	2.73138	1.53037	1.26043	1.29620	2.04461	2.01793	1.26990	8.98068	6.16924	3.11869	24.72	6.1	0.00	7.08	0.01274	0.01289	0.01671	0.00773	0.00577	0.00632	0.00468	0.01265	0.01687	0.00674	0.00691	0.00891	0.01490	0.01097	0.01197	0.00215	0.00610	0.00861
70770	0.62925	0.78010	0.40412	4.07685	2.71617	4.02630	9.40928	5.68711	2.67992	2.81265	2.53448	2.29829	2.51807	1.69760	1.57670	13.79153	9.67894	4.12733
70930	0.71073	0.59274	0.23556	4.93514	6.88899	4.81257	9.22780	5.40920	2.46115	3.63606	2.12276	3.50406	1.83274	1.44324	1.15059	9.70003	7.49909	4.02580
71100	0.60100	0.78755	1.06736	3.10774	4.03388	4.07256	9.53800	5.63833	2.68146	2.12743	1.75903	1.05543	2.50914	1.83342	1.59890	10.55596	6.42604	3.57777
71260	0.68448	0.69650	0.40025	3.31411	3.14337	1.97872	9.44901	5.80753	2.79690	2.17243	2.13666	1.38235	2.61103	1.77012	1.53665	9.51776	6.53871	3.05275
71430	0.73722	0.69367	0.45494	3.28742	2.97662	3.80067	10.42265	6.09353	3.07392	1.18412	2.61697	3.60915	2.49145	1.72210	1.51100	10.46328	6.82907	3.83360
71590	0.76451	0.61630	0.51245	5.30680	2.83830	2.69870	9.62167	5.59010	2.76098	1.27746	1.54333	0.80717	2.60555	1.68066	1.44578	9.98218	6.11502	3.44904
71760	0.52802	0.33582	0.26990	3.81896	2.09001	2.55247	9.24744	5.54347	2.70362	1.64937	1.76826	2.01366	2.02491	1.52975	1.31291	9.17684	7.51242	6.14040
71920	1.03107	0.85853	0.47173	3.40257	4.34310	3.36326	10.21552	6.52942	3.86963	3.11632	3.69468	2.26533	2.52520	1.90268	1.52700	11.16641	6.37004	4.24871
72090	0.77032	1.02411	0.45115	4.89633	4.68992	3.60203	10.07808	5.94384	2.51896	3.82479	2.26681	2.54275	2.42581	1.84411	1.34753	10.04541	7.02118	3.12679
72250	1.02939	0.68786	0.74268	8.05034	8.14259	3.96698	9.72418	6.90101	3.50378	4.69201	4.34926	1.56614	2.36757	1.86006	1.56574	10.14736	7.69291	5.21848	24.66	6.0	0.00	7.13	0.01274	0.01289	0.01671	0.00773	0.00577	0.00632	0.00468	0.01265	0.01687	0.00674	0.00690	0.00891	0.01490	0.01097	0.01197	0.00215	0.00610	0.00861
72420	0.62379	0.90370	0.36326	2.42755	2.28444	2.10039	9.35956	5.67995	3.07143	0.76017	1.10772	0.88519	2.32622	1.92885	1.56205	8.95959	6.06200	3.29918
72580	1.83125	1.59605	0.32832	2.04349	1.73694	2.93003	9.54914	6.03891	2.85443	1.28441	1.94973	1.93200	2.59280	1.87796	1.63838	11.39624	6.70197	3.62794
72740	1.19160	1.89180	1.71599	4.77213	3.29263	2.38708	9.92601	6.02405	2.95303	2.37923	2.27883	1.98334	2.48042	1.75352	1.45957	10.21858	6.65005	7.27133
72910	0.72838	1.05700	0.73929	2.78095	2.30013	3.19986	9.66391	6.08324	2.98231	2.55779	1.81115	2.12003	2.76404	1.95967	1.87932	12.83129	7.06484	4.00703
73070	1.59100	1.56466	1.33627	3.16868	4.34776	3.10281	10.56276	6.78549	3.06756	2.66712	2.39845	4.93064	2.32641	1.83422	1.45284	10.74810	6.91659	5.37743
73240	0.86287	1.18401	0.69408	3.25238	4.15547	2.12480	9.69512	5.50776	2.82659	0.76337	1.24140	0.71571	2.61579	1.57658	1.33136	9.50003	6.48806	3.70280
73400	0.91005	0.80601	0.50119	4.50058	3.01460	2.81343	9.67615	6.24320	3.47198	2.42520	3.91292	4.75816	2.17800	2.05280	2.36147	9.84230	7.97028	6.31307
73570	1.31206	1.16364	1.08564	5.28889	5.01648	3.72398	10.03645	6.87712	3.74909	2.76560	4.66382	2.09534	2.04510	1.99940	2.40391	9.75591	7.61459	3.09068
73730	1.25250	0.93098	0.60429	3.21062	3.48092	2.87538	9.78488	6.51306	3.77539	2.08510	1.85580	1.52452	2.18429	1.61113	1.37488	9.76294	5.91712	3.40879
73900	0.96405	0.82850	0.61854	2.43525	2.53896	1.86272	9.83734	6.50432	3.46925	1.04105	1.79947	1.39528	2.49518	1.72619	1.89276	9.88706	5.64972	3.30482	24.66	6.0	0.00	7.18	0.01274	0.01289	0.01671	0.00773	0.00577	0.00632	0.00468	0.01265	0.01687	0.00674	0.00690	0.00891	0.01490	0.01097	0.01197	0.00215	0.00610	0.00861
74060	2.47336	1.24299	0.92197	2.58566	2.20393	2.30464	9.80214	6.23951	2.99296	3.80010	1.58629	2.51445	2.21259	1.87533	1.71149	10.36331	6.82824	4.02713
74230	0.70116	0.85580	0.73580	2.53153	2.29263	2.26583	9.70133	5.82319	2.81122	1.86826	1.64479	0.80063	2.95636	1.70377	1.49048	9.12431	7.61845	3.72331
74390	1.16057	1.16046	0.94289	5.17778	4.78877	2.77680	9.60201	6.02280	2.90960	2.08800	3.58262	3.27095	2.17004	1.68250	1.86969	12.87767	8.55522	4.24302
74550	1.24418	1.34935	1.92381	2.89510	2.82662	4.43079	11.45738	7.86097	3.82375	2.68091	2.58706	2.60135	4.23433	3.80700	1.92874	11.44692	8.96481	4.42760
74720	1.84489	1.60001	0.96313	2.91945	2.62562	3.72147	10.01447	5.65703	2.79335	1.92582	1.70905	1.51568	2.64489	2.49775	1.74866	11.41771	8.40400	5.12485
74880	0.84076	0.67777	0.49968	5.00291	6.55745	3.64401	9.53330	5.53796	2.45621	3.57407	3.62319	2.63827	2.17147	1.83658	1.74740	11.02372	6.70386	4.16964
75050	0.61717	0.82315	0.73659	4.01743	4.63555	2.86178	10.18063	5.58554	2.94537	2.09070	3.37623	2.40201	2.39383	1.79434	1.56540	9.36387	6.67490	4.22635
75210	1.25180	0.67361	0.29444	3.12506	2.08399	1.61485	10.23236	6.93499	3.54139	2.78375	1.27652	1.57513	2.05621	2.02781	2.68211	12.13342	7.38532	5.68899
75380	0.95224	0.85336	0.83547	2.42604	3.99356	2.55197	10.01771	6.46900	2.67589	1.65681	2.02197	1.33277	2.05016	1.70120	1.29004	10.01640	6.97446	3.70996
75540	0.82603	0.86151	0.47555	4.02298	3.80543	2.67498	9.48718	5.84318	2.78025	1.51990	2.03700	3.52044	2.35835	1.97259	1.79343	11.75325	8.13561	5.87344	24.78	6.1	0.00	7.19	0.01274	0.01289	0.01671	0.00773	0.00577	0.00632	0.00468	0.01265	0.01687	0.00674	0.00690	0.00891	0.01490	0.01097	0.01197	0.00215	0.00610	0.00861
75710	1.10678	1.02074	1.49468	4.87702	3.88225	3.13242	9.60116	5.93406	3.26770	3.73724	3.02391	1.87944	2.36171	3.22674	2.86399	9.87302	6.91030	3.35684
75870	1.59756	1.71621	1.90219	2.51067	2.49679	1.74943	10.07561	6.41699	3.29227	1.80126	1.31484	1.96425	1.91046	1.50547	1.20444	10.94310	7.25386	3.94469
76030	0.68022	0.79501	0.39280	4.86412	3.04207	2.50493	9.31291	5.58728	2.54949	1.45180	0.92914	4.50405	2.01401	1.78193	1.57337	9.57533	5.67027	3.93584
76200	1.33439	0.92805	1.14865	3.68194	3.03094	2.95585	9.31565	6.04410	3.24867	1.27987	1.38565	1.04236	2.44281	2.45284	1.88282	9.85211	6.07158	3.64837
76360	0.92803	1.03910	0.88026	2.32594	2.37771	2.91271	9.64804	5.89791	3.28421	2.19192	1.03065	0.89741	2.61797	2.26258	1.39272	9.16756	6.41256	2.92397
76520	0.79556	1.09795	0.82913	2.27941	2.87714	3.05880	9.82555	6.27506	3.05761	1.39770	2.14878	4.06969	2.14981	1.68395	1.71333	9.73268	6.87155	4.64273
76690	0.99430	1.21564	1.01055	4.28480	9.04575	5.87244	10.11405	6.55604	4.12852	2.60799	4.51103	4.80434	3.38610	1.97524	1.51296	11.61165	7.96280	5.06319
76850	0.90961	2.32238	2.39812	5.16893	3.21890	3.97392	10.60060	6.29886	3.56376	5.60555	4.76758	5.47384	2.43015	1.74264	1.45686	9.19288	5.90660	3.73886
77020	0.84901	0.69166	0.51461	2.59035	2.65435	2.23834	9.42644	5.65654	2.55884	1.17092	1.24911	0.85484	2.03004	1.49862	1.21726	9.50682	5.76423	3.91614
77180	0.48189	0.50114	0.31529	3.96120	2.55906	1.93415	9.68121	5.95842	2.83125	1.93006	1.43341	3.31814	2.08509	1.77644	2.03203	9.51944	5.27613	3.19968	24.78	6.0	0.00	7.12	0.01274	0.01289	0.01671	0.00773	0.00577	0.00632	0.00468	0.01265	0.01687	0.00673	0.00690	0.00891	0.01490	0.01097	0.01198	0.00215	0.00610	0.00861
77350	0.97626	0.77860	0.70886	4.69335	4.89724	4.41764	10.17431	6.03153	3.71953	3.04774	2.60202	3.08006	2.77662	2.68473	1.97156	10.50541	6.28185	4.58491
77510	1.56964	1.87060	0.99268	4.22084	3.20820	3.40102	10.67304	6.21724	3.00775	2.62006	2.00154	1.24729	2.40842	2.30123	1.61526	11.61928	5.82155	3.35959
77680	0.65984	1.35149	0.86610	6.08842	4.35490	3.59472	9.47943	5.78365	2.75878	2.68714	1.54976	1.76272	2.05884	1.44406	1.28284	11.27305	9.37595	5.44636
77840	1.07723	0.58337	0.91723	3.79771	3.86222	1.89857	10.41485	6.21730	3.13757	3.64343	2.00855	3.71673	2.47562	2.56669	1.46139	13.20194	7.30413	5.18156
78010	2.70138	1.27609	1.12926	4.55277	2.95921	3.44103	9.36617	6.63266	3.55666	3.93328	3.06300	2.03039	2.03640	1.92274	1.76694	9.78617	7.02038	4.55532
78170	0.68772	0.74802	0.81130	3.82131	4.75869	5.43427	9.55194	6.54035	3.43727	4.61438	5.93087	4.30843	2.72277	2.28860	2.06604	10.84500	7.39703	5.18034
78340	0.74850	0.70267	0.57772	3.76732	3.29316	3.28751	9.50770	6.09589	2.96164	1.81494	1.74043	2.22612	2.57464	2.55527	1.58210	8.91559	6.24853	3.10576
78500	0.70043	0.82539	1.93336	3.00745	1.61606	2.33661	9.58346	5.94145	3.63952	1.26941	2.21889	1.04172	2.30653	1.96430	2.99213	9.27935	6.28692	2.75110
78670	0.74040	1.17659	0.45084	2.41201	3.44753	1.93471	10.19851	6.25770	2.67343	0.92653	0.79487	1.18166	2.04730	2.16104	1.59701	9.69650	6.38007	4.58893
78830	1.05863	1.51160	1.34315	3.39414	2.94895	2.38662	9.52870	5.60247	2.75928	1.90916	2.25599	3.29386	2.23497	1.70356	1.62040	9.57323	7.05654	4.86621	24.78	6.0	0.00	7.52	0.01274	0.01289	0.01671	0.00773	0.00577	0.00632	0.00468	0.01265	0.01687	0.00673	0.00691	0.00891	0.01490	0.01097	0.01197	0.00215	0.00610	0.00861
78990	0.79517	1.54276	0.50725	3.34400	3.18032	2.45068	9.52056	6.01307	3.22260	1.47589	1.39872	1.06338	2.48855	1.82424	1.75180	9.26929	5.81302	3.17278
79160	0.61987	0.66711	0.78560	2.71541	3.00095	4.01463	9.57937	5.82852	2.93260	3.59707	2.95600	0.83406	2.26046	1.84532	1.63235	9.65831	8.04796	4.68157
79320	0.80375	0.66635	0.72463	3.72061	2.19272	2.44499	10.14468	6.33096	2.75168	1.30202	1.03968	0.40628	2.26150	1.77806	1.60978	9.13274	5.46033	2.85108
79480	0.35399	0.43095	0.24652	2.41657	2.42816	1.67946	9.23966	5.48023	2.53480	1.12202	1.01350	1.10762	1.96695	1.48793	1.14102	10.10022	6.12649	3.72952
79650	0.53401	0.41510	0.68861	2.90445	3.00447	3.26895	9.77221	5.66174	2.82982	2.41569	1.92916	3.90548	2.33703	1.71231	1.37628	11.34795	7.07873	5.15260
79810	0.71192	0.98341	1.09233	4.37558	5.07716	4.68169	11.39358	7.00314	3.86952	1.88107	1.40105	1.60145	3.22857	2.19705	1.60285	11.06256	7.23230	3.27863
79970	0.57665	0.85102	0.52865	2.30825	2.32221	1.93344	9.56104	5.73953	2.76696	2.15238	1.05482	2.16770	2.42158	1.92571	1.33627	10.47261	7.62688	4.30501
80140	0.93032	1.46964	1.08832	4.77133	3.48504	2.93500	9.76856	6.19140	3.31286	3.00289	3.91083	4.41491	3.16795	2.02953	1.89341	14.17231	8.95062	6.51759
80300	2.15334	2.05519	1.16227	3.51180	4.55493	4.86120	9.72626	6.13772	3.05924	2.35314	2.37205	1.46525	2.42183	1.67392	1.38967	11.51937	7.49560	5.02228
80470	0.71122	0.92552	0.67793	7.05175	4.86881	4.51980	9.78955	7.88893	4.11092	4.90710	3.16015	2.53806	2.88191	2.27890	1.99977	10.50995	7.21918	3.54191	24.78	6.2	0.00	7.14	0.01274	0.01289	0.01671	0.00773	0.00576	0.00632	0.00468	0.01266	0.01687	0.00673	0.00690	0.00891	0.01490	0.01097	0.01197	0.00215	0.00610	0.00861
80630	1.71092	0.98820	0.73373	2.83532	3.84193	3.39157	9.63080	6.19587	2.52686	2.30804	1.87606	2.09620	1.98820	1.59825	1.29661	9.39099	6.30203	3.50696
80800	0.70864	0.81805	0.70850	2.91505	4.09274	3.86650	9.45692	5.73651	2.88783	2.55079	3.75715	1.48175	2.29267	2.00028	1.55481	11.56572	7.66698	4.51715
80960	0.76937	0.81571	0.92829	4.44800	3.07974	3.45759	10.06250	6.05005	4.59895	6.67144	5.60196	2.73338	3.87602	2.29440	2.70487	12.43886	12.20506	6.70287
81120	2.31945	2.23685	1.27370	6.03945	5.02667	2.63221	10.72138	7.60625	4.98927	2.31477	4.20760	2.78573	5.04288	4.16911	2.87478	11.28494	6.26169	6.56048
81290	1.32959	0.84453	0.74419	7.27691	4.84213	5.28616	9.79565	5.92662	7.01834	3.36475	2.56518	3.70907	3.70111	3.86969	3.40225	11.91840	7.39014	7.74996
81450	2.16741	1.61967	1.53755	2.47161	3.00556	4.07981	10.23641	6.33874	3.69036	1.20889	3.01718	2.16663	2.91942	2.37677	2.09470	11.96040	8.40896	5.19529
81620	1.08924	1.00604	0.64075	3.22016	2.71482	2.61336	9.41368	5.88915	2.83376	1.74154	0.78343	1.51837	2.59331	2.17952	1.28614	9.29574	6.19414	2.91954
81780	0.66750	0.79669	0.65249	3.05334	2.52451	2.75243	9.47956	5.60509	2.91608	2.24383	1.70041	2.56089	2.13039	1.65107	1.27531	10.63862	6.53456	6.41617
81940	1.52572	1.64828	1.97668	4.00507	3.87753	5.17714	12.52349	6.83232	3.51674	5.00315	5.24746	7.23836	4.22395	2.71564	2.09230	11.63326	9.18886	9.24454
82110	1.60029	1.35072	1.48997	5.69330	3.79560	3.09477	12.66569	6.79212	3.37130	2.62208	5.18426	3.24090	2.86384	2.18315	2.78686	13.51095	10.26593	7.27446	24.72	6.3	0.00	5.61	0.01274	0.01289	0.01671	0.00773	0.00576	0.00632	0.00468	0.01265	0.01687	0.00673	0.00690	0.00891	0.01490	0.01096	0.01197	0.00215	0.00610	0.00860
82270	1.62598	1.27990	0.88892	6.94678	3.75794	3.32097	9.43898	6.00294	2.94415	0.98948	1.24683	2.64245	2.16821	1.80216	1.43541	13.69335	10.30914	6.53113
82440	1.20660	0.98621	1.50371	4.28682	3.49164	2.76139	10.48915	6.91040	4.62772	2.10755	3.12452	3.33627	2.38960	1.56862	2.21645	9.63979	7.48044	5.93733
82600	1.84671	2.08744	1.16302	5.64449	2.01302	1.64774	11.22149	7.06580	3.76522	3.30580	3.96977	1.08576	2.04908	1.76454	1.45246	9.59705	6.25353	4.34503
82760	1.30527	0.83578	0.70210	5.28262	4.45250	2.64555	9.57778	7.35227	3.24283	2.17954	1.65820	2.88922	2.50597	1.71371	1.74095	9.50918	6.32473	3.41208
82930	1.38441	1.69225	1.03286	4.45357	2.71076	1.85974	9.93071	5.80666	2.85659	2.12484	1.77236	1.44167	2.34211	1.86963	1.72489	12.02053	7.17818	3.98225
83090	1.95323	2.21849	1.43121	2.96560	2.97686	3.05585	9.41508	5.77840	3.26929	1.85604	2.72509	2.21359	3.07275	2.25560	1.36040	10.13574	7.59859	4.52120
83250	0.85607	0.94214	0.73445	5.15571	3.08893	2.66126	10.10606	7.21752	3.77119	2.39005	4.19345	3.04623	2.40239	2.48639	1.88365	11.77222	6.05372	3.14779
83420	0.80627	0.88336	0.50938	2.70263	2.27347	2.22222	9.79947	6.00167	2.97676	3.31643	2.52007	3.08133	2.07380	2.11241	1.39427	12.13695	6.27902	4.27083
83580	0.75551	0.70391	0.47254	3.94838	3.37160	3.93689	9.38743	5.84344	2.90236	4.46562	3.67145	3.04823	2.45433	2.22115	2.00496	10.05462	5.51898	2.97040
83750	1.70882	1.39898	2.29182	3.96915	3.25120	1.56708	9.75357	5.97091	3.07441	1.96098	1.31458	1.58640	3.54363	2.05675	2.92939	10.67647	7.79769	4.36858	24.78	6.1	0.00	7.12	0.01274	0.01289	0.01671	0.00773	0.00576	0.00632	0.00468	0.01265	0.01687	0.00673	0.00690	0.00891	0.01490	0.01096	0.01197	0.00215	0.00610	0.00860
83910	1.85148	1.50784	1.44199	3.04497	3.08519	3.45950	10.42778	7.07696	3.30446	2.01994	1.54063	1.35020	2.14854	1.69441	1.56168	10.47487	5.86801	4.04685
84070	1.47659	1.22164	0.53515	2.37996	2.36394	3.52976	9.34888	5.79881	3.52647	1.64610	3.26329	2.16317	2.27363	1.76296	1.53897	10.30874	5.85880	5.15975
84240	0.63284	0.64950	0.47079	2.81663	2.88533	4.75723	9.25952	5.58407	2.54121	3.48668	1.73370	0.80557	1.99934	1.72263	1.58046	9.78410	7.65303	4.51334
84400	1.62140	1.02487	1.41598	4.20221	3.28409	3.09424	9.99223	5.73607	2.60929	3.63840	2.55955	2.16248	2.31491	2.23237	2.20290	9.69999	7.91138	4.64455
84570	1.43245	1.42753	1.18741	8.12625	5.37387	2.85716	9.53278	5.50199	2.72763	1.49785	2.13649	1.61995	2.23055	2.39089	1.65991	12.01583	9.02253	5.98062
84730	0.89259	0.99287	0.53085	6.15788	3.00773	2.48735	9.56817	5.51317	2.51509	2.90163	4.13137	1.87173	2.23048	1.63471	1.78202	10.88133	5.99692	4.74058
84900	0.55514	0.61217	0.85824	3.63581	3.10269	2.23215	9.33593	6.21522	3.34099	3.02350	2.11474	2.34782	1.95548	1.42647	1.17445	8.73355	5.35720	2.44189
85060	0.39488	0.30067	0.45481	2.18181	1.64854	1.29542	9.20157	5.58859	2.47261	0.44373	0.43601	0.60187	1.86964	1.61307	1.15411	9.73312	6.09504	3.45334
85230	0.41864	0.36411	0.18206	2.38759	1.87101	1.78651	9.24963	5.47786	2.65740	0.88543	0.71134	1.40956	1.95843	1.53972	2.02244	9.31749	5.83225	2.85950
85390	0.47203	0.46054	0.93991	2.21612	1.65467	1.44235	9.71186	5.59708	2.47488	2.10319	1.64605	2.31244	2.05713	1.51910	1.74384	9.37116	6.08752	2.90366	24.78	6.1	0.00	7.23	0.01274	0.01289	0.01671	0.00773	0.00576	0.00632	0.00468	0.01265	0.01687	0.00673	0.00691	0.00891	0.01490	0.01096	0.01197	0.00215	0.00610	0.00860
85560	0.88183	0.62452	0.53165	2.01621	1.86223	1.67481	9.67469	5.54318	2.63337	0.70220	0.65374	0.70464	1.92187	1.69048	1.44737	8.93214	5.70318	3.36483
85720	0.57603	0.39792	0.34421	2.50239	2.24544	1.37206	9.31551	5.51237	2.68924	1.23085	0.76197	0.49512	1.92506	1.56477	1.10344	9.03671	5.49593	2.78380
85880	0.46275	0.49582	0.23635	2.12860	1.88044	1.44764	9.30818	5.61129	2.55846	1.57199	2.15686	1.71415	1.91792	1.47543	1.26804	9.45691	7.21273	3.83161
86050	0.43845	0.60214	0.48287	2.58965	2.25805	2.59098	9.34857	5.99439	2.87078	1.44680	1.02334	0.73869	2.65006	2.53036	2.42558	9.37638	6.20190	4.00219
86210	1.68828	1.16953	1.18011	2.86308	2.20947	2.04713	10.77982	7.22274	3.33428	2.20861	1.15401	1.37989	3.47791	1.63506	1.52951	9.56922	7.49567	4.00451
86380	0.47553	0.49898	0.22529	2.96917	3.31991	2.56023	9.22465	5.45847	2.90901	1.41774	2.18217	1.30016	2.24477	1.66339	1.25403	10.33885	6.65065	3.46887
86540	0.98277	0.87670	0.92327	3.30938	2.98501	1.99358	9.26071	5.42427	2.61717	1.27216	1.15549	2.07775	2.20559	1.69023	1.14883	9.04625	5.73830	3.17693
86710	0.46585	0.96909	0.86387	2.37271	2.83012	2.05453	9.64854	6.00551	2.88106	1.98442	1.62246	0.65440	2.37032	1.54786	1.16478	9.19241	5.77590	3.88073
86870	0.50780	0.47471	0.59132	3.07549	2.47173	2.35780	9.20368	5.41228	2.72088	1.67745	1.15945	1.26508	2.35707	1.74452	1.96664	9.21705	6.02985	3.93569
87040	0.84235	0.72390	0.55063	2.92253	2.96672	1.84087	9.60346	5.94692	3.24725	1.10041	1.12437	0.87799	2.41910	1.66905	1.27665	8.97464	7.04515	4.51010	24.78	6.0	0.00	7.22	0.01274	0.01289	0.01671	0.00773	0.00576	0.00632	0.00468	0.01265	0.01687	0.00673	0.00690	0.00891	0.01490	0.01096	0.01197	0.00215	0.00610	0.00860
87200	0.81708	0.89220	0.59132	2.84432	2.26539	1.97468	9.60292	5.82924	3.05190	1.70323	4.18768	1.78871	2.31010	2.10836	1.53080	11.39948	7.48377	5.04228
87370	0.99896	0.49440	0.46254	3.25327	4.31912	2.18968	9.59466	5.93267	2.98701	2.38987	2.17322	1.28692	1.95670	1.76819	1.44529	13.65183	5.89010	3.87888
87530	0.54435	0.57374	0.44188	6.70611	3.08718	3.63725	9.98090	6.06736	2.68457	3.27965	1.60830	1.03253	2.21996	1.82469	1.78620	10.00467	6.48299	4.97568
87690	0.88175	0.60618	0.37553	5.24332	2.92403	2.42712	10.13342	6.16180	3.14721	3.38229	4.19700	2.88010	1.94863	1.75295	1.79566	12.87027	10.15603	5.94599
87860	0.95360	0.87144	0.49587	2.84864	3.59308	2.69409	9.40640	5.63287	2.70367	3.67917	1.41629	1.19596	1.99102	1.96256	1.41561	9.95307	6.92087	2.89352
88020	0.64822	0.44716	0.25220	2.45150	2.51101	2.61713	9.19375	5.58532	2.53016	2.24075	2.02074	1.42371	2.66759	2.20101	1.90640	9.30028	7.62661	4.58236
88190	1.21468	0.95007	1.01393	4.41286	3.03563	2.63065	10.13525	6.87818	2.93050	1.79315	1.96884	2.35572	2.20905	1.74544	1.63717	12.10195	8.25316	2.83409
88350	1.18844	1.07223	0.58157	3.00595	2.32713	3.49787	9.46436	5.85774	2.88467	1.94398	1.99395	1.22306	2.43244	2.05805	1.46873	8.97622	5.83357	3.07239
88520	0.42695	0.89656	0.48285	2.56536	2.48702	2.25452	9.79660	6.41236	3.15825	1.45493	1.22336	1.35561	2.03043	1.56003	1.34631	9.59386	6.60245	3.36436
88680	0.92932	1.52998	0.59616	5.15074	3.33622	1.41882	10.53470	6.67437	2.91988	1.57449	2.40747	2.37910	2.11773	2.15345	1.32273	9.52783	5.78459	4.27967	24.72	6.0	0.00	7.17	0.01274	0.01289	0.01670	0.00773	0.00576	0.00632	0.00468	0.01265	0.01686	0.00674	0.00690	0.00891	0.01490	0.01096	0.01197	0.00215	0.00610	0.00860
88850	0.58813	0.73001	0.31033	4.00829	2.36044	2.14974	9.40094	5.63618	2.59378	1.13938	1.46907	1.04773	2.00286	1.50007	1.23154	9.26284	5.29922	2.92816
89010	0.75172	0.72187	1.22943	2.12509	3.16265	7.59929	9.69092	6.05008	2.75659	4.65895	1.80461	1.86397	3.45579	1.79852	1.83609	13.53332	7.73843	5.62744
89170	0.96732	0.56398	0.99994	5.82857	2.45378	4.21388	10.15228	5.75442	4.14343	1.08874	1.45190	2.80747	2.00664	1.85843	1.55110	10.24542	8.23842	3.11788
89340	0.82599	0.71311	0.59788	3.60796	2.76181	4.06254	9.89775	6.84746	4.03433	4.19282	4.02659	4.39174	2.67737	2.87366	2.90832	9.99156	8.03627	6.88780
89500	0.82772	1.11174	1.12925	5.02972	3.67420	1.54316	10.52221	7.19719	3.81025	1.60596	2.63667	1.87028	2.63136	2.66018	2.18930	10.65859	6.46967	2.75976
89660	1.09328	0.70833	0.33968	2.97876	3.10802	3.07533	9.32473	5.94455	2.83245	1.55994	1.20383	0.72826	2.02596	1.82058	1.42730	9.59642	5.39002	2.71184
89830	0.51036	0.93108	1.16638	2.71995	2.50096	2.20570	9.63210	5.94202	2.71861	1.93773	1.82613	2.06382	2.06907	1.60610	1.95967	9.18042	5.51234	3.24038
89990	0.99257	0.86109	0.64313	2.75269	2.89379	2.32730	10.24562	6.88467	4.15942	1.81083	2.53377	2.97745	2.70277	2.25336	1.89235	9.97622	7.31578	4.86216
90150	1.19757	1.56941	1.13002	4.00233	3.21920	1.52023	10.00694	6.76867	3.73477	1.15461	2.68974	1.79862	2.43614	2.08576	1.90108	9.12028	6.53861	5.14029
90320	1.44865	1.32965	0.90316	4.93078	2.50176	2.45236	10.98375	7.30598	3.27067	1.83822	1.95649	4.00011	2.11636	1.48115	1.22061	10.90582	6.45778	5.69726	24.78	6.0	0.00	7.02	0.01274	0.01289	0.01670	0.00773	0.00576	0.00632	0.00468	0.01265	0.01686	0.00674	0.00691	0.00891	0.01490	0.01096	0.01197	0.00215	0.00610	0.00860
90480	0.43059	0.32477	0.33763	4.10019	3.39839	1.73406	9.33986	5.55290	2.90293	1.92353	1.83516	1.57353	2.21069	1.59247	1.46307	9.36376	6.76860	3.72165
90640	0.47406	0.64644	0.77270	3.53632	2.48106	1.47180	10.29506	5.79151	2.73614	1.61495	1.65171	1.72124	2.24938	2.01729	1.53942	9.03984	5.92635	2.95648
90810	0.43513	0.65856	0.36615	2.68785	1.91924	1.66274	9.81661	5.75784	3.01174	0.91823	1.50224	0.93447	2.05288	1.56063	1.33555	9.77223	8.22107	4.41888
90970	0.69987	0.57213	0.62501	3.43132	4.09933	3.96955	9.96046	6.31482	3.16607	2.46624	1.11582	2.34694	2.83415	1.64474	1.52693	9.45083	6.38590	3.86945
91140	1.57712	0.99693	1.01968	3.09927	2.01572	1.47246	11.13317	7.31469	3.86319	1.50573	0.80462	0.90098	2.16832	1.97333	1.95672	9.68384	5.79366	3.90060
91300	1.06344	1.49030	0.86524	2.65898	2.12177	1.65832	9.43433	5.80229	2.76987	0.78489	0.88327	0.40241	1.98243	1.74663	1.26933	8.61972	5.57917	2.88913
91470	0.86903	0.64702	0.48190	2.28044	1.60068	1.30118	9.45102	5.46208	2.55377	1.24846	0.77615	1.11681	2.23226	2.09352	2.16854	10.17930	6.37103	3.57014
91630	0.47452	0.72647	0.46747	3.29922	2.45482	2.94060	9.39552	5.64995	3.20944	0.68443	1.76153	1.29534	2.32576	1.86870	1.60375	10.39726	6.49478	3.59839
91790	1.53199	1.49881	0.96330	2.54433	2.36035	2.15789	10.12525	7.07207	4.54337	3.06225	1.51427	1.62609	2.28417	1.82510	1.78210	12.47212	6.48457	4.21573
91960	1.13682	0.98510	0.65790	2.62637	2.07419	1.98722	9.52030	5.99127	3.51081	2.36467	1.86610	0.98093	3.11490	2.44953	3.12147	11.78910	7.10618	9.56740	24.78	6.1	0.00	7.21	0.01274	0.01289	0.01670	0.00773	0.00577	0.00632	0.00468	0.01265	0.01686	0.00673	0.00691	0.00891	0.01490	0.01096	0.01197	0.00215	0.00610	0.00860
92120	1.53248	2.14346	1.67830	3.07104	2.64194	2.61897	9.76006	6.55874	3.26882	1.55491	1.55495	2.62644	2.86723	2.39259	2.28354	11.88482	7.04509	6.03421
92290	2.07907	0.94204	0.65032	3.96455	3.23556	2.07760	10.14991	6.68719	3.89195	4.02580	2.85140	2.58419	3.05722	1.78362	1.82689	9.72015	7.66987	5.37775
92450	0.96645	1.08304	0.84802	2.76367	3.31568	3.45840	9.57082	5.83721	2.93948	2.85748	1.58943	1.92279	2.60385	1.51293	1.28154	9.64807	6.39692	3.79112
92610	0.70336	0.57184	0.47247	2.45262	2.42855	2.24883	9.61379	5.56149	2.84533	1.20519	1.33830	1.15092	2.48888	1.74634	1.67276	9.99320	7.89409	4.94084
92780	0.65614	0.74501	0.73803	3.06657	2.45762	1.89274	9.27130	5.52402	2.88738	0.51905	0.56597	0.66273	1.81381	1.40611	1.10783	9.21906	5.64085	2.72784
92940	0.52823	0.31676	0.20777	2.08479	2.00535	1.65082	9.30178	5.47321	2.53313	0.91327	2.07884	1.42162	2.15250	1.51176	1.74267	8.79948	5.30929	2.91020
93110	0.71947	0.91532	0.58164	3.02298	3.42294	2.84595	9.97993	6.04641	2.89505	3.11233	1.67930	1.93261	2.45309	1.96947	1.73197	10.46521	7.39136	3.88511
93270	0.79158	0.81394	0.63969	2.89696	2.57806	2.19718	11.00448	6.92779	3.81291	1.44537	2.20294	2.20820	2.22405	1.90772	1.65172	11.51463	7.76987	5.32888
93430	0.97550	0.67888	1.00016	4.43346	3.58404	4.80866	9.69678	5.92310	2.86251	4.53992	2.49744	1.69290	3.00222	3.02234	1.37771	9.88464	6.43940	6.02995
93600	1.43167	1.25363	1.93618	4.28175	4.95482	2.38927	10.27408	5.87018	2.75488	1.84979	2.16304	3.25025	3.06671	2.07770	1.64003	9.55911	6.98690	3.84874	24.78	6.1	0.00	7.26	0.01274	0.01289	0.01670	0.00773	0.00577	0.00632	0.00468	0.01265	0.01686	0.00674	0.00691	0.00891	0.01490	0.01096	0.01197	0.00214	0.00610	0.00860
93760	1.51924	0.72709	0.56898	5.28757	4.20698	3.28703	11.68199	5.92287	4.59542	5.29118	2.14119	2.11509	2.15516	2.04490	2.36313	9.44284	6.49474	5.75797
93930	1.52786	1.16512	0.56208	4.08701	4.67009	2.81975	9.72973	6.43167	3.57155	1.54606	1.29844	1.86322	2.35544	2.02867	1.83342	8.91826	5.86582	2.96908
94090	0.46924	0.34356	0.35977	3.43886	1.96994	1.90424	9.43148	5.44998	2.44078	0.99231	1.55685	0.61451	1.86826	1.44521	1.15100	8.69735	5.59924	3.54026
94260	0.40489	0.32786	0.18281	2.06583	1.43274	1.07514	9.53473	5.61593	2.67679	0.76808	1.03700	0.58104	2.04313	1.45798	1.12371	9.12608	5.46160	2.88869
94420	0.49425	0.55259	0.69193	2.21328	1.82790	2.31225	9.57510	5.58670	2.47497	1.40959	1.27708	2.29478	2.17560	1.85180	1.17234	8.92993	6.99698	2.99023
94580	0.44418	0.43841	0.55726	2.35174	1.85355	2.13499	9.29083	5.63648	2.43314	2.08645	2.24752	2.05219	1.87209	1.44733	1.20162	9.15988	6.50645	3.43183
94750	1.87879	1.91969	0.66016	2.32139	2.05423	2.10865	9.63269	6.34588	2.76767	0.78810	0.93899	1.00695	2.15170	1.49056	1.14294	9.48252	6.68609	4.25977
94910	0.68593	0.84227	1.44366	2.97402	2.39711	1.61447	9.61797	6.97431	3.40467	1.36837	0.74015	1.82512	2.15010	2.41236	1.31021	10.64244	7.03277	4.79959
95080	0.37609	0.46487	0.25270	2.78606	2.81725	2.47028	9.32265	5.57606	2.87170	1.54152	0.94838	0.93531	1.95621	1.87759	1.19001	8.85882	5.80328	3.17606
95240	0.62776	0.77097	0.48816	2.37263	1.71119	1.52548	9.31693	5.56541	2.65215	0.57687	1.37237	0.62431	2.31262	1.65468	1.14930	9.75783	6.19703	4.36511	24.72	6.2	0.00	7.27	0.01274	0.01289	0.01670	0.00773	0.00577	0.00632	0.00468	0.01265	0.01686	0.00674	0.00691	0.00891	0.01490	0.01096	0.01197	0.00214	0.00610	0.00860
95400	0.51976	0.42659	0.38983	3.87929	2.77606	1.46652	9.25077	5.71301	2.61962	2.11792	2.56743	2.36674	2.10604	1.53728	1.20100	9.33087	6.10949	3.82690
95570	0.62824	0.91703	0.39881	2.24683	2.22694	2.67588	9.38512	6.20964	3.27260	1.87577	1.47731	2.09146	2.20808	1.82058	1.56705	9.62583	6.47310	4.38630
95730	1.03920	0.98906	0.79413	3.75968	3.09146	3.14387	9.85258	5.85639	2.85087	2.13709	2.70217	2.40878	2.94459	2.39542	1.79719	9.59476	7.54965	4.42884
95900	1.66889	1.61003	1.08972	4.01204	4.42914	2.85983	10.27352	6.11998	2.57479	1.94468	2.06872	2.08975	1.97979	1.43597	1.10576	9.63388	6.92841	4.76837
96060	0.47042	0.59908	0.35073	3.39935	4.06529	2.17677	9.91933	6.32221	2.81928	2.92279	1.81370	1.65369	2.09862	2.11803	1.85688	8.83717	5.46388	3.20791
96230	0.46749	0.35371	0.29325	2.65630	2.46380	2.67486	9.45666	5.62290	2.50295	0.73855	0.83025	1.09614	2.26774	1.64912	1.36809	9.38644	5.88067	3.84601
96390	1.22364	1.08957	0.99314	3.02398	3.08363	1.64772	10.46964	6.39931	2.98650	0.65799	0.89050	0.86461	2.84393	2.26271	2.06097	8.92335	5.34632	2.50995
96560	1.22542	0.99469	0.63657	1.86913	2.12620	1.20816	10.25873	5.51832	2.43885	0.78034	0.83337	1.18833	1.85122	1.57244	1.29695	8.64751	5.89935	3.10116
96720	0.90755	0.69654	0.50467	2.11143	1.76596	1.85057	9.33716	5.40651	2.49319	0.41752	0.79671	0.90349	1.94161	1.42546	1.21228	9.08008	5.47965	3.36027
96880	0.41709	0.66250	0.96856	2.35718	2.25019	1.81373	9.56914	5.59189	2.83396	0.62515	0.84818	1.11365	2.62893	1.86109	1.47085	9.75622	6.75532	4.25722	24.78	6.0	0.00	7.18	0.01274	0.01289	0.01670	0.00773	0.00576	0.00631	0.00468	0.01265	0.01686	0.00674	0.00691	0.00891	0.01490	0.01096	0.01197	0.00214	0.00610	0.00860
97050	0.68062	1.17585	0.65287	2.35667	3.47317	3.55940	9.81515	6.00982	2.87907	2.21980	1.96610	2.43310	2.26842	2.02464	1.78163	9.36688	6.51988	4.91104
97210	0.98075	0.97919	0.74234	3.69392	3.29310	2.41806	10.14429	6.08464	3.44756	2.25757	1.51461	1.72752	2.03163	2.02974	1.45261	10.77525	6.11414	3.01713
97380	0.73059	0.46055	0.27102	3.89819	4.40176	2.69058	9.44914	5.89792	2.50958	0.82282	0.91782	1.33562	2.00284	1.60407	1.56571	11.33539	6.28983	3.40545
97540	0.85756	0.65725	0.46608	4.28535	4.15255	5.34379	9.40587	6.34215	3.10456	3.44936	2.53113	2.20914	2.38988	1.86477	1.42182	10.02967	9.06255	3.34579
97700	0.97120	0.94548	0.80085	3.05021	2.69919	2.21802	9.73531	5.79542	3.55991	1.64260	3.41227	2.41592	4.08206	2.59768	1.97995	12.40174	8.99202	4.25759
97870	2.48079	0.95491	2.05582	4.54627	4.67022	4.78171	10.27420	6.93724	4.48563	3.38222	2.94064	1.96656	2.75008	3.22038	1.98472	10.14551	7.63876	4.49346
98030	0.89273	1.09267	0.68037	3.53090	3.25553	3.65857	9.64598	5.97132	2.83131	2.51421	3.52372	2.03162	1.93312	1.77304	1.67660	12.24025	8.90099	6.56082
98190	1.29441	1.12217	0.97808	5.29610	3.83745	3.80211	10.56715	5.89522	3.81660	3.30544	2.61764	2.18610	2.20835	2.35342	1.68630	11.64518	6.08433	4.04102
98360	0.79220	1.15374	0.68704	3.75149	2.31831	3.15543	9.88645	5.91013	3.23161	1.65287	1.94866	1.10587	1.97782	1.58583	1.22527	8.77886	5.42861	2.52502
98520	0.46570	0.78307	0.23589	2.16190	1.73878	1.36942	9.85107	5.69288	2.43080	1.00874	1.08005	0.54373	2.00464	1.60898	1.43062	8.74377	5.52097	3.40143	24.78	6.0	0.00	7.18	0.01274	0.01289	0.01670	0.00773	0.00576	0.00632	0.00468	0.01265	0.01686	0.00674	0.00691	0.00892	0.01490	0.01096	0.01197	0.00215	0.00610	0.00860
98690	0.77594	0.80881	0.84735	2.49649	2.89734	2.43863	10.21703	6.16191	2.95304	2.05758	2.31816	1.05468	2.37212	1.53595	1.15516	10.00289	6.20027	2.90008
98850	0.46717	0.53142	0.30554	2.99747	2.06037	2.95491	9.48365	5.57966	2.83224	1.93446	1.85997	1.39301	3.28815	2.62592	2.32598	9.60840	5.88162	4.05614
99010	1.51551	1.15981	1.31738	2.34172	1.95490	1.75526	9.99714	6.17241	2.65895	1.27181	1.20279	0.74841	2.55156	2.67398	2.03236	8.88177	5.23898	3.26494
99180	1.08191	1.14950	0.70178	1.91129	1.80741	1.76818	9.41751	6.21606	2.93007	2.18756	1.43833	1.30968	2.19121	1.93603	1.56873	10.52935	5.60688	7.18154
99340	0.88292	0.63724	0.77938	2.64813	2.35884	4.71479	9.59036	5.57178	2.95897	2.54947	2.03100	1.61224	2.20809	1.93788	1.61519	9.30902	5.16142	2.87248
99510	0.73717	0.84280	0.85449	3.07711	4.32371	3.74203	10.87921	6.23177	3.11400	1.65828	1.66091	0.80980	2.23885	1.78575	1.34726	9.06246	5.98717	4.52463
99670	0.66564	1.17242	0.84559	3.07221	2.38198	2.17576	10.62564	5.90463	2.78490	0.85665	0.90568	1.17504	3.01036	2.32941	1.87922	8.89810	5.82950	3.07377
99830	1.08766	0.80086	0.63947	2.24839	1.89542	1.78933	9.42869	5.71782	2.88158	2.23418	1.75452	0.98350	2.37305	1.41705	1.06586	10.71148	7.35425	4.71130
100000	0.48237	0.47229	0.31430	2.31113	1.84364	1.50267	9.21042	5.67232	2.87378	0.73861	0.77380	0.46391	1.92739	1.39717	1.07292	8.79373	5.82818	2.85070
100160	0.33935	0.30236	0.20939	2.22625	2.36686	1.41945	9.15134	5.45980	2.55255	0.65624	0.75335	0.43925	1.86824	1.35096	1.01484	8.76573	5.56311	2.84873	24.78	6.0	0.00	7.17	0.01274	0.01289	0.01670	0.00773	0.00577	0.00632	0.00467	0.01265	0.01686	0.00674	0.00691	0.00892	0.01490	0.01096	0.01197	0.00215	0.00610	0.00860
100330	0.35317	0.28928	0.17793	1.99651	1.43266	1.16416	9.26727	5.52119	2.63730	0.56711	0.44977	0.44803	2.28020	1.75559	1.41361	8.74762	5.13494	2.59081
100490	0.68570	0.81990	0.55749	1.93378	1.68330	1.37470	9.40246	5.68811	2.85666	0.87071	0.57251	0.28292	2.10322	1.42560	1.12166	8.82285	5.60443	2.49916
100660	0.38990	0.47207	0.25823	2.44459	1.46909	1.43770	9.40862	5.53215	2.54724	1.11360	1.20275	1.00992	2.24727	1.45996	1.35187	9.20768	5.63215	3.19190
100820	0.48258	0.45038	0.72859	2.05037	1.85713	1.20201	9.80356	6.63039	3.18259	0.94835	1.10938	1.20974	1.98356	1.77626	1.39553	8.85452	5.50542	2.86354
100990	0.80416	0.74822	0.31697	2.88096	2.14461	2.02649	9.42362	5.64491	2.50819	1.24561	1.65472	1.20494	2.25979	1.94778	1.46469	9.01879	5.92291	2.98457
101150	0.43717	0.33100	0.71483	3.11230	2.36715	1.42399	9.59234	6.12012	2.63500	0.94679	1.47733	1.13485	2.23210	1.88754	1.91553	8.84662	5.35802	3.01932
101310	1.21793	1.29617	0.71201	3.24270	2.40291	1.56800	10.08698	6.49714	3.16560	1.23866	1.52846	1.66103	2.23446	1.94341	1.46813	10.83384	6.14223	2.99635
101480	0.66235	0.53727	0.46767	4.24215	3.24543	3.81904	9.61932	5.84029	2.71859	1.52511	1.99568	1.66411	2.51295	2.38563	1.65717	9.34656	6.38159	3.74039
101640	0.75873	0.80077	0.35639	2.47799	1.92101	2.14350	9.49007	6.12955	2.54915	1.26946	2.84687	1.59400	2.27430	1.68444	1.50210	9.81739	6.44289	3.41300
101810	1.44593	1.71175	1.40304	2.99710	2.12757	2.34381	10.53909	6.02355	3.14224	1.52457	1.63734	1.31177	3.65675	2.26213	1.65079	8.63649	5.13048	3.11456	24.78	6.1	0.00	7.21	0.01274	0.01289	0.01670	0.00773	0.00577	0.00632	0.00467	0.01265	0.01686	0.00674	0.00691	0.00892	0.01490	0.01096	0.01197	0.00214	0.00610	0.00861
101970	0.56257	0.76253	0.72217	2.37704	2.51675	1.60988	9.31382	5.73311	2.77445	1.35971	1.75328	1.80274	1.94285	1.50811	1.47309	10.14938	5.91163	3.08765
102130	0.85045	1.19219	1.49092	2.93190	2.12577	2.54280	9.57300	5.84116	2.97122	2.29658	1.38492	0.95255	2.12644	1.71227	1.33478	11.31422	6.52121	4.00927
102300	0.86732	0.52079	0.35279	2.71805	3.48678	3.54808	9.62957	6.41480	3.97819	2.62276	2.44444	1.13410	2.67278	1.98779	1.27044	10.32481	6.47407	3.42209
102460	1.13598	0.94587	1.73967	3.19172	3.05874	2.50187	9.46377	6.03702	3.72580	1.71363	1.42420	0.90331	2.95013	2.60966	1.60395	8.78729	5.74123	3.75509
102620	0.55874	0.68516	0.70291	2.67036	1.81596	2.01731	9.52804	6.13264	2.68474	1.98096	0.48298	0.32712	2.08086	1.45129	1.27978	8.78026	5.71691	3.51041
102790	0.64365	0.93864	0.54176	2.70364	1.97429	1.73599	9.34496	5.76490	2.82539	1.31521	0.87699	0.56608	3.48355	1.95653	1.73934	9.88824	6.58565	4.28560
102950	1.98740	1.61855	0.99455	3.36581	2.75116	1.71761	9.34245	5.73464	2.63820	2.31649	1.75719	0.63581	2.41250	1.84169	1.44091	8.51581	5.26049	2.53766
