WetView ver 7.1	07-17-2019	11:02:26
AC9 Absorption and Attenuation Meter
00000311		; Serial number
2	; structure version number
Reserved
0.000000	0.000000		; Depth calibration
19200			; Baud rate
0.100000			; Path length (meters)
23			; number of temperature calibration bins
				12.61517	13.44096	14.46844	15.49904	16.50682	17.50108	18.49752	19.51783	20.49177	21.49009	22.48286	23.50673	24.54012	25.54812	26.49986	27.49321	28.50960	29.48671	30.47471	31.49432	32.50437	33.48679	34.49133	; temperature bins
a650	Blue	18.61587		0.01156	0.01096	0.01010	0.00930	0.00851	0.00774	0.00661	0.00573	0.00499	0.00402	0.00285	0.00203	0.00096	0.00000	-0.00110	-0.00152	-0.00210	-0.00247	-0.00259	-0.00317	-0.00346	-0.00380	-0.00403		; offset and temperature correction info
a676	Green	18.78942		0.00964	0.00899	0.00863	0.00813	0.00730	0.00639	0.00545	0.00448	0.00385	0.00301	0.00233	0.00165	0.00046	0.00000	-0.00106	-0.00167	-0.00251	-0.00280	-0.00316	-0.00329	-0.00377	-0.00392	-0.00441		; offset and temperature correction info
a715	Brown	18.59217		0.01171	0.01109	0.01043	0.00975	0.00878	0.00789	0.00685	0.00572	0.00469	0.00356	0.00255	0.00160	0.00061	0.00000	-0.00063	-0.00113	-0.00152	-0.00183	-0.00226	-0.00293	-0.00364	-0.00404	-0.00473		; offset and temperature correction info
c510	Red	18.18396		-0.00549	-0.00480	-0.00383	-0.00272	-0.00202	-0.00118	-0.00044	-0.00038	-0.00015	-0.00021	0.00013	0.00007	-0.00007	0.00000	-0.00007	-0.00065	-0.00045	-0.00018	0.00007	0.00039	-0.00001	-0.00002	-0.00045		; offset and temperature correction info
c532	Magenta	18.26528		-0.00721	-0.00645	-0.00581	-0.00518	-0.00465	-0.00345	-0.00281	-0.00270	-0.00182	-0.00141	-0.00108	-0.00072	-0.00022	0.00000	0.00044	0.00030	0.00031	-0.00006	-0.00052	-0.00089	-0.00142	-0.00149	-0.00154		; offset and temperature correction info
c555	Black	18.37125		-0.00430	-0.00419	-0.00381	-0.00319	-0.00286	-0.00254	-0.00205	-0.00196	-0.00138	-0.00137	-0.00067	-0.00051	-0.00030	0.00000	0.00067	0.00087	0.00057	0.00027	-0.00015	-0.00089	-0.00127	-0.00137	-0.00150		; offset and temperature correction info
a412	LtBlue	15.33566		-0.06011	-0.05567	-0.05012	-0.04441	-0.03922	-0.03412	-0.02941	-0.02503	-0.02049	-0.01588	-0.01121	-0.00784	-0.00311	0.00000	0.00273	0.00611	0.00757	0.00871	0.01066	0.01299	0.01539	0.01781	0.02175		; offset and temperature correction info
a440	LtGreen	16.05925		-0.01380	-0.01214	-0.01039	-0.00858	-0.00690	-0.00532	-0.00426	-0.00322	-0.00230	-0.00158	-0.00055	0.00006	0.00001	0.00000	0.00017	0.00016	-0.00094	-0.00222	-0.00363	-0.00486	-0.00567	-0.00651	-0.00782		; offset and temperature correction info
a488	Yellow	16.82827		0.00255	0.00293	0.00331	0.00354	0.00373	0.00378	0.00363	0.00350	0.00291	0.00225	0.00215	0.00142	0.00099	0.00000	-0.00092	-0.00169	-0.00295	-0.00396	-0.00479	-0.00542	-0.00582	-0.00604	-0.00663		; offset and temperature correction info
c650	Blue	18.49287		-0.00570	-0.00516	-0.00456	-0.00403	-0.00346	-0.00232	-0.00132	-0.00122	-0.00073	-0.00066	-0.00035	-0.00016	0.00003	0.00000	0.00044	0.00078	0.00108	0.00057	0.00040	-0.00042	-0.00033	-0.00029	-0.00034		; offset and temperature correction info
c676	Green	18.50570		0.00299	0.00293	0.00287	0.00293	0.00278	0.00294	0.00317	0.00251	0.00243	0.00215	0.00139	0.00123	0.00068	0.00000	-0.00041	-0.00106	-0.00205	-0.00268	-0.00325	-0.00413	-0.00495	-0.00610	-0.00674		; offset and temperature correction info
c715	Brown	17.88888		0.00826	0.00812	0.00773	0.00790	0.00766	0.00758	0.00753	0.00650	0.00571	0.00461	0.00359	0.00222	0.00101	0.00000	-0.00146	-0.00284	-0.00385	-0.00448	-0.00463	-0.00513	-0.00623	-0.00715	-0.00838		; offset and temperature correction info
a510	Red	17.18050		0.00353	0.00364	0.00354	0.00361	0.00381	0.00381	0.00356	0.00332	0.00277	0.00229	0.00176	0.00116	0.00036	0.00000	-0.00014	-0.00069	-0.00088	-0.00147	-0.00150	-0.00129	-0.00120	-0.00134	-0.00091		; offset and temperature correction info
a532	Magenta	17.40228		0.00550	0.00548	0.00526	0.00479	0.00464	0.00422	0.00393	0.00328	0.00253	0.00212	0.00136	0.00085	0.00039	0.00000	-0.00059	-0.00146	-0.00188	-0.00262	-0.00330	-0.00393	-0.00491	-0.00540	-0.00605		; offset and temperature correction info
a555	Black	17.72308		0.00849	0.00832	0.00800	0.00760	0.00724	0.00655	0.00580	0.00495	0.00435	0.00347	0.00252	0.00153	0.00049	0.00000	-0.00050	-0.00155	-0.00214	-0.00306	-0.00350	-0.00411	-0.00470	-0.00539	-0.00570		; offset and temperature correction info
c412	LtBlue	16.72802		-0.05949	-0.05458	-0.04744	-0.04134	-0.03547	-0.03064	-0.02511	-0.02047	-0.01574	-0.01163	-0.00761	-0.00442	-0.00204	0.00000	0.00100	0.00051	-0.00043	-0.00239	-0.00475	-0.00629	-0.00827	-0.00955	-0.01337		; offset and temperature correction info
c440	LtGreen	17.42637		-0.02723	-0.02503	-0.02216	-0.01930	-0.01691	-0.01394	-0.01125	-0.00926	-0.00732	-0.00582	-0.00401	-0.00226	-0.00093	0.00000	0.00082	0.00123	0.00133	0.00097	0.00038	-0.00003	-0.00022	-0.00023	-0.00125		; offset and temperature correction info
c488	Yellow	18.03666		-0.00640	-0.00554	-0.00465	-0.00357	-0.00276	-0.00154	-0.00067	-0.00031	-0.00014	-0.00012	0.00046	0.00032	0.00020	0.00000	0.00001	-0.00024	-0.00060	-0.00084	-0.00126	-0.00180	-0.00276	-0.00304	-0.00427		; offset and temperature correction info
0.003500	0.004000	0.015000	0.020000	0.015000	0.020000	2500.000000	2000.000000	1000.000000	; maxANoise	maxCNoise	maxADifference	maxCDifference	minACounts	minCCounts	minRCounts	maxTempSdev	maxDepthSdev
0			; auxilliary capabilities
1			; acquisition binsize
0	2.22231	2.37843	1.96193	12.02133	11.61855	11.25124	7.00582	5.21343	3.65809	10.15595	9.99422	9.68926	3.22245	2.87264	2.60151	15.79310	13.99407	12.46217	34.94	6.2	0.00	-2.04	0.01729	0.01198	0.01516	0.01828	0.01890	0.01478	0.00545	0.01512	0.02002	0.01859	0.01288	0.01641	0.01703	0.01760	0.01375	0.00574	0.01614	0.02149
160	2.20419	2.36233	1.94776	12.03074	11.62689	11.25775	6.98921	5.19098	3.64398	10.16133	10.00162	9.69332	3.20604	2.86015	2.58793	15.79716	14.00020	12.47175
330	2.19340	2.35537	1.94014	12.03940	11.63501	11.26538	6.97771	5.18419	3.64153	10.16932	10.00621	9.70127	3.21003	2.86979	2.59914	15.81407	14.01129	12.47738
490	2.20411	2.36440	1.94848	12.04465	11.63808	11.26835	6.99501	5.19601	3.64999	10.17196	10.01180	9.70474	3.21099	2.86728	2.59706	15.81709	14.01061	12.48008
660	2.20224	2.36237	1.94943	12.04554	11.64151	11.26917	6.99425	5.19750	3.64699	10.17332	10.01451	9.70692	3.21236	2.86726	2.59482	15.81246	14.01365	12.47992
820	2.20128	2.35826	1.94647	12.04697	11.64244	11.27422	6.97320	5.19223	3.64795	10.17592	10.01477	9.70916	3.21057	2.86551	2.59564	15.81776	14.01098	12.47843
990	2.20248	2.36182	1.94673	12.05018	11.64657	11.27633	6.98793	5.19099	3.64530	10.17986	10.01991	9.71340	3.20939	2.86664	2.59335	15.82362	14.01943	12.48581
1150	2.19927	2.35887	1.94274	12.05336	11.64744	11.27738	6.97691	5.18473	3.64002	10.17975	10.02003	9.71377	3.20684	2.86223	2.59224	15.82201	14.02371	12.49071
1320	2.19928	2.35846	1.94205	12.05645	11.65394	11.28109	6.96846	5.18568	3.63878	10.18570	10.02577	9.71874	3.20492	2.86212	2.59006	15.82485	14.02494	12.49119
1480	2.19857	2.35732	1.94292	12.05859	11.65586	11.28478	6.97852	5.19037	3.64183	10.18753	10.02655	9.72057	3.20655	2.86389	2.59030	15.82911	14.02602	12.49079
1650	2.20628	2.36450	1.95035	12.05654	11.65363	11.28435	6.98865	5.19507	3.65428	10.18767	10.02705	9.72099	3.21488	2.87223	2.59768	15.83475	14.02463	12.49090	34.88	6.2	0.00	-2.04	0.01730	0.01198	0.01516	0.01827	0.01890	0.01477	0.00546	0.01513	0.02003	0.01858	0.01288	0.01641	0.01704	0.01761	0.01376	0.00574	0.01614	0.02148
1810	2.20577	2.36385	1.94786	12.05525	11.65103	11.28235	6.98922	5.19544	3.65066	10.18423	10.02489	9.71868	3.21177	2.86850	2.59651	15.81496	14.02003	12.48808
1980	2.20182	2.36249	1.94566	12.05529	11.65280	11.28314	6.97726	5.19329	3.64510	10.18756	10.02784	9.72109	3.21289	2.87125	2.59696	15.82831	14.02534	12.49348
2150	2.20366	2.36215	1.94879	12.05962	11.65752	11.28852	6.98433	5.19531	3.64736	10.19096	10.03002	9.72550	3.21566	2.87352	2.60281	15.83285	14.03136	12.49940
2310	2.20585	2.36578	1.95227	12.06436	11.66275	11.29365	6.98362	5.20067	3.65415	10.19525	10.03777	9.72958	3.21717	2.86758	2.59762	15.83532	14.03207	12.49897
2480	2.20278	2.36183	1.94783	12.06362	11.66176	11.29164	6.98956	5.19535	3.64795	10.19364	10.03456	9.73027	3.21144	2.86673	2.59668	15.82717	14.02910	12.49659
2640	2.20088	2.36233	1.94938	12.06241	11.66389	11.29629	6.98599	5.19710	3.65090	10.19490	10.03755	9.73173	3.21493	2.86992	2.59874	15.83712	14.03334	12.50250
2810	2.20229	2.36103	1.94727	12.06464	11.66430	11.29256	6.98224	5.19306	3.64449	10.19479	10.03607	9.73319	3.21512	2.86879	2.59972	15.84300	14.03515	12.50483
2970	2.20351	2.36153	1.94620	12.06905	11.66908	11.29989	7.00448	5.19411	3.64539	10.19911	10.03934	9.73685	3.21231	2.86509	2.59483	15.83949	14.03536	12.50286
3130	2.20102	2.36207	1.94883	12.07144	11.67234	11.30306	6.99374	5.19294	3.64928	10.20424	10.04478	9.74063	3.21465	2.86733	2.59523	15.84357	14.03878	12.50853
3300	2.20632	2.36201	1.94648	12.06969	11.66899	11.30176	6.99479	5.19336	3.64955	10.20074	10.04123	9.73711	3.21496	2.87109	2.59739	15.84110	14.04043	12.51008	34.94	6.1	0.00	-2.04	0.01731	0.01199	0.01517	0.01827	0.01889	0.01477	0.00546	0.01514	0.02004	0.01858	0.01288	0.01640	0.01705	0.01762	0.01376	0.00574	0.01613	0.02148
3460	2.20686	2.36603	1.94936	12.07272	11.67152	11.30196	6.98990	5.19946	3.65421	10.20281	10.04293	9.73912	3.21794	2.86856	2.59841	15.83759	14.03679	12.50659
3630	2.20456	2.36349	1.95167	12.07367	11.67459	11.30744	6.99032	5.19901	3.65347	10.20668	10.04738	9.74429	3.21818	2.87190	2.59968	15.84879	14.04414	12.51164
3790	2.20533	2.36401	1.94628	12.07624	11.67746	11.30570	6.99218	5.19759	3.65026	10.20536	10.04768	9.74460	3.21599	2.87087	2.59865	15.84281	14.04538	12.51565
3960	2.20596	2.36514	1.95131	12.07810	11.67939	11.30708	6.99816	5.20398	3.65626	10.20759	10.05020	9.74598	3.21544	2.87052	2.59925	15.84414	14.04388	12.51150
4120	2.20906	2.36880	1.95455	12.07720	11.68094	11.31038	6.99883	5.20819	3.65887	10.20977	10.05360	9.74941	3.22100	2.87689	2.60285	15.85363	14.04683	12.51848
4290	2.20715	2.36202	1.94878	12.08099	11.67904	11.31024	6.98724	5.20064	3.65513	10.20817	10.04853	9.74601	3.22412	2.87921	2.60983	15.84670	14.04738	12.51952
4450	2.21239	2.37465	1.95682	12.07908	11.68157	11.31261	6.99669	5.20653	3.65852	10.21143	10.05278	9.75035	3.22287	2.87459	2.60466	15.84993	14.04730	12.51640
4620	2.20851	2.36710	1.95148	12.08165	11.68128	11.31128	7.00420	5.20421	3.65660	10.21081	10.05348	9.75153	3.22202	2.87624	2.60391	15.84879	14.04741	12.51763
4780	2.20966	2.36995	1.95423	12.08058	11.68032	11.31234	6.99550	5.20532	3.65972	10.21185	10.05457	9.75362	3.22242	2.87659	2.60163	15.84281	14.04962	12.51843
4950	2.21119	2.37147	1.95601	12.08195	11.68183	11.31390	6.99095	5.20831	3.65955	10.21154	10.05657	9.75275	3.22146	2.87688	2.60278	15.85569	14.05101	12.52027	34.94	6.1	0.00	-2.04	0.01731	0.01199	0.01517	0.01826	0.01889	0.01477	0.00546	0.01514	0.02005	0.01858	0.01287	0.01640	0.01705	0.01762	0.01377	0.00574	0.01613	0.02148
5110	2.20994	2.36884	1.95327	12.08406	11.68546	11.31541	7.00611	5.20791	3.65977	10.21561	10.06004	9.75533	3.22273	2.87848	2.60592	15.85360	14.05280	12.52362
5280	2.21198	2.37284	1.95703	12.08741	11.68561	11.31750	7.00744	5.20615	3.65972	10.21580	10.06002	9.75860	3.22221	2.87885	2.60580	15.85113	14.05267	12.52234
5440	2.21137	2.37061	1.95532	12.08717	11.68816	11.31848	7.00297	5.21193	3.66208	10.21691	10.06213	9.75824	3.22534	2.88093	2.60975	15.85379	14.05373	12.52460
5610	2.21104	2.36974	1.95581	12.08633	11.68662	11.31862	6.99176	5.20455	3.65633	10.21711	10.06034	9.76143	3.22345	2.87765	2.60665	15.84952	14.06248	12.53302
5770	2.21038	2.37052	1.95450	12.09568	11.69443	11.32492	6.98891	5.20371	3.65485	10.22374	10.06565	9.76588	3.21984	2.87366	2.60104	15.85284	14.05984	12.52858
5940	2.20984	2.37104	1.95758	12.09719	11.69685	11.32596	6.99836	5.20548	3.66063	10.22703	10.06923	9.76899	3.22327	2.87676	2.60389	15.86244	14.06293	12.53296
6100	2.21060	2.36608	1.95240	12.09886	11.69728	11.32602	6.98967	5.20310	3.65613	10.22478	10.06772	9.76851	3.21881	2.87504	2.60140	15.85256	14.06114	12.53093
6260	2.21012	2.36675	1.95220	12.09570	11.69586	11.32713	6.99565	5.20134	3.65508	10.22545	10.06890	9.76712	3.22053	2.87736	2.60446	15.85731	14.06314	12.53416
6430	2.20838	2.36669	1.95140	12.09584	11.69798	11.32865	6.99342	5.20180	3.65446	10.22711	10.07059	9.77049	3.21888	2.87471	2.60273	15.86425	14.06423	12.53621
6600	2.20950	2.37183	1.95520	12.09901	11.69833	11.32922	6.99603	5.20682	3.65950	10.22810	10.07257	9.77046	3.22188	2.87965	2.60472	15.86746	14.06660	12.53471	34.94	6.1	0.00	-2.04	0.01731	0.01199	0.01517	0.01826	0.01889	0.01477	0.00547	0.01515	0.02005	0.01858	0.01287	0.01640	0.01706	0.01763	0.01377	0.00574	0.01613	0.02147
6760	2.21082	2.36763	1.95563	12.09858	11.69858	11.32986	7.00334	5.20410	3.65535	10.22977	10.07345	9.77172	3.22140	2.87919	2.60753	15.86299	14.06821	12.53953
6930	2.21363	2.37220	1.95721	12.10302	11.70149	11.33309	6.99802	5.20646	3.65792	10.23142	10.07455	9.77383	3.21926	2.87463	2.60263	15.86033	14.06951	12.53969
7090	2.21107	2.37337	1.95947	12.10677	11.70678	11.34126	7.01095	5.21644	3.66488	10.23922	10.08114	9.78153	3.22639	2.87978	2.60767	15.87279	14.07508	12.54639
7250	2.21351	2.36902	1.95691	12.11006	11.70661	11.33870	7.01523	5.20711	3.65978	10.23803	10.07965	9.77946	3.22363	2.87837	2.60565	15.87232	14.07011	12.54206
7420	2.20890	2.36594	1.95313	12.10413	11.70342	11.33435	6.99171	5.20253	3.65754	10.23588	10.07817	9.77890	3.22053	2.87640	2.60792	15.86946	14.07191	12.54325
7580	2.21042	2.36784	1.95390	12.10750	11.70643	11.34004	7.00078	5.20245	3.65701	10.23777	10.08032	9.78044	3.22123	2.87691	2.60650	15.87156	14.07445	12.54655
7750	2.21202	2.37162	1.95788	12.11063	11.70771	11.34140	7.00548	5.20561	3.65770	10.24025	10.08337	9.78361	3.21976	2.87546	2.60322	15.86404	14.07363	12.54331
7910	2.20993	2.37044	1.95741	12.10994	11.71041	11.34446	6.99665	5.20757	3.65785	10.24440	10.08696	9.78660	3.22160	2.87864	2.60549	15.87279	14.07878	12.54934
8080	2.21201	2.36762	1.95618	12.11529	11.71150	11.34457	6.98725	5.20191	3.65836	10.24420	10.08680	9.78517	3.22235	2.87549	2.60386	15.87298	14.07886	12.54991
8250	2.20918	2.37045	1.95778	12.11358	11.71032	11.34401	7.00184	5.20669	3.65870	10.24364	10.08532	9.78567	3.22460	2.88054	2.60957	15.87580	14.07865	12.55263	34.94	6.1	0.00	-2.04	0.01731	0.01199	0.01518	0.01826	0.01889	0.01477	0.00547	0.01515	0.02006	0.01857	0.01287	0.01640	0.01706	0.01763	0.01377	0.00574	0.01613	0.02147
8410	2.21506	2.37050	1.95889	12.11796	11.71309	11.34555	7.00455	5.20670	3.66292	10.24732	10.08825	9.78862	3.22405	2.87871	2.60465	15.87484	14.07981	12.55025
8580	2.21411	2.37377	1.95800	12.12114	11.71816	11.35146	7.00626	5.21138	3.66372	10.25117	10.09292	9.79244	3.22390	2.87975	2.61014	15.88218	14.08584	12.55574
8740	2.21297	2.36941	1.95862	12.12137	11.71670	11.35010	6.99870	5.20984	3.66095	10.25135	10.09260	9.79316	3.22151	2.87765	2.60380	15.88056	14.08230	12.55513
8910	2.21155	2.36906	1.95672	12.12136	11.71691	11.34990	6.99975	5.20630	3.65723	10.25034	10.09216	9.79197	3.22316	2.88004	2.60917	15.88180	14.08603	12.55721
9070	2.21320	2.37179	1.95800	12.12379	11.72163	11.35460	6.99329	5.20713	3.65821	10.25466	10.09531	9.79633	3.22045	2.87733	2.60669	15.88085	14.08666	12.55755
9240	2.21372	2.37038	1.96052	12.12668	11.72321	11.35769	7.00341	5.20883	3.66120	10.25859	10.09790	9.79961	3.22308	2.87862	2.60398	15.88094	14.08854	12.56179
9400	2.21356	2.37166	1.95673	12.12819	11.72258	11.35565	6.99287	5.20901	3.65724	10.25690	10.09761	9.79798	3.22616	2.87725	2.60700	15.89162	14.09233	12.56405
9570	2.21168	2.37142	1.95712	12.13037	11.72605	11.35805	6.99961	5.20912	3.66037	10.25942	10.09962	9.80058	3.22281	2.87850	2.60220	15.88609	14.09119	12.56214
9730	2.21299	2.37078	1.95606	12.12919	11.72572	11.35899	6.99158	5.20479	3.65917	10.25981	10.10000	9.80164	3.22093	2.87685	2.60559	15.88618	14.08997	12.56211
9900	2.21068	2.37120	1.95829	12.12577	11.72294	11.35462	7.00045	5.20110	3.65558	10.25814	10.09897	9.79884	3.22088	2.87734	2.60530	15.88538	14.08976	12.56179	34.94	6.1	0.00	-2.04	0.01732	0.01199	0.01518	0.01826	0.01889	0.01477	0.00547	0.01515	0.02006	0.01857	0.01287	0.01640	0.01706	0.01763	0.01377	0.00574	0.01613	0.02147
10060	2.21284	2.37199	1.95542	12.12942	11.72682	11.36159	6.99419	5.21040	3.65851	10.26287	10.10235	9.80245	3.22510	2.87943	2.60799	15.89282	14.09363	12.56579
10230	2.21484	2.37075	1.95768	12.13165	11.72926	11.36229	7.00264	5.20865	3.65937	10.26479	10.10386	9.80337	3.22629	2.88198	2.61095	15.89148	14.09765	12.57072
10390	2.21757	2.37261	1.96091	12.13821	11.73392	11.36665	7.00516	5.21210	3.66090	10.26957	10.10788	9.80789	3.22644	2.88053	2.60789	15.87899	14.09561	12.56945
10560	2.21428	2.37242	1.95790	12.13470	11.73204	11.36691	7.01390	5.20530	3.65878	10.26815	10.10638	9.80743	3.22271	2.87796	2.60513	15.88309	14.09318	12.56708
10720	2.21157	2.37063	1.95754	12.13400	11.73284	11.36493	7.00307	5.20890	3.66249	10.27022	10.11100	9.80996	3.22615	2.87935	2.60751	15.89148	14.09691	12.56945
10890	2.21095	2.36977	1.95565	12.13844	11.73294	11.36547	7.00577	5.20678	3.65842	10.26871	10.11064	9.80949	3.22520	2.88201	2.61106	15.89072	14.10089	12.57328
11050	2.21353	2.37263	1.95753	12.14176	11.73622	11.37042	6.99908	5.20978	3.66104	10.27386	10.11194	9.81190	3.22570	2.87952	2.60775	15.89663	14.10089	12.57148
11220	2.21227	2.36883	1.95512	12.13979	11.73611	11.36874	7.00330	5.20549	3.66155	10.27431	10.11272	9.81281	3.22410	2.88015	2.60735	15.89205	14.10083	12.57318
11380	2.21245	2.37029	1.95780	12.14260	11.73972	11.37198	7.00539	5.21153	3.66143	10.27654	10.11428	9.81530	3.22348	2.87814	2.60629	15.89864	14.10240	12.57410
11550	2.21300	2.36936	1.95699	12.14081	11.73822	11.37170	6.99991	5.20632	3.66053	10.27528	10.11249	9.81345	3.22654	2.88330	2.61104	15.89613	14.10559	12.57834	34.94	6.1	0.00	-2.04	0.01732	0.01199	0.01518	0.01826	0.01889	0.01477	0.00547	0.01515	0.02006	0.01857	0.01287	0.01640	0.01706	0.01763	0.01378	0.00574	0.01613	0.02147
11710	2.21424	2.37226	1.95920	12.14666	11.74231	11.37629	7.00191	5.20893	3.66158	10.28064	10.11963	9.81801	3.22454	2.87948	2.60566	15.89623	14.10376	12.57622
11880	2.21381	2.37303	1.96074	12.15010	11.74798	11.37850	7.00899	5.21251	3.66726	10.28341	10.12349	9.82120	3.22799	2.88450	2.60993	15.89966	14.10810	12.58169
12040	2.21308	2.37209	1.95992	12.15005	11.74574	11.37832	7.00400	5.21252	3.66365	10.28280	10.12113	9.81848	3.22545	2.88091	2.60663	15.89813	14.10593	12.57759
12210	2.21131	2.36904	1.95638	12.14643	11.74287	11.37621	6.99873	5.20576	3.66007	10.28170	10.12111	9.81844	3.22513	2.87989	2.60711	15.90405	14.10755	12.57989
12370	2.21150	2.37009	1.95765	12.14932	11.74819	11.38032	6.99521	5.20713	3.66259	10.28580	10.12359	9.82232	3.22489	2.88258	2.60486	15.89909	14.10877	12.58188
12540	2.21314	2.37187	1.95824	12.15285	11.75219	11.38145	7.00861	5.20952	3.66249	10.28784	10.12613	9.82426	3.22537	2.88220	2.60890	15.90367	14.11115	12.58351
12700	2.21321	2.36942	1.95764	12.15269	11.75050	11.38075	7.00728	5.20848	3.65998	10.28715	10.12643	9.82540	3.22488	2.87964	2.60826	15.90979	14.11227	12.58376
12870	2.21355	2.36940	1.95751	12.15393	11.75127	11.38135	7.00556	5.20738	3.65842	10.28845	10.12829	9.82532	3.22318	2.87861	2.60532	15.90941	14.11301	12.58631
13030	2.21412	2.37054	1.95938	12.15521	11.75366	11.38251	7.01136	5.20664	3.65845	10.28765	10.12793	9.82569	3.22292	2.88092	2.60725	15.90453	14.11744	12.58846
13200	2.21374	2.37278	1.95902	12.15747	11.75507	11.38474	6.99125	5.20915	3.65950	10.29138	10.12868	9.82814	3.22106	2.87878	2.60835	15.90996	14.11431	12.58621	34.94	6.0	0.00	-2.04	0.01732	0.01199	0.01518	0.01826	0.01889	0.01477	0.00547	0.01515	0.02006	0.01857	0.01287	0.01640	0.01706	0.01763	0.01378	0.00574	0.01613	0.02147
13360	2.21115	2.36948	1.95925	12.15757	11.75658	11.38825	7.00677	5.21240	3.66527	10.29527	10.13389	9.83072	3.22706	2.88252	2.60755	15.91551	14.11904	12.59123
13530	2.21316	2.36930	1.95944	12.15888	11.75788	11.39056	7.00264	5.20903	3.66304	10.29380	10.13269	9.83026	3.22448	2.87964	2.60713	15.91015	14.12002	12.59210
13690	2.21192	2.36944	1.95594	12.15829	11.75861	11.38877	7.00440	5.20979	3.66120	10.29455	10.13167	9.83018	3.22583	2.88294	2.61033	15.92058	14.12188	12.59531
13860	2.21354	2.36946	1.95866	12.16227	11.76032	11.39134	7.00606	5.21211	3.66048	10.29678	10.13642	9.83377	3.22428	2.88025	2.60566	15.91828	14.12145	12.59366
14020	2.21546	2.37279	1.95926	12.16641	11.76562	11.39715	7.00454	5.21465	3.66327	10.30179	10.13930	9.83711	3.22885	2.88144	2.60992	15.91589	14.12876	12.59996
14190	2.21494	2.37003	1.95702	12.16580	11.76236	11.39572	7.00254	5.20984	3.66143	10.30006	10.13844	9.83604	3.22393	2.88031	2.60583	15.91751	14.12799	12.59795
14350	2.21355	2.37159	1.95657	12.16213	11.76187	11.39333	6.99305	5.20627	3.65841	10.29944	10.13822	9.83424	3.22383	2.88027	2.60957	15.92153	14.13030	12.60066
14520	2.21493	2.37163	1.95824	12.16617	11.76520	11.39631	6.99851	5.20879	3.66151	10.30163	10.14163	9.83970	3.22201	2.87790	2.60698	15.92670	14.12783	12.59930
14680	2.21372	2.36993	1.96013	12.16785	11.76859	11.39936	7.00744	5.21078	3.66182	10.30456	10.14398	9.84072	3.22518	2.88056	2.60929	15.92842	14.13434	12.60335
14850	2.21373	2.36951	1.95797	12.16887	11.76641	11.39604	6.99748	5.20603	3.65894	10.30186	10.14089	9.83959	3.22547	2.88136	2.61102	15.92985	14.13819	12.60655	34.94	6.1	0.00	-2.04	0.01732	0.01199	0.01518	0.01826	0.01889	0.01477	0.00547	0.01515	0.02006	0.01857	0.01287	0.01640	0.01706	0.01763	0.01378	0.00574	0.01613	0.02147
15010	2.21495	2.37038	1.95839	12.17533	11.77129	11.40093	6.99605	5.20643	3.66082	10.30637	10.14542	9.84247	3.22417	2.87965	2.60705	15.93071	14.13446	12.60497
15180	2.21666	2.37048	1.95906	12.17508	11.77254	11.40286	7.00683	5.20617	3.66317	10.30813	10.14660	9.84300	3.22500	2.88089	2.60923	15.93129	14.13372	12.60661
15340	2.21566	2.37098	1.95777	12.17583	11.77464	11.40360	7.00394	5.20913	3.66489	10.31114	10.14689	9.84547	3.22712	2.87917	2.60703	15.93196	14.13407	12.60631
15510	2.21207	2.37202	1.95952	12.17497	11.77656	11.40698	7.00645	5.21190	3.66503	10.31395	10.15146	9.84971	3.22788	2.88033	2.60908	15.93943	14.13941	12.61171
15670	2.21632	2.37028	1.95740	12.17629	11.77736	11.40656	6.99601	5.20878	3.66396	10.31407	10.15038	9.84900	3.22846	2.88326	2.61296	15.93857	14.14364	12.61352
15840	2.21744	2.37289	1.96036	12.18242	11.78212	11.41119	7.01415	5.21306	3.66493	10.31601	10.15550	9.85246	3.22842	2.88351	2.61047	15.94097	14.14215	12.61186
16000	2.21650	2.37120	1.95930	12.18054	11.78056	11.41223	7.00650	5.21083	3.66400	10.31723	10.15606	9.85321	3.22655	2.88048	2.60826	15.94442	14.14402	12.61507
16160	2.21621	2.36943	1.95872	12.18125	11.77887	11.41078	7.00441	5.20929	3.65933	10.31539	10.15319	9.85074	3.22401	2.88135	2.60733	15.92497	14.14266	12.61340
16330	2.21502	2.37028	1.95962	12.17986	11.77980	11.40992	7.00902	5.20627	3.65929	10.31601	10.15682	9.85214	3.22186	2.87937	2.60411	15.94595	14.14516	12.61490
16490	2.21288	2.36827	1.95593	12.18188	11.78036	11.40972	7.00024	5.20610	3.65858	10.31747	10.15737	9.85289	3.22515	2.88154	2.61045	15.94933	14.15001	12.62146	34.94	6.1	0.00	-2.04	0.01732	0.01199	0.01518	0.01826	0.01889	0.01477	0.00547	0.01515	0.02006	0.01857	0.01287	0.01640	0.01706	0.01763	0.01377	0.00574	0.01613	0.02147
16660	2.21443	2.37180	1.95847	12.18788	11.78640	11.41658	7.00537	5.20736	3.66287	10.32149	10.16119	9.85822	3.22335	2.87686	2.60437	15.94579	14.14673	12.61926
16820	2.21327	2.37032	1.96060	12.19216	11.79124	11.41976	7.01150	5.21249	3.66219	10.32711	10.16758	9.86333	3.22669	2.88167	2.60680	15.95538	14.15358	12.62492
16990	2.21327	2.36881	1.95842	12.19216	11.79167	11.41827	7.00142	5.20744	3.65870	10.32626	10.16486	9.86184	3.22455	2.88072	2.61034	15.95250	14.15899	12.62810
17150	2.21485	2.37253	1.96136	12.19514	11.79446	11.42270	7.00223	5.20953	3.66084	10.32860	10.16917	9.86512	3.22391	2.87665	2.60528	15.95049	14.15315	12.62503
17310	2.21233	2.37250	1.95909	12.19509	11.79479	11.42164	7.00480	5.21194	3.66395	10.32845	10.16993	9.86561	3.22487	2.87953	2.60536	15.94627	14.15566	12.62543
17480	2.20973	2.36975	1.95638	12.19478	11.79352	11.42431	6.99895	5.21023	3.66158	10.32990	10.17144	9.86674	3.22287	2.87705	2.60439	15.95941	14.15488	12.62574
17640	2.21277	2.37242	1.95732	12.19966	11.79885	11.43048	7.00133	5.21468	3.66595	10.33492	10.17540	9.87069	3.22816	2.88079	2.60993	15.96066	14.15971	12.63206
17810	2.21441	2.36990	1.95886	12.19952	11.79811	11.42627	7.00546	5.20994	3.66180	10.33441	10.17373	9.87006	3.22585	2.88114	2.60840	15.95759	14.16267	12.63195
17970	2.21513	2.37284	1.96054	12.20033	11.80049	11.42792	6.99625	5.20961	3.66311	10.33377	10.17454	9.86827	3.22450	2.87973	2.60475	15.95337	14.15896	12.62842
18140	2.21046	2.36773	1.95609	12.19865	11.79694	11.42599	6.99452	5.20680	3.65945	10.33305	10.17461	9.86914	3.22218	2.87747	2.60638	15.95818	14.16277	12.63277	34.94	6.1	0.00	-2.04	0.01732	0.01199	0.01518	0.01826	0.01889	0.01477	0.00547	0.01515	0.02006	0.01857	0.01287	0.01640	0.01706	0.01763	0.01377	0.00574	0.01613	0.02147
18300	2.21549	2.37165	1.95959	12.20211	11.80267	11.43101	7.00948	5.21331	3.66160	10.33748	10.17815	9.87400	3.22530	2.87985	2.61096	15.96222	14.16544	12.63571
18460	2.21498	2.37132	1.96043	12.20583	11.80456	11.43417	7.01314	5.21074	3.66220	10.33954	10.17889	9.87577	3.22581	2.88135	2.60994	15.96654	14.17016	12.63940
18630	2.21401	2.37239	1.96004	12.20827	11.80717	11.43550	7.00316	5.21160	3.66159	10.34193	10.18369	9.87931	3.22319	2.88081	2.61001	15.96385	14.17147	12.63974
18800	2.21188	2.37177	1.95962	12.20798	11.80811	11.43684	7.01509	5.21390	3.66431	10.34619	10.18626	9.88252	3.22741	2.88042	2.61181	15.97539	14.17373	12.64274
18960	2.21529	2.37174	1.95933	12.21010	11.80879	11.43724	7.00653	5.20880	3.66012	10.34545	10.18588	9.88097	3.22351	2.87904	2.60626	15.96750	14.17296	12.64353
19130	2.21236	2.36935	1.95724	12.21030	11.80874	11.43748	7.00601	5.21210	3.65866	10.34581	10.18560	9.88186	3.22539	2.87888	2.60681	15.97221	14.17616	12.64544
19290	2.21399	2.37022	1.95916	12.21276	11.81134	11.44085	6.99808	5.21012	3.66217	10.34848	10.18719	9.88427	3.22299	2.87921	2.60970	15.96817	14.17694	12.64435
19460	2.21210	2.37302	1.95908	12.21564	11.81238	11.44374	7.00649	5.21347	3.66510	10.35316	10.19124	9.88712	3.22747	2.88219	2.60922	15.97212	14.17969	12.64921
19620	2.21345	2.37174	1.96013	12.21546	11.81258	11.44323	7.00269	5.21163	3.66231	10.35107	10.19308	9.88872	3.22520	2.88093	2.60851	15.97644	14.17980	12.64973
19790	2.21388	2.36908	1.95481	12.21760	11.81335	11.44481	7.00543	5.20795	3.65945	10.35168	10.19178	9.88845	3.22475	2.88095	2.60989	15.97961	14.18298	12.65154	34.94	6.1	0.00	-2.04	0.01732	0.01199	0.01518	0.01826	0.01889	0.01477	0.00547	0.01515	0.02006	0.01857	0.01287	0.01639	0.01706	0.01763	0.01377	0.00574	0.01613	0.02147
19950	2.21195	2.36965	1.95972	12.21999	11.81515	11.44693	6.99802	5.21033	3.66059	10.35440	10.19296	9.88955	3.22517	2.87769	2.60600	15.97644	14.18226	12.65172
20120	2.21331	2.37291	1.95989	12.22121	11.81943	11.44947	7.01089	5.21143	3.66588	10.35789	10.19760	9.89444	3.22631	2.88056	2.60839	15.98298	14.18340	12.65397
20280	2.21309	2.37074	1.95950	12.22128	11.81860	11.44869	7.01056	5.21055	3.66092	10.35705	10.19617	9.89340	3.22567	2.88233	2.60913	15.97884	14.18854	12.65611
20450	2.21560	2.37447	1.96102	12.22463	11.82208	11.45097	7.00913	5.20881	3.66401	10.36157	10.19843	9.89585	3.22658	2.88224	2.60923	15.98298	14.18787	12.65529
20610	2.21361	2.37090	1.95931	12.22590	11.82184	11.45307	7.00443	5.21482	3.66181	10.36140	10.19879	9.89716	3.22698	2.87787	2.60852	15.98144	14.18792	12.65656
20780	2.21308	2.37078	1.95961	12.22704	11.82529	11.45651	7.01161	5.21097	3.66305	10.36409	10.20006	9.89988	3.22606	2.88050	2.60931	15.99319	14.19011	12.66050
20940	2.21288	2.37048	1.95869	12.22796	11.82486	11.45701	7.00942	5.21279	3.66314	10.36409	10.20367	9.90070	3.22625	2.88159	2.60644	15.98616	14.18993	12.65901
21110	2.21325	2.37258	1.96022	12.22864	11.82562	11.45693	6.99688	5.21029	3.66103	10.36550	10.20329	9.90194	3.22265	2.88169	2.61038	15.99078	14.19367	12.66035
21270	2.21360	2.37213	1.95823	12.22945	11.82736	11.45800	7.00182	5.20672	3.65895	10.36628	10.20273	9.90206	3.22378	2.88181	2.60689	15.99194	14.19533	12.66382
21440	2.21284	2.37222	1.95861	12.23308	11.82929	11.46025	7.00260	5.20828	3.66175	10.36725	10.20481	9.90365	3.22167	2.87770	2.60726	15.98507	14.19477	12.66277	34.94	5.9	0.00	-2.04	0.01732	0.01199	0.01518	0.01826	0.01889	0.01477	0.00547	0.01515	0.02006	0.01857	0.01287	0.01639	0.01706	0.01763	0.01377	0.00574	0.01613	0.02147
21600	2.21172	2.36981	1.95903	12.23287	11.83191	11.46364	7.00959	5.21148	3.66659	10.37125	10.21069	9.90755	3.22727	2.87958	2.60960	15.99383	14.19988	12.66822
21770	2.21476	2.36995	1.96030	12.23757	11.83217	11.46419	7.00479	5.20751	3.65987	10.36932	10.20960	9.90675	3.22302	2.87815	2.60445	15.99624	14.19742	12.66728
21930	2.21146	2.36903	1.95717	12.23685	11.83302	11.46405	6.99804	5.20667	3.65948	10.37007	10.21022	9.90734	3.22126	2.87694	2.60771	15.99624	14.20017	12.66887
22100	2.21156	2.36777	1.95827	12.23877	11.83615	11.46463	6.99453	5.20911	3.65992	10.37274	10.21176	9.90853	3.22201	2.87535	2.60368	15.99037	14.19905	12.66900
22260	2.21163	2.36918	1.95710	12.24075	11.83710	11.46761	7.00465	5.21047	3.66009	10.37429	10.21493	9.91113	3.22347	2.87797	2.60682	16.00377	14.20403	12.67268
22430	2.21091	2.36965	1.95563	12.24103	11.83715	11.46700	6.99923	5.20987	3.65785	10.37293	10.21477	9.91081	3.22427	2.87948	2.60906	15.99123	14.20376	12.67533
22590	2.21367	2.37103	1.95940	12.24265	11.83982	11.47016	7.00028	5.20724	3.65828	10.37617	10.21745	9.91315	3.22167	2.87921	2.60359	16.00435	14.20496	12.67491
22760	2.21460	2.37157	1.96177	12.24692	11.84296	11.47382	7.02019	5.21723	3.66495	10.38022	10.22095	9.91662	3.22728	2.88190	2.61016	16.00579	14.20898	12.67945
22920	2.21282	2.37211	1.95862	12.24690	11.84269	11.47409	7.00023	5.21182	3.66142	10.37989	10.22053	9.91876	3.22224	2.87579	2.60757	16.00097	14.20791	12.67840
23090	2.21062	2.37025	1.95630	12.24672	11.84296	11.47347	7.00363	5.20553	3.65785	10.37875	10.21996	9.91508	3.22467	2.88213	2.60884	16.00468	14.20996	12.68026	34.88	6.1	0.00	-2.04	0.01732	0.01199	0.01518	0.01826	0.01889	0.01477	0.00547	0.01515	0.02006	0.01857	0.01287	0.01640	0.01706	0.01763	0.01377	0.00574	0.01613	0.02147
23250	2.21349	2.37017	1.95816	12.25085	11.84482	11.47625	6.99608	5.20729	3.66143	10.38129	10.22491	9.91952	3.22451	2.87734	2.60597	16.00420	14.20854	12.67813
23420	2.21197	2.37151	1.95926	12.25043	11.84638	11.47803	7.00258	5.21023	3.66321	10.38450	10.22560	9.92170	3.22376	2.87927	2.60856	16.00777	14.21205	12.68253
23580	2.21135	2.36879	1.95679	12.25013	11.84776	11.47760	6.99722	5.20814	3.66209	10.38439	10.22558	9.92112	3.22355	2.87912	2.60523	16.00738	14.21079	12.68367
23750	2.21087	2.36892	1.95666	12.25225	11.84751	11.47815	7.00192	5.20724	3.65764	10.38584	10.22629	9.92188	3.22235	2.87752	2.60580	16.00970	14.21321	12.68229
23910	2.21074	2.36880	1.95536	12.25207	11.85012	11.47870	7.00515	5.20508	3.65824	10.38618	10.22536	9.92337	3.22253	2.87896	2.60719	16.00777	14.21674	12.68533
24080	2.21192	2.37012	1.95793	12.25494	11.84982	11.47971	7.00144	5.20485	3.65746	10.38813	10.22795	9.92463	3.22216	2.87756	2.60468	16.00864	14.21500	12.68383
24240	2.20990	2.36872	1.95747	12.25482	11.85225	11.48411	7.00054	5.21182	3.66213	10.39082	10.23290	9.92892	3.22421	2.88083	2.60464	16.01868	14.22189	12.69032
24410	2.21113	2.36983	1.95555	12.25915	11.85570	11.48583	6.99940	5.20971	3.65910	10.39219	10.23234	9.93017	3.22273	2.87862	2.60672	16.02177	14.22111	12.69177
24570	2.21065	2.36795	1.95690	12.26007	11.85559	11.48603	6.99950	5.20820	3.66007	10.39208	10.23268	9.92946	3.22349	2.87765	2.60638	16.02312	14.22503	12.69198
24740	2.21220	2.37067	1.95542	12.26316	11.85806	11.49071	6.98915	5.20445	3.65850	10.39438	10.23505	9.93300	3.22296	2.87675	2.60642	16.02285	14.22374	12.69298	34.99	5.9	0.00	-2.04	0.01731	0.01199	0.01518	0.01826	0.01889	0.01477	0.00547	0.01515	0.02006	0.01857	0.01287	0.01639	0.01706	0.01763	0.01377	0.00574	0.01613	0.02147
24900	2.21224	2.37243	1.95862	12.26627	11.86332	11.49343	7.00101	5.20971	3.66144	10.39688	10.24044	9.93528	3.22633	2.87879	2.60609	16.02691	14.22996	12.69729
25070	2.21118	2.36942	1.95715	12.26632	11.86355	11.49225	7.00781	5.20574	3.66025	10.39385	10.23788	9.93379	3.22233	2.87928	2.60278	16.02710	14.22677	12.69755
25230	2.21008	2.37074	1.95551	12.26498	11.86048	11.49126	6.99741	5.20380	3.65567	10.39565	10.23697	9.93336	3.22266	2.87885	2.60667	16.02410	14.23015	12.69992
25400	2.21124	2.36953	1.95725	12.26820	11.86354	11.49603	6.99427	5.20589	3.65705	10.39855	10.24116	9.93668	3.22059	2.87751	2.60751	16.02217	14.22803	12.69900
25560	2.21200	2.37322	1.96052	12.27040	11.86633	11.49885	7.00358	5.21118	3.66050	10.40132	10.24341	9.93968	3.22479	2.88027	2.60723	16.02952	14.23200	12.70211
25730	2.21162	2.37050	1.95786	12.27057	11.86440	11.49501	6.99337	5.20513	3.65881	10.40062	10.24104	9.93866	3.22201	2.87623	2.60431	16.01995	14.22881	12.69952
25890	2.20945	2.36911	1.95699	12.27004	11.86611	11.49700	7.00401	5.20800	3.65858	10.40165	10.24396	9.94124	3.22460	2.87815	2.60661	16.03348	14.23230	12.70277
26060	2.21171	2.36970	1.95836	12.27275	11.86733	11.50214	7.00230	5.20983	3.66056	10.40280	10.24524	9.94366	3.22518	2.87990	2.60720	16.03261	14.23375	12.70541
26220	2.21469	2.37187	1.95904	12.27348	11.86981	11.50080	6.99503	5.21260	3.66282	10.40521	10.24915	9.94606	3.22550	2.87927	2.60771	16.02720	14.23584	12.70500
26390	2.21046	2.37200	1.95991	12.27431	11.87206	11.50644	6.99989	5.21089	3.66191	10.40956	10.25110	9.94893	3.22561	2.87898	2.60723	16.03310	14.24132	12.70934	34.94	6.2	0.00	-2.04	0.01731	0.01199	0.01518	0.01826	0.01889	0.01477	0.00547	0.01515	0.02005	0.01857	0.01287	0.01639	0.01706	0.01763	0.01377	0.00574	0.01613	0.02147
26550	2.21554	2.36944	1.95759	12.27570	11.87264	11.50321	6.99595	5.20355	3.65879	10.40661	10.24828	9.94597	3.22228	2.88097	2.60897	16.03552	14.24092	12.71155
26720	2.21389	2.37036	1.95927	12.27946	11.87471	11.50800	7.01111	5.20911	3.66010	10.40793	10.25047	9.94806	3.22227	2.87917	2.60506	16.02198	14.23807	12.70758
26880	2.21278	2.36735	1.95700	12.27528	11.87253	11.50491	7.00426	5.20879	3.66070	10.40754	10.25112	9.94899	3.22204	2.87747	2.60540	16.02972	14.23694	12.70890
27040	2.20970	2.36918	1.95756	12.27572	11.87214	11.50430	7.00084	5.20616	3.65683	10.40696	10.25108	9.94745	3.22226	2.87692	2.60453	16.02788	14.24124	12.71115
27210	2.21060	2.37006	1.95768	12.27832	11.87407	11.50684	6.99515	5.20822	3.65751	10.41005	10.25339	9.94965	3.22375	2.87695	2.60531	16.03465	14.24277	12.71302
27370	2.21177	2.36990	1.95544	12.27814	11.87586	11.50731	7.00179	5.20636	3.65665	10.41078	10.25256	9.95044	3.22366	2.87862	2.60799	16.03630	14.24433	12.71318
27540	2.21165	2.37013	1.95697	12.27910	11.87531	11.50776	6.99932	5.20597	3.65721	10.40986	10.25518	9.95081	3.22254	2.88030	2.60912	16.03901	14.24562	12.71584
27700	2.21355	2.37120	1.96011	12.28217	11.87841	11.50993	7.00745	5.21018	3.65997	10.41234	10.25688	9.95321	3.22257	2.87847	2.60693	16.03310	14.24551	12.71530
27870	2.21289	2.37058	1.95888	12.28375	11.88170	11.51491	7.00137	5.21432	3.66481	10.41511	10.26045	9.95633	3.22543	2.88018	2.60748	16.03852	14.24933	12.71799
28040	2.21171	2.37063	1.95789	12.28550	11.88053	11.51158	7.00345	5.20717	3.65939	10.41465	10.25907	9.95486	3.22279	2.87818	2.60656	16.03925	14.24774	12.71732	34.94	6.1	0.00	-2.04	0.01731	0.01199	0.01518	0.01826	0.01889	0.01477	0.00547	0.01515	0.02005	0.01857	0.01287	0.01639	0.01706	0.01763	0.01377	0.00574	0.01613	0.02147
28200	2.20968	2.36758	1.95667	12.28339	11.87886	11.51225	7.00240	5.20883	3.65972	10.41403	10.25790	9.95416	3.22169	2.87954	2.60836	16.04283	14.24828	12.71835
28360	2.21249	2.37080	1.95914	12.28512	11.88288	11.51444	7.00259	5.20689	3.66156	10.41745	10.26017	9.95781	3.22261	2.87967	2.60488	16.04099	14.24682	12.71799
28530	2.21267	2.37272	1.96041	12.28753	11.88560	11.51741	7.00416	5.21011	3.66447	10.41920	10.26354	9.96012	3.22475	2.88073	2.60871	16.05165	14.25204	12.72084
28690	2.21348	2.37010	1.95724	12.28681	11.88191	11.51369	7.00801	5.20506	3.65825	10.41584	10.26058	9.95831	3.21878	2.87537	2.60277	16.04419	14.24873	12.71911
28860	2.21177	2.36777	1.95598	12.28791	11.88311	11.51597	7.00255	5.20861	3.65907	10.41665	10.26228	9.95836	3.22445	2.87876	2.60841	16.04283	14.25675	12.72611
29020	2.21373	2.37085	1.95962	12.29224	11.88738	11.51933	7.00744	5.21044	3.66211	10.42189	10.26518	9.96321	3.22487	2.87829	2.60697	16.05165	14.25398	12.72445
29190	2.21327	2.36904	1.95647	12.29084	11.88606	11.51849	7.00378	5.20493	3.65644	10.41917	10.26374	9.96280	3.22265	2.87833	2.60518	16.04216	14.25414	12.72511
29350	2.20920	2.36549	1.95819	12.29074	11.88690	11.51924	6.99281	5.20416	3.65660	10.42052	10.26535	9.96269	3.22444	2.87839	2.60764	16.05785	14.25906	12.72737
29520	2.21376	2.37186	1.95705	12.29342	11.88878	11.52207	7.00658	5.20707	3.66046	10.42189	10.26855	9.96456	3.22364	2.87864	2.60770	16.04419	14.25279	12.72552
29680	2.21234	2.36805	1.95601	12.29225	11.88805	11.52148	6.99507	5.21229	3.65999	10.42390	10.26961	9.96731	3.22493	2.87759	2.60681	16.05860	14.25694	12.72818	34.94	6.2	0.00	-2.04	0.01731	0.01199	0.01518	0.01826	0.01889	0.01477	0.00547	0.01515	0.02005	0.01857	0.01287	0.01639	0.01706	0.01763	0.01377	0.00574	0.01613	0.02147
29840	2.21184	2.36795	1.95796	12.29232	11.88720	11.52081	6.98601	5.20711	3.65663	10.42266	10.26741	9.96486	3.22243	2.87670	2.60586	16.05540	14.26125	12.73057
30010	2.21123	2.36905	1.95977	12.29560	11.89063	11.52132	6.99821	5.20483	3.65886	10.42401	10.26900	9.96685	3.21968	2.87541	2.60334	16.05366	14.25923	12.72823
30170	2.21154	2.36949	1.95857	12.29473	11.88893	11.52500	6.99802	5.20720	3.65762	10.42434	10.26963	9.96708	3.22277	2.87623	2.60364	16.06015	14.26039	12.73060
30340	2.21279	2.36882	1.95774	12.29431	11.88841	11.52284	6.99826	5.20394	3.65769	10.42417	10.27056	9.96595	3.22244	2.87635	2.60743	16.05375	14.25791	12.73062
30500	2.21324	2.37239	1.95795	12.29531	11.89020	11.52374	7.00006	5.21013	3.65772	10.42521	10.27048	9.96927	3.22158	2.87565	2.60369	16.05278	14.25850	12.72999
30670	2.21298	2.37093	1.95915	12.29636	11.89153	11.52659	7.01118	5.20942	3.66213	10.42855	10.27257	9.97105	3.22424	2.87860	2.60729	16.05705	14.26176	12.73305
30830	2.21127	2.37062	1.95880	12.29524	11.88960	11.52333	7.00652	5.20731	3.65848	10.42540	10.27081	9.96677	3.22461	2.88146	2.61019	16.06976	14.26825	12.73746
31000	2.21330	2.37229	1.96147	12.29892	11.89397	11.52626	7.00130	5.20901	3.66172	10.42835	10.27517	9.97215	3.22210	2.87927	2.60454	16.06268	14.26534	12.73399
31160	2.21207	2.36955	1.95845	12.29868	11.89559	11.52807	7.00087	5.20592	3.65933	10.42935	10.27546	9.97161	3.22198	2.87761	2.60749	16.05773	14.26602	12.73341
31330	2.21324	2.36883	1.95958	12.29995	11.89655	11.53275	7.00563	5.20338	3.65869	10.43324	10.27757	9.97570	3.22287	2.87993	2.60500	16.06122	14.26800	12.73555	34.88	6.2	0.00	-2.04	0.01731	0.01199	0.01517	0.01826	0.01889	0.01477	0.00547	0.01515	0.02005	0.01857	0.01287	0.01639	0.01705	0.01763	0.01377	0.00574	0.01613	0.02147
31490	2.21161	2.36760	1.95769	12.30022	11.89411	11.52865	7.00278	5.20408	3.65503	10.42890	10.27486	9.97295	3.21832	2.87666	2.60232	16.06103	14.26687	12.73805
31660	2.21484	2.36941	1.95988	12.30124	11.89776	11.53189	7.00264	5.20590	3.66063	10.43380	10.27985	9.97744	3.22241	2.87956	2.60650	16.05666	14.26765	12.73736
31830	2.21209	2.37202	1.95656	12.30432	11.89943	11.53220	6.99718	5.20581	3.65732	10.43394	10.27944	9.97741	3.22306	2.87874	2.60933	16.06908	14.27258	12.74191
31990	2.21429	2.37186	1.95888	12.30619	11.90087	11.53468	7.00440	5.21013	3.66006	10.43525	10.28277	9.97925	3.22106	2.87777	2.60760	16.05705	14.26905	12.74096
32160	2.21226	2.37189	1.96039	12.30753	11.90403	11.53701	7.00269	5.20907	3.66386	10.43873	10.28591	9.98402	3.22615	2.88056	2.60891	16.07122	14.27511	12.74540
32320	2.21334	2.37220	1.95963	12.30800	11.90359	11.53635	7.00815	5.20361	3.65923	10.43674	10.28279	9.98219	3.22237	2.87647	2.60561	16.07112	14.27153	12.74189
32480	2.21083	2.36757	1.95748	12.30595	11.90132	11.53656	6.99438	5.20396	3.65744	10.43763	10.28328	9.98202	3.22206	2.87947	2.60858	16.06180	14.27679	12.74452
32650	2.21261	2.36999	1.95909	12.31021	11.90621	11.53770	6.98702	5.20317	3.65798	10.43895	10.28819	9.98426	3.22299	2.87874	2.60408	16.06306	14.27293	12.74451
32820	2.21183	2.37106	1.95943	12.31158	11.90869	11.54057	7.00212	5.20795	3.66010	10.44067	10.29014	9.98706	3.22328	2.87847	2.60652	16.07073	14.27784	12.74884
32980	2.21058	2.36779	1.95731	12.31298	11.90550	11.53783	6.99688	5.20060	3.65783	10.43802	10.28717	9.98521	3.22268	2.88210	2.60796	16.07165	14.28078	12.75030	34.94	6.1	0.00	-2.04	0.01731	0.01199	0.01517	0.01826	0.01889	0.01477	0.00546	0.01515	0.02005	0.01857	0.01287	0.01639	0.01705	0.01763	0.01377	0.00574	0.01613	0.02147
33150	2.21345	2.36849	1.95930	12.31496	11.91053	11.54231	6.99740	5.20809	3.65960	10.44255	10.29000	9.98868	3.22354	2.87618	2.60650	16.07359	14.27964	12.75077
33310	2.21262	2.36777	1.95743	12.31455	11.90996	11.54192	6.99640	5.20288	3.65854	10.44272	10.28880	9.98745	3.22077	2.87727	2.60607	16.07020	14.27592	12.74663
33480	2.21239	2.36964	1.95869	12.31475	11.90926	11.54474	6.99521	5.20659	3.66013	10.44538	10.29187	9.98966	3.22464	2.87744	2.60545	16.07126	14.27881	12.74775
33640	2.21040	2.36872	1.95554	12.31181	11.90871	11.53897	6.99104	5.20394	3.65602	10.44203	10.28709	9.98799	3.21966	2.87947	2.60763	16.07709	14.28059	12.75128
33810	2.21256	2.36972	1.95830	12.31609	11.91123	11.54466	6.99089	5.20542	3.66072	10.44487	10.29014	9.98905	3.22260	2.87826	2.60522	16.07185	14.27948	12.75102
33970	2.21067	2.37197	1.96045	12.31700	11.91170	11.54390	6.99949	5.20303	3.65883	10.44395	10.29080	9.99112	3.21942	2.87613	2.60229	16.07301	14.28010	12.74979
34140	2.21316	2.37284	1.95900	12.31814	11.91346	11.54588	6.99123	5.20397	3.65798	10.44767	10.29507	9.99292	3.22016	2.87721	2.60799	16.06932	14.28355	12.75293
34300	2.21433	2.36923	1.95890	12.31934	11.91381	11.54672	6.99455	5.20325	3.65822	10.44751	10.29403	9.99295	3.22043	2.87570	2.60517	16.07709	14.28207	12.75228
34470	2.21111	2.36922	1.95856	12.31761	11.91312	11.54592	6.99844	5.20591	3.65778	10.44875	10.29574	9.99302	3.22067	2.87748	2.60463	16.07185	14.28531	12.75344
34630	2.21160	2.36746	1.95763	12.32055	11.91422	11.54593	6.98973	5.20207	3.65738	10.44821	10.29521	9.99491	3.22248	2.87927	2.60891	16.07670	14.28568	12.75625	34.88	6.1	0.00	-2.04	0.01731	0.01199	0.01517	0.01826	0.01889	0.01477	0.00547	0.01515	0.02005	0.01857	0.01287	0.01639	0.01705	0.01762	0.01377	0.00574	0.01613	0.02147
34800	2.21130	2.37041	1.95869	12.32121	11.91549	11.54799	6.99985	5.20617	3.65867	10.44939	10.29717	9.99536	3.22079	2.87807	2.60627	16.07933	14.28341	12.75418
34960	2.21102	2.36984	1.95687	12.32039	11.91574	11.54822	7.00731	5.20674	3.65849	10.45084	10.29688	9.99574	3.22097	2.87574	2.60482	16.08808	14.28344	12.75410
35130	2.21062	2.36894	1.95842	12.32201	11.91597	11.55126	7.00298	5.20673	3.65920	10.45163	10.29919	9.99844	3.22169	2.87605	2.60570	16.07904	14.28390	12.75600
35290	2.21209	2.36871	1.95705	12.32128	11.91596	11.54930	7.00018	5.20309	3.65382	10.45042	10.29597	9.99542	3.22174	2.87705	2.60684	16.07428	14.28981	12.75657
35460	2.21421	2.37136	1.95940	12.32520	11.91831	11.55167	6.99552	5.20852	3.65803	10.45331	10.30077	9.99955	3.21952	2.87548	2.60285	16.07836	14.28830	12.75677
35620	2.20987	2.36753	1.95861	12.32489	11.91830	11.55081	7.00051	5.20265	3.65956	10.45480	10.30214	9.99962	3.21881	2.87406	2.60394	16.08837	14.28538	12.75674
35790	2.21193	2.37242	1.96003	12.32524	11.92079	11.55338	6.99885	5.20638	3.66029	10.45547	10.30285	10.00282	3.22201	2.87791	2.60594	16.08788	14.28781	12.75764
35950	2.21174	2.36929	1.95732	12.32531	11.91830	11.55252	6.98210	5.20116	3.65660	10.45279	10.30110	10.00016	3.22125	2.88047	2.60823	16.08176	14.29078	12.76044
36120	2.21439	2.37039	1.95789	12.32744	11.92233	11.55642	6.99367	5.20508	3.65591	10.45686	10.30505	10.00297	3.21855	2.87573	2.60560	16.08059	14.28878	12.75999
36290	2.20945	2.37049	1.95762	12.32870	11.92326	11.55617	6.99283	5.20129	3.65782	10.45836	10.30409	10.00609	3.21714	2.87282	2.60321	16.07972	14.28921	12.75982	34.88	5.9	0.00	-2.04	0.01731	0.01199	0.01517	0.01826	0.01889	0.01477	0.00546	0.01514	0.02005	0.01857	0.01287	0.01639	0.01705	0.01762	0.01377	0.00574	0.01613	0.02147
36450	2.21147	2.37188	1.95841	12.33122	11.92722	11.55924	6.99506	5.20668	3.66069	10.46288	10.30770	10.00780	3.22171	2.87755	2.60739	16.08896	14.29335	12.76310
36610	2.21308	2.36765	1.95763	12.33129	11.92654	11.55695	6.98988	5.20387	3.65253	10.46020	10.30715	10.00556	3.21601	2.87472	2.60157	16.08993	14.29113	12.76116
36780	2.20962	2.36601	1.95667	12.33122	11.92533	11.55752	6.98708	5.20283	3.65432	10.46129	10.30919	10.00609	3.21979	2.87615	2.60418	16.08429	14.29383	12.76465
36950	2.21088	2.36925	1.95791	12.33504	11.92950	11.56167	6.99919	5.20198	3.65491	10.46192	10.30866	10.00776	3.22249	2.87796	2.60896	16.09178	14.30015	12.77016
37110	2.21356	2.37135	1.95956	12.34090	11.93509	11.56532	7.00247	5.20795	3.65884	10.46710	10.31331	10.01253	3.22119	2.87698	2.60373	16.09051	14.29978	12.76763
37280	2.21131	2.36816	1.95778	12.33628	11.93236	11.56549	6.99268	5.19925	3.65813	10.46662	10.31231	10.01198	3.21898	2.87513	2.60328	16.09450	14.30026	12.76549
37440	2.21053	2.36705	1.95750	12.33724	11.93213	11.56438	7.00109	5.20565	3.65545	10.46800	10.31557	10.01342	3.21861	2.87487	2.60596	16.10171	14.29878	12.76831
37610	2.20938	2.36883	1.95509	12.33590	11.93149	11.56259	6.99572	5.19880	3.65454	10.46628	10.31288	10.01200	3.22076	2.87725	2.60579	16.09411	14.30302	12.77352
37770	2.21454	2.36877	1.95772	12.34305	11.93826	11.56772	7.00375	5.20468	3.65917	10.46999	10.31682	10.01539	3.22045	2.87494	2.60354	16.09927	14.30248	12.77093
37940	2.21089	2.36909	1.95748	12.33989	11.93698	11.56755	6.98965	5.20050	3.65687	10.46913	10.31858	10.01512	3.21917	2.87590	2.60444	16.09689	14.29985	12.77017	34.88	6.0	0.00	-2.04	0.01731	0.01199	0.01517	0.01826	0.01889	0.01477	0.00546	0.01514	0.02005	0.01857	0.01287	0.01639	0.01705	0.01762	0.01377	0.00574	0.01613	0.02147
38100	2.20963	2.37065	1.95769	12.34226	11.93887	11.56970	7.00199	5.20829	3.65652	10.47056	10.31865	10.01701	3.22059	2.87651	2.60307	16.09358	14.30391	12.77261
38270	2.20926	2.36737	1.95683	12.34036	11.93651	11.56786	6.99601	5.19637	3.65157	10.46885	10.31603	10.01656	3.21928	2.87799	2.60728	16.10438	14.30937	12.77879
38430	2.21245	2.37005	1.95895	12.34693	11.94241	11.57199	6.99069	5.20531	3.65819	10.47347	10.31905	10.01949	3.21887	2.87559	2.60491	16.10770	14.30691	12.77671
38600	2.21002	2.36725	1.95540	12.34548	11.94023	11.57046	6.99563	5.20422	3.65566	10.47306	10.32001	10.01954	3.21864	2.87175	2.60117	16.09319	14.30615	12.77635
38760	2.21037	2.36631	1.95774	12.34562	11.94085	11.57117	6.99900	5.20376	3.65443	10.47527	10.32036	10.02041	3.21770	2.87332	2.60343	16.10536	14.30775	12.77755
38930	2.20914	2.36557	1.95507	12.34491	11.93753	11.56958	6.99107	5.19936	3.65412	10.47295	10.31897	10.01780	3.21957	2.87611	2.60530	16.10331	14.31175	12.78084
39090	2.21350	2.36854	1.95648	12.34690	11.94276	11.57301	6.99183	5.20591	3.65514	10.47452	10.32024	10.02078	3.21825	2.87382	2.60257	16.10438	14.30888	12.77773
39260	2.21021	2.36875	1.95730	12.34961	11.94472	11.57796	7.00161	5.20907	3.65954	10.47910	10.32363	10.02367	3.22291	2.87839	2.60735	16.10526	14.31291	12.78052
39420	2.21060	2.36710	1.95563	12.34763	11.94056	11.57547	7.00541	5.20393	3.65559	10.47593	10.32067	10.02207	3.21735	2.87527	2.60422	16.10370	14.30880	12.77679
39590	2.20767	2.36676	1.95699	12.34426	11.94063	11.57280	6.99529	5.20490	3.65779	10.47741	10.32119	10.02400	3.21886	2.87442	2.60666	16.11069	14.31255	12.78047	34.99	6.1	0.00	-2.04	0.01731	0.01199	0.01517	0.01826	0.01889	0.01477	0.00546	0.01514	0.02005	0.01857	0.01287	0.01639	0.01705	0.01762	0.01377	0.00574	0.01613	0.02147
39750	2.21180	2.36706	1.95711	12.34758	11.94129	11.57419	6.99472	5.20182	3.65442	10.47926	10.32289	10.02460	3.22102	2.87557	2.60547	16.11108	14.31682	12.78590
39920	2.21214	2.37028	1.95771	12.35113	11.94499	11.57757	7.00370	5.20336	3.65752	10.48078	10.32473	10.02621	3.21815	2.87270	2.60524	16.11605	14.31349	12.78203
40080	2.20819	2.36777	1.95772	12.34916	11.94590	11.57898	6.99624	5.20722	3.65964	10.48382	10.32930	10.02882	3.22216	2.87741	2.60757	16.11888	14.31888	12.78703
40250	2.21056	2.36638	1.95529	12.35253	11.94670	11.57744	6.99643	5.20281	3.65336	10.48191	10.32820	10.02756	3.21885	2.87466	2.60340	16.11790	14.31634	12.78570
40410	2.20845	2.36428	1.95475	12.34929	11.94449	11.57644	6.99292	5.20308	3.65257	10.48146	10.32749	10.02693	3.21855	2.87692	2.60464	16.11868	14.31596	12.78529
40580	2.20795	2.36755	1.95726	12.35171	11.94603	11.57669	7.00118	5.20317	3.65340	10.48283	10.32563	10.02917	3.21629	2.87572	2.60219	16.11273	14.31639	12.78439
40740	2.20912	2.36932	1.95755	12.35317	11.94706	11.57906	7.00080	5.20477	3.65340	10.48371	10.32847	10.03081	3.21813	2.87459	2.60376	16.12161	14.31850	12.78705
40910	2.20901	2.36663	1.95558	12.35300	11.94727	11.57902	6.98305	5.20072	3.64966	10.48251	10.32742	10.02842	3.21750	2.87498	2.60425	16.12590	14.32308	12.79206
41070	2.21245	2.36844	1.95954	12.35805	11.94982	11.58229	7.00132	5.20214	3.65720	10.48652	10.32949	10.03266	3.21833	2.87488	2.60089	16.11225	14.32094	12.78979
41240	2.21041	2.36831	1.95796	12.35611	11.95125	11.58237	6.99687	5.20019	3.65676	10.48911	10.33232	10.03367	3.21830	2.87425	2.60382	16.11369	14.32061	12.78788	34.94	6.0	0.00	-2.04	0.01731	0.01199	0.01517	0.01826	0.01889	0.01477	0.00546	0.01514	0.02005	0.01857	0.01287	0.01639	0.01705	0.01762	0.01377	0.00574	0.01613	0.02147
41400	2.20945	2.36877	1.95847	12.35868	11.95367	11.58446	6.99231	5.20691	3.65768	10.48768	10.33207	10.03493	3.21823	2.87544	2.60338	16.12100	14.32093	12.79030
41570	2.20903	2.36487	1.95543	12.35519	11.94889	11.58034	6.98159	5.19980	3.65369	10.48470	10.32855	10.03082	3.21882	2.87672	2.60683	16.11905	14.32478	12.79320
41730	2.21152	2.36742	1.95804	12.35755	11.95141	11.58315	6.99982	5.20325	3.65577	10.48807	10.33201	10.03372	3.21885	2.87373	2.60327	16.11993	14.32280	12.78893
41900	2.21102	2.36695	1.95742	12.35877	11.95282	11.58382	6.98932	5.20197	3.65522	10.48828	10.33164	10.03619	3.22062	2.87656	2.60407	16.12588	14.32819	12.79522
42060	2.21437	2.37035	1.95800	12.36374	11.95797	11.58878	7.00181	5.20364	3.65748	10.49084	10.33563	10.03717	3.21834	2.87402	2.60276	16.12901	14.32641	12.79455
42230	2.20805	2.36645	1.95568	12.35948	11.95476	11.58407	6.99564	5.20114	3.65232	10.48909	10.33332	10.03611	3.21623	2.87346	2.60128	16.12617	14.32600	12.79465
42390	2.20979	2.36659	1.95797	12.36094	11.95879	11.58671	6.99934	5.20167	3.65530	10.49066	10.33583	10.03763	3.21760	2.87651	2.60483	16.12491	14.33061	12.79703
42560	2.21023	2.36903	1.95630	12.36354	11.96049	11.58972	6.99982	5.19874	3.65439	10.49362	10.33878	10.03942	3.21935	2.87507	2.60421	16.12715	14.33047	12.79936
42720	2.21069	2.36892	1.95614	12.36537	11.96170	11.59085	6.99839	5.20379	3.65502	10.49336	10.33853	10.03982	3.21677	2.87219	2.60184	16.12920	14.32936	12.79746
42890	2.21127	2.36814	1.95784	12.36820	11.96310	11.59336	6.98907	5.20703	3.65750	10.49770	10.34327	10.04349	3.21964	2.87449	2.60388	16.12689	14.33121	12.80156	34.94	6.3	0.00	-2.04	0.01731	0.01199	0.01517	0.01826	0.01889	0.01477	0.00546	0.01514	0.02005	0.01857	0.01287	0.01639	0.01705	0.01762	0.01377	0.00574	0.01613	0.02147
43050	2.20938	2.36751	1.95747	12.36552	11.96003	11.59076	6.98859	5.19926	3.65308	10.49462	10.33801	10.03938	3.22150	2.87560	2.60835	16.12572	14.33420	12.80398
43220	2.21014	2.36858	1.95724	12.36777	11.96312	11.59330	7.00127	5.20441	3.65629	10.49605	10.34251	10.04225	3.22036	2.87159	2.60279	16.13129	14.33148	12.80168
43380	2.20936	2.36654	1.95647	12.36430	11.96008	11.59035	6.99168	5.20130	3.65412	10.49443	10.34090	10.04112	3.21663	2.87197	2.60065	16.12582	14.32980	12.79755
43550	2.20844	2.36557	1.95580	12.36507	11.96003	11.58957	6.99135	5.19708	3.65259	10.49387	10.34170	10.04200	3.21958	2.87755	2.60693	16.13432	14.33544	12.80406
43710	2.21154	2.37007	1.95786	12.37118	11.96767	11.59617	6.98337	5.20113	3.65466	10.50052	10.34513	10.04596	3.21855	2.87684	2.60333	16.13295	14.33487	12.80281
43880	2.20928	2.36723	1.95717	12.36809	11.96544	11.59832	6.98959	5.19808	3.65348	10.49971	10.34485	10.04599	3.21812	2.87160	2.60276	16.13285	14.33398	12.80258
44040	2.20990	2.36505	1.95655	12.37061	11.96737	11.59732	6.99880	5.20469	3.65413	10.50069	10.34548	10.04727	3.21860	2.87313	2.60426	16.12758	14.33455	12.80386
44210	2.21060	2.36748	1.95699	12.36912	11.96581	11.59627	6.99952	5.20009	3.65563	10.49932	10.34597	10.04757	3.21576	2.87229	2.59940	16.13598	14.33515	12.80452
44370	2.21095	2.36762	1.95775	12.37032	11.96804	11.59767	6.99709	5.19984	3.65642	10.49997	10.34487	10.04921	3.21821	2.87464	2.60271	16.13784	14.33439	12.80483
44540	2.20957	2.37113	1.96043	12.37375	11.96999	11.60275	6.99776	5.20571	3.65786	10.50389	10.35073	10.05170	3.22183	2.87744	2.60404	16.13578	14.33945	12.80789	34.94	6.1	0.00	-2.04	0.01731	0.01199	0.01517	0.01826	0.01889	0.01477	0.00546	0.01514	0.02005	0.01857	0.01287	0.01639	0.01705	0.01762	0.01377	0.00574	0.01613	0.02147
44700	2.21009	2.36682	1.95777	12.37302	11.96816	11.60107	6.99672	5.19941	3.65422	10.50295	10.34891	10.04935	3.21626	2.87113	2.60152	16.14066	14.33538	12.80526
44870	2.20967	2.36559	1.95728	12.37218	11.96883	11.60101	6.99871	5.20370	3.65439	10.50432	10.34871	10.05320	3.21756	2.87519	2.60309	16.13675	14.33709	12.80803
45030	2.21151	2.36618	1.95585	12.37373	11.96999	11.60041	7.00670	5.20041	3.65549	10.50380	10.35026	10.04970	3.21876	2.87319	2.60279	16.13382	14.33779	12.80924
45200	2.21095	2.36746	1.95697	12.37487	11.97010	11.60253	6.99596	5.20350	3.65454	10.50621	10.35098	10.05263	3.21850	2.87450	2.60124	16.13627	14.33709	12.80579
45360	2.20797	2.36555	1.95727	12.37189	11.96894	11.60269	7.00675	5.20706	3.65783	10.50845	10.35333	10.05489	3.21906	2.87566	2.60494	16.13285	14.34032	12.80868
45530	2.21036	2.36705	1.95632	12.37392	11.96883	11.60171	6.99548	5.20366	3.65542	10.50617	10.35239	10.05368	3.21891	2.87392	2.60250	16.13353	14.34265	12.81026
45690	2.21013	2.36635	1.95549	12.37450	11.96862	11.60125	6.99002	5.20095	3.65458	10.50735	10.35104	10.05358	3.21804	2.87275	2.60301	16.13382	14.34211	12.81084
45860	2.21015	2.36569	1.95638	12.37534	11.97211	11.60363	6.99396	5.20148	3.65349	10.50888	10.35256	10.05698	3.21537	2.87307	2.60238	16.13890	14.34246	12.81123
46020	2.20851	2.36576	1.95925	12.37782	11.97432	11.60538	6.99135	5.20549	3.65648	10.51104	10.35530	10.05849	3.21886	2.87618	2.60370	16.13871	14.34469	12.81314
46190	2.21016	2.36389	1.95450	12.37838	11.97338	11.60594	6.98950	5.19905	3.65511	10.51099	10.35584	10.05893	3.21630	2.87213	2.60063	16.14969	14.34492	12.81310	34.88	6.1	0.00	-2.04	0.01731	0.01199	0.01517	0.01826	0.01889	0.01477	0.00546	0.01514	0.02005	0.01857	0.01287	0.01639	0.01705	0.01762	0.01377	0.00574	0.01613	0.02147
46350	2.20939	2.36626	1.95591	12.37893	11.97407	11.60727	7.00290	5.19999	3.65300	10.51209	10.35563	10.05836	3.21735	2.87274	2.60164	16.14607	14.34848	12.81390
46520	2.20805	2.36809	1.95718	12.38185	11.97614	11.60732	6.99734	5.20120	3.65438	10.51222	10.35629	10.05826	3.21674	2.87109	2.60144	16.14969	14.34726	12.81335
46680	2.20968	2.36707	1.95830	12.38085	11.97839	11.61025	6.99629	5.20259	3.65604	10.51508	10.35844	10.06103	3.21933	2.87459	2.59994	16.14724	14.34772	12.81558
46850	2.20874	2.36629	1.95585	12.37911	11.97479	11.60563	6.99791	5.19701	3.65343	10.51208	10.35600	10.05916	3.21852	2.87657	2.60204	16.15292	14.35351	12.81996
47010	2.21030	2.36719	1.95690	12.38392	11.97969	11.61068	6.99591	5.20226	3.65627	10.51586	10.35934	10.06271	3.21587	2.87475	2.60391	16.14196	14.34938	12.81904
47180	2.21045	2.36591	1.95871	12.38410	11.97901	11.61214	6.99957	5.19975	3.65398	10.51601	10.36055	10.06326	3.21834	2.87504	2.60475	16.15233	14.35160	12.82182
47340	2.21152	2.36503	1.95806	12.38845	11.98388	11.61520	7.00623	5.20375	3.65819	10.51969	10.36184	10.06710	3.21861	2.87508	2.60181	16.16104	14.35193	12.82204
47510	2.20815	2.36413	1.95451	12.38618	11.98191	11.61438	7.00608	5.19976	3.65326	10.51818	10.36219	10.06563	3.21795	2.87280	2.60106	16.15233	14.35253	12.82061
47670	2.20928	2.36478	1.95421	12.38522	11.98004	11.61333	6.99634	5.20237	3.65147	10.51796	10.36141	10.06557	3.21871	2.87619	2.60533	16.14988	14.35658	12.82739
47840	2.21176	2.36897	1.95897	12.38996	11.98627	11.61867	6.99193	5.20552	3.65698	10.52182	10.36673	10.07081	3.21930	2.87499	2.60244	16.14784	14.35458	12.82472	34.94	6.1	0.00	-2.04	0.01731	0.01199	0.01517	0.01826	0.01889	0.01477	0.00546	0.01514	0.02004	0.01857	0.01287	0.01639	0.01705	0.01762	0.01377	0.00574	0.01613	0.02147
48000	2.20943	2.36451	1.95580	12.38833	11.98304	11.61768	7.00390	5.20410	3.65279	10.51969	10.36467	10.06649	3.21759	2.87093	2.59975	16.15440	14.35051	12.82113
48170	2.20826	2.36560	1.95644	12.38689	11.98337	11.61816	6.99654	5.20352	3.65479	10.51963	10.36500	10.06715	3.21790	2.87432	2.60456	16.14579	14.35108	12.82277
48330	2.20929	2.36374	1.95589	12.38844	11.98262	11.61504	6.99621	5.20062	3.65099	10.52011	10.36476	10.06830	3.21679	2.87539	2.60458	16.14960	14.35483	12.82246
48500	2.20905	2.36778	1.95537	12.38941	11.98533	11.61904	6.98239	5.19797	3.65355	10.52300	10.36621	10.06840	3.21793	2.87169	2.60296	16.14050	14.34991	12.82119
48660	2.21104	2.36848	1.95880	12.38896	11.98790	11.62033	6.99359	5.19981	3.65545	10.52320	10.36972	10.07051	3.21693	2.87326	2.60292	16.15782	14.35339	12.82562
48830	2.20883	2.36612	1.95658	12.38791	11.98309	11.61631	6.98434	5.19866	3.65041	10.52028	10.36638	10.06925	3.21668	2.87686	2.60807	16.14667	14.35928	12.82946
48990	2.21238	2.36842	1.95716	12.39494	11.99060	11.62325	6.99725	5.20554	3.65430	10.52724	10.37255	10.07488	3.21803	2.87522	2.60171	16.15097	14.35839	12.82902
49160	2.21114	2.36820	1.95792	12.39550	11.99292	11.62432	6.99207	5.20182	3.65522	10.52726	10.37352	10.07748	3.21714	2.87321	2.60425	16.15743	14.35795	12.82884
49320	2.21027	2.36800	1.95821	12.39711	11.99407	11.62796	7.00547	5.20519	3.65569	10.52876	10.37504	10.07753	3.21902	2.87640	2.60482	16.14950	14.35915	12.82926
49490	2.20758	2.36393	1.95411	12.39591	11.99162	11.62440	6.98039	5.19991	3.65159	10.52717	10.37385	10.07415	3.21861	2.87472	2.60683	16.15778	14.36068	12.83179	34.94	6.0	0.00	-2.04	0.01731	0.01199	0.01517	0.01826	0.01889	0.01477	0.00546	0.01514	0.02004	0.01857	0.01287	0.01639	0.01705	0.01762	0.01377	0.00574	0.01613	0.02147
49650	2.21359	2.36850	1.95809	12.39761	11.99440	11.62649	6.98893	5.20177	3.65495	10.52982	10.37666	10.07687	3.21576	2.87343	2.60306	16.16180	14.35926	12.82841
49820	2.21091	2.36453	1.95701	12.39519	11.99393	11.62555	6.99121	5.20330	3.65484	10.52988	10.37668	10.07719	3.22042	2.87514	2.60619	16.15984	14.36274	12.83261
49980	2.21046	2.36618	1.95689	12.40048	11.99595	11.62983	6.99638	5.20144	3.65677	10.53105	10.37849	10.07847	3.22039	2.87516	2.60353	16.15690	14.36152	12.83268
50150	2.21053	2.36649	1.95788	12.39869	11.99556	11.62925	6.99572	5.20219	3.65611	10.53257	10.37851	10.08117	3.21939	2.87648	2.60600	16.15857	14.36217	12.83355
50310	2.21059	2.36584	1.95656	12.39798	11.99395	11.62709	6.98318	5.19996	3.65156	10.53147	10.37450	10.07741	3.22036	2.87642	2.60652	16.15886	14.36266	12.83497
50480	2.21188	2.36793	1.95899	12.39951	11.99703	11.62933	7.00118	5.20359	3.65726	10.53221	10.37851	10.08202	3.21850	2.87574	2.60430	16.15651	14.36081	12.83375
50640	2.20905	2.36633	1.95853	12.39880	11.99727	11.63470	7.00204	5.20322	3.65827	10.53483	10.38202	10.08325	3.21860	2.87561	2.60306	16.15788	14.36481	12.83748
50810	2.20986	2.36723	1.95583	12.40112	11.99708	11.62853	6.98855	5.20170	3.65304	10.53176	10.37875	10.08338	3.22000	2.87499	2.60286	16.16513	14.36813	12.83921
50970	2.21165	2.36786	1.95875	12.40361	11.99944	11.63338	6.99695	5.19963	3.65325	10.53544	10.38171	10.08446	3.21665	2.87328	2.60256	16.16699	14.36478	12.83736
51130	2.20842	2.36373	1.95605	12.40484	11.99948	11.63290	7.00104	5.20256	3.65423	10.53613	10.38463	10.08305	3.21726	2.87221	2.60197	16.16436	14.36492	12.83828	34.99	6.1	0.00	-2.04	0.01731	0.01199	0.01517	0.01826	0.01889	0.01477	0.00546	0.01514	0.02004	0.01857	0.01287	0.01639	0.01705	0.01762	0.01377	0.00574	0.01613	0.02147
51300	2.20756	2.36337	1.95543	12.40266	11.99852	11.63131	7.00266	5.19907	3.65331	10.53380	10.38171	10.08526	3.21463	2.87233	2.60119	16.16073	14.36130	12.83442
51460	2.20846	2.36821	1.95848	12.40481	12.00184	11.63512	6.98722	5.20639	3.65749	10.53787	10.38695	10.08655	3.22041	2.87617	2.60330	16.16749	14.36712	12.83887
51630	2.21053	2.36391	1.95563	12.40402	11.99958	11.63345	6.98689	5.19948	3.65346	10.53759	10.38418	10.08636	3.21692	2.87541	2.60750	16.17132	14.37082	12.84085
51790	2.21098	2.36401	1.95857	12.40517	12.00216	11.63390	6.98912	5.20313	3.65240	10.53929	10.38399	10.08596	3.21864	2.87436	2.60314	16.16828	14.36715	12.83848
51950	2.20778	2.36643	1.95711	12.40572	12.00199	11.63479	7.00546	5.20297	3.65443	10.54013	10.38476	10.08809	3.21730	2.87141	2.60085	16.16847	14.36614	12.83934
52120	2.20895	2.36640	1.95677	12.40545	12.00216	11.63314	6.99843	5.20101	3.65300	10.53853	10.38293	10.08869	3.21730	2.87351	2.60339	16.17014	14.36895	12.84161
52280	2.20942	2.36887	1.95697	12.40814	12.00545	11.63792	7.00057	5.20403	3.65627	10.54231	10.38847	10.08883	3.21975	2.87362	2.60256	16.16651	14.37025	12.84178
52450	2.21085	2.36964	1.95795	12.40894	12.00407	11.64039	7.00680	5.20582	3.65562	10.54282	10.38829	10.09114	3.21928	2.87513	2.60263	16.17033	14.37077	12.84198
52610	2.20963	2.36668	1.95724	12.40860	12.00383	11.63475	7.00527	5.20099	3.65371	10.54049	10.38675	10.08913	3.21789	2.87595	2.60558	16.17416	14.37175	12.84277
52780	2.20984	2.36967	1.95946	12.41051	12.00647	11.64076	7.00137	5.20148	3.65562	10.54367	10.38807	10.09212	3.21964	2.87928	2.60810	16.16899	14.37460	12.84992	34.94	5.9	0.00	-2.04	0.01731	0.01199	0.01517	0.01826	0.01889	0.01477	0.00546	0.01514	0.02004	0.01857	0.01287	0.01639	0.01705	0.01762	0.01377	0.00574	0.01613	0.02147
52940	2.21397	2.37123	1.96157	12.41680	12.01141	11.64440	7.00099	5.20948	3.65720	10.54844	10.39297	10.09584	3.22125	2.87664	2.60598	16.17174	14.37675	12.84698
53110	2.20971	2.36531	1.95659	12.41339	12.00898	11.64115	6.98551	5.20185	3.65390	10.54611	10.39202	10.09482	3.21875	2.87220	2.60322	16.17076	14.37231	12.84630
53270	2.20913	2.36639	1.95792	12.41238	12.00988	11.64214	6.99914	5.20092	3.65450	10.54876	10.39356	10.09592	3.21713	2.87274	2.60292	16.17448	14.37397	12.84828
53440	2.21042	2.36436	1.95770	12.41572	12.01074	11.64420	6.98869	5.19711	3.65420	10.54777	10.39278	10.09452	3.21749	2.87453	2.60419	16.17193	14.37539	12.85099
53600	2.21137	2.36605	1.95863	12.41617	12.01170	11.64574	7.00289	5.20031	3.65496	10.54969	10.39313	10.09779	3.21681	2.87494	2.60257	16.17635	14.37899	12.84944
53770	2.20986	2.36801	1.95732	12.41777	12.01405	11.64887	6.99524	5.20432	3.65697	10.55160	10.39601	10.09857	3.21839	2.87593	2.60285	16.17272	14.38021	12.85249
53930	2.20895	2.36697	1.95591	12.41621	12.01209	11.64700	6.98973	5.19927	3.65225	10.55082	10.39605	10.09662	3.21835	2.87655	2.60638	16.18047	14.38291	12.85406
54100	2.21219	2.36842	1.95897	12.41834	12.01518	11.64803	6.99230	5.20270	3.65670	10.55192	10.39780	10.10047	3.21696	2.87507	2.60374	16.17929	14.37885	12.85269
54260	2.21034	2.36908	1.96027	12.42147	12.01912	11.65345	7.00322	5.20684	3.65805	10.55778	10.40138	10.10404	3.22074	2.87681	2.60714	16.17733	14.38520	12.85899
54430	2.21119	2.36794	1.95722	12.42262	12.01817	11.65262	6.99729	5.20178	3.65480	10.55375	10.39965	10.10280	3.21857	2.87479	2.60304	16.18241	14.38037	12.85628	34.94	6.2	0.00	-2.04	0.01731	0.01199	0.01517	0.01826	0.01889	0.01477	0.00546	0.01514	0.02004	0.01857	0.01287	0.01639	0.01705	0.01762	0.01377	0.00574	0.01613	0.02147
54590	2.20996	2.36433	1.95646	12.42028	12.01522	11.64797	6.98448	5.20003	3.65069	10.55204	10.39531	10.09991	3.21457	2.87391	2.60342	16.17652	14.38013	12.85791
54760	2.21121	2.36636	1.96053	12.41914	12.01719	11.64898	6.99772	5.20278	3.65549	10.55473	10.39922	10.10141	3.21761	2.87385	2.60095	16.17544	14.38440	12.85563
54920	2.21108	2.36850	1.95978	12.42273	12.02111	11.65514	7.00376	5.20638	3.65673	10.55722	10.40233	10.10548	3.21774	2.87294	2.60324	16.19233	14.38857	12.86010
55090	2.20943	2.36384	1.95801	12.42200	12.01964	11.65312	6.99630	5.20448	3.65548	10.55532	10.40091	10.10328	3.21743	2.87456	2.60210	16.18182	14.38664	12.85899
55250	2.20807	2.36491	1.95736	12.42272	12.01826	11.65166	7.00314	5.20131	3.65379	10.55631	10.40153	10.10483	3.21629	2.87381	2.60122	16.18172	14.38372	12.85892
55420	2.20911	2.36663	1.95674	12.42464	12.01991	11.65347	6.99359	5.20066	3.65398	10.55698	10.40274	10.10497	3.21815	2.87410	2.60600	16.18418	14.38915	12.86102
55580	2.21038	2.36695	1.95768	12.42578	12.02251	11.65677	6.99710	5.20200	3.65730	10.55960	10.40437	10.10797	3.21833	2.87630	2.60301	16.18477	14.38669	12.86064
55750	2.21005	2.36584	1.95962	12.42602	12.02211	11.65563	6.99872	5.20497	3.65732	10.56110	10.40616	10.10927	3.22021	2.87591	2.60256	16.18349	14.39013	12.86327
55910	2.21175	2.36566	1.95714	12.42681	12.02213	11.65652	6.99501	5.20068	3.65387	10.55995	10.40357	10.10672	3.21920	2.87530	2.60360	16.18997	14.39217	12.86441
56080	2.21243	2.36634	1.95934	12.42944	12.02496	11.65912	6.99838	5.20644	3.65486	10.56021	10.40569	10.10974	3.21719	2.87275	2.60275	16.18084	14.39163	12.86303	34.94	5.9	0.00	-2.04	0.01731	0.01199	0.01517	0.01826	0.01889	0.01477	0.00546	0.01514	0.02004	0.01857	0.01287	0.01639	0.01705	0.01762	0.01377	0.00574	0.01613	0.02147
56240	2.20956	2.36556	1.96035	12.42799	12.02384	11.65794	6.99520	5.20725	3.65719	10.56150	10.40483	10.10952	3.22064	2.87463	2.60489	16.19076	14.39430	12.86405
56400	2.21125	2.36583	1.95943	12.42713	12.02288	11.65458	6.99002	5.20083	3.65320	10.55931	10.40450	10.10715	3.21775	2.87438	2.60390	16.18870	14.39409	12.86448
56570	2.21194	2.36639	1.95834	12.42856	12.02354	11.65613	7.00028	5.20684	3.65442	10.56014	10.40359	10.10869	3.21748	2.87284	2.60202	16.19184	14.38907	12.86127
56730	2.20750	2.36647	1.95757	12.42751	12.02362	11.65780	6.99876	5.20287	3.65260	10.56182	10.40625	10.10892	3.21852	2.87501	2.60260	16.18693	14.39035	12.86263
56900	2.21052	2.36721	1.95733	12.42867	12.02264	11.65660	6.99872	5.19765	3.65425	10.55969	10.40544	10.10849	3.21503	2.87202	2.60202	16.18733	14.38757	12.86002
57060	2.21307	2.36958	1.96101	12.43056	12.02770	11.66104	7.01032	5.20614	3.65877	10.56642	10.40754	10.11126	3.22084	2.87539	2.60406	16.19538	14.39482	12.86746
57230	2.21179	2.36492	1.95981	12.43164	12.02423	11.65840	6.99278	5.20168	3.65620	10.56154	10.40627	10.11019	3.21822	2.87497	2.60427	16.18831	14.40014	12.86921
57390	2.21185	2.36671	1.95868	12.43328	12.02672	11.66110	7.00361	5.20433	3.65617	10.56483	10.40977	10.11158	3.21759	2.87254	2.60230	16.18762	14.39398	12.86584
57550	2.21058	2.36713	1.95830	12.43205	12.02634	11.66168	7.00133	5.20284	3.65493	10.56464	10.41166	10.11238	3.21795	2.87165	2.60316	16.19528	14.39310	12.86602
57720	2.20979	2.36736	1.95549	12.43040	12.02520	11.65951	6.98837	5.20149	3.65361	10.56351	10.40991	10.11185	3.21499	2.87036	2.60091	16.18500	14.39226	12.86422	34.94	6.0	0.00	-2.04	0.01731	0.01199	0.01517	0.01826	0.01889	0.01477	0.00546	0.01514	0.02004	0.01857	0.01287	0.01639	0.01705	0.01762	0.01376	0.00574	0.01613	0.02147
57880	2.21008	2.36700	1.95831	12.43494	12.02865	11.66273	6.99587	5.20614	3.65706	10.56753	10.41343	10.11547	3.21949	2.87350	2.60218	16.20052	14.39641	12.86915
58050	2.21165	2.36716	1.95638	12.43336	12.02780	11.65850	6.99246	5.20100	3.65125	10.56509	10.41106	10.11421	3.21764	2.87561	2.60533	16.19679	14.39865	12.86840
58210	2.21202	2.36790	1.95670	12.43475	12.02899	11.66265	6.99492	5.19814	3.65277	10.56672	10.41265	10.11566	3.21689	2.87192	2.59954	16.19030	14.39354	12.86715
58370	2.21015	2.36652	1.95743	12.43674	12.03015	11.66258	6.99896	5.20636	3.65327	10.56894	10.41417	10.11831	3.21587	2.87138	2.60045	16.18843	14.39521	12.86826
58540	2.20861	2.36516	1.95806	12.43521	12.02971	11.66097	6.99302	5.19970	3.65269	10.56658	10.41308	10.11536	3.21803	2.87188	2.60419	16.18696	14.39867	12.86913
58700	2.20925	2.36550	1.95598	12.43508	12.03114	11.66304	6.98932	5.20311	3.65331	10.56827	10.41558	10.11846	3.21750	2.87381	2.60323	16.19816	14.40108	12.87248
58870	2.21251	2.36878	1.95898	12.44015	12.03487	11.66745	6.99412	5.20344	3.65496	10.57110	10.41762	10.11921	3.21822	2.87312	2.60168	16.20337	14.39783	12.87080
59030	2.20773	2.36737	1.95977	12.43648	12.03382	11.66750	6.99958	5.20638	3.65881	10.57309	10.42061	10.12184	3.21988	2.87300	2.60317	16.20092	14.40280	12.87253
59200	2.20973	2.36500	1.95534	12.43811	12.03247	11.66667	6.98429	5.20032	3.65261	10.57045	10.41489	10.11962	3.21787	2.87638	2.60401	16.20879	14.40676	12.87779
59360	2.21227	2.36682	1.95997	12.44384	12.03683	11.67022	7.00443	5.20397	3.65594	10.57342	10.41866	10.12206	3.21957	2.87464	2.60244	16.19480	14.40058	12.87288	34.94	6.1	0.00	-2.04	0.01730	0.01199	0.01517	0.01826	0.01889	0.01477	0.00546	0.01514	0.02004	0.01857	0.01287	0.01639	0.01705	0.01762	0.01376	0.00574	0.01613	0.02147
59530	2.20795	2.36651	1.95697	12.43879	12.03385	11.66673	6.99218	5.20066	3.65178	10.57089	10.41775	10.11972	3.21968	2.87460	2.60006	16.19509	14.40181	12.87280
59690	2.20904	2.36350	1.95620	12.43811	12.03309	11.66438	7.00391	5.19629	3.65177	10.57004	10.41573	10.11844	3.22051	2.87582	2.60402	16.19883	14.40244	12.87616
59860	2.21198	2.36771	1.95874	12.44421	12.03664	11.66758	6.99023	5.20308	3.65416	10.57299	10.41909	10.12108	3.21784	2.87108	2.59975	16.20080	14.40165	12.87360
60020	2.20989	2.36548	1.95816	12.44018	12.03524	11.66846	7.00016	5.20180	3.65322	10.57184	10.41907	10.11996	3.21763	2.87083	2.60185	16.20099	14.40132	12.87278
60190	2.21054	2.36648	1.95738	12.44371	12.03664	11.67007	6.99474	5.20136	3.65472	10.57474	10.42161	10.12216	3.21769	2.87354	2.60089	16.19853	14.40107	12.87447
60350	2.20855	2.36413	1.95569	12.44219	12.03453	11.67028	6.99075	5.20027	3.64951	10.57274	10.41967	10.12171	3.21708	2.87224	2.60511	16.20040	14.40522	12.87876
60520	2.21120	2.36924	1.95891	12.44612	12.04103	11.67237	6.98866	5.20048	3.65361	10.57713	10.42429	10.12631	3.21653	2.87253	2.60127	16.20601	14.40779	12.87742
60680	2.20883	2.36695	1.95848	12.44535	12.03901	11.66935	6.99925	5.19905	3.65250	10.57501	10.42128	10.12616	3.21622	2.86951	2.59823	16.20798	14.40375	12.87608
60850	2.20903	2.36568	1.95801	12.44757	12.04270	11.67336	7.00439	5.20704	3.65827	10.57650	10.42623	10.12637	3.22147	2.87301	2.60185	16.20975	14.41061	12.88106
61020	2.20705	2.36332	1.95456	12.44620	12.04073	11.67159	6.98161	5.19966	3.64981	10.57379	10.42176	10.12324	3.21824	2.87422	2.60113	16.19953	14.40477	12.87711	34.88	6.1	0.00	-2.04	0.01730	0.01199	0.01517	0.01826	0.01889	0.01477	0.00546	0.01514	0.02004	0.01857	0.01287	0.01639	0.01705	0.01762	0.01376	0.00574	0.01613	0.02147
61180	2.20849	2.36297	1.95529	12.44567	12.04112	11.67256	6.99077	5.19590	3.65314	10.57481	10.42473	10.12516	3.21763	2.87274	2.60081	16.19756	14.40540	12.87946
61350	2.20957	2.36588	1.95526	12.44734	12.04237	11.67250	6.99067	5.19768	3.65210	10.57540	10.42459	10.12502	3.21895	2.87393	2.60561	16.20878	14.40917	12.88267
61510	2.21140	2.36806	1.95777	12.45192	12.04586	11.67504	6.99443	5.20217	3.65628	10.57697	10.42723	10.12748	3.21886	2.87140	2.60260	16.20573	14.40810	12.88128
61680	2.20914	2.36504	1.95568	12.44885	12.04263	11.67347	6.99196	5.19830	3.64943	10.57476	10.42587	10.12653	3.21510	2.87022	2.59836	16.20346	14.40340	12.87865
61840	2.20865	2.36428	1.95577	12.44714	12.04359	11.67502	6.99272	5.20158	3.65373	10.57700	10.42436	10.12730	3.21742	2.87139	2.59876	16.20376	14.40608	12.87863
62010	2.20583	2.36345	1.95491	12.44747	12.04082	11.67147	6.99409	5.19291	3.65008	10.57399	10.42253	10.12456	3.21747	2.87274	2.60249	16.20868	14.40906	12.88438
62170	2.20931	2.36677	1.95750	12.45201	12.04529	11.67694	6.99124	5.19999	3.65393	10.57691	10.42758	10.12849	3.21614	2.87095	2.59912	16.20179	14.40783	12.88068
62340	2.20855	2.36387	1.95587	12.44791	12.04164	11.67399	6.99709	5.20016	3.65044	10.57654	10.42636	10.12773	3.21517	2.87012	2.59726	16.20494	14.40802	12.87949
62500	2.20807	2.36439	1.95569	12.44999	12.04554	11.67705	6.99504	5.20089	3.65132	10.57928	10.42804	10.12947	3.21714	2.86916	2.60067	16.21104	14.41168	12.88342
62670	2.20549	2.36377	1.95391	12.45000	12.04400	11.67507	6.98121	5.19638	3.64970	10.57887	10.42752	10.12713	3.21589	2.87079	2.60130	16.20382	14.41151	12.88454	34.94	6.0	0.00	-2.04	0.01730	0.01199	0.01517	0.01826	0.01889	0.01477	0.00546	0.01514	0.02004	0.01857	0.01287	0.01639	0.01704	0.01762	0.01376	0.00574	0.01613	0.02147
62830	2.20841	2.36408	1.95671	12.45360	12.04773	11.67929	6.98738	5.19969	3.65247	10.58180	10.43061	10.13057	3.21691	2.87061	2.59985	16.20628	14.41015	12.88385
63000	2.20741	2.36514	1.95665	12.45283	12.04810	11.68007	6.98278	5.19819	3.65299	10.57985	10.42948	10.13208	3.21454	2.87079	2.60015	16.20559	14.40900	12.88333
63160	2.20903	2.36669	1.95780	12.45349	12.04820	11.68152	6.98800	5.19751	3.65438	10.58350	10.43357	10.13355	3.21630	2.87256	2.59980	16.20313	14.41244	12.88436
63330	2.21064	2.36358	1.95656	12.45128	12.04698	11.67604	6.99289	5.19650	3.65067	10.57992	10.42805	10.13198	3.21698	2.87278	2.60167	16.21091	14.41370	12.88666
63490	2.21156	2.36740	1.95835	12.45480	12.04864	11.68071	6.99636	5.19876	3.65224	10.58445	10.43187	10.13311	3.21621	2.87279	2.60217	16.20205	14.41132	12.88471
63660	2.20584	2.36686	1.95618	12.45362	12.04752	11.67904	6.98710	5.19968	3.64915	10.58273	10.43220	10.13316	3.21819	2.87431	2.60263	16.21012	14.41619	12.88855
63820	2.21100	2.36793	1.95899	12.45655	12.05102	11.68297	7.00016	5.20050	3.65519	10.58458	10.43501	10.13544	3.21889	2.87410	2.60062	16.20746	14.41236	12.88620
63990	2.20833	2.36486	1.95673	12.45443	12.04647	11.67964	6.98828	5.19896	3.65095	10.58174	10.43113	10.13255	3.21758	2.87215	2.59932	16.21248	14.41132	12.88438
64150	2.20865	2.36420	1.95407	12.45187	12.04707	11.67885	6.99479	5.19762	3.65197	10.58309	10.43241	10.13273	3.21994	2.87400	2.60317	16.21258	14.41651	12.88977
64320	2.21233	2.36555	1.95813	12.45790	12.05240	11.68599	6.99182	5.20146	3.65673	10.58687	10.43453	10.13656	3.21868	2.87470	2.59930	16.20630	14.41556	12.88708	34.94	6.1	0.00	-2.04	0.01730	0.01198	0.01517	0.01826	0.01889	0.01477	0.00546	0.01514	0.02004	0.01857	0.01287	0.01639	0.01704	0.01762	0.01376	0.00574	0.01613	0.02147
64480	2.20742	2.36434	1.95462	12.45440	12.04877	11.68245	7.00099	5.19710	3.65105	10.58403	10.43384	10.13517	3.21352	2.87017	2.59948	16.20630	14.41165	12.88558
64650	2.20485	2.35895	1.95351	12.45326	12.04721	11.67970	7.00061	5.19356	3.64649	10.58345	10.43190	10.13469	3.21541	2.87279	2.60280	16.20787	14.41780	12.89173
64810	2.20922	2.36419	1.95658	12.45788	12.05179	11.68456	6.99139	5.19692	3.65130	10.58829	10.43599	10.13793	3.21411	2.86799	2.59898	16.21260	14.41277	12.88883
64970	2.20888	2.36775	1.95704	12.46025	12.05528	11.68822	6.98959	5.20429	3.65443	10.59209	10.44153	10.14171	3.22021	2.87351	2.60380	16.21516	14.42116	12.89251
65140	2.20945	2.36135	1.95383	12.45876	12.05217	11.68824	6.98375	5.19757	3.65084	10.58917	10.43746	10.13845	3.21464	2.87093	2.59859	16.21506	14.41927	12.89135
65300	2.20718	2.36511	1.95483	12.45906	12.05502	11.68729	6.98983	5.19764	3.64828	10.58944	10.43764	10.13940	3.21333	2.86888	2.59705	16.21260	14.41452	12.88958
65470	2.20709	2.36426	1.95745	12.46000	12.05574	11.68797	6.99643	5.20045	3.65241	10.59099	10.44089	10.14089	3.21755	2.86946	2.60106	16.21634	14.41673	12.89230
65630	2.20781	2.36171	1.95563	12.46025	12.05409	11.68762	6.98176	5.19878	3.65246	10.58991	10.43965	10.14001	3.21342	2.87003	2.59780	16.21161	14.41471	12.88928
65800	2.20720	2.36472	1.95798	12.46158	12.05892	11.69161	6.98921	5.20118	3.65351	10.59366	10.44134	10.14213	3.21721	2.87364	2.60114	16.21930	14.42029	12.89188
65960	2.20881	2.36557	1.95553	12.45937	12.05446	11.68717	6.99261	5.19300	3.64907	10.59029	10.43885	10.13924	3.21661	2.87080	2.60280	16.21007	14.41929	12.89253	34.94	6.1	0.00	-2.04	0.01730	0.01198	0.01517	0.01826	0.01889	0.01477	0.00546	0.01514	0.02004	0.01857	0.01287	0.01639	0.01704	0.01762	0.01376	0.00574	0.01613	0.02147
66120	2.20545	2.36264	1.95598	12.46025	12.05665	11.68767	6.99337	5.19644	3.65085	10.59020	10.44111	10.14105	3.21433	2.86855	2.59556	16.21253	14.41415	12.88969
66290	2.20757	2.36594	1.95612	12.46359	12.05758	11.69094	6.99370	5.19883	3.65126	10.59357	10.44309	10.14488	3.21716	2.87104	2.59996	16.22129	14.42028	12.89332
66450	2.20715	2.36315	1.95470	12.46287	12.05818	11.68788	6.98928	5.19579	3.64749	10.59054	10.44092	10.14244	3.21636	2.87040	2.60105	16.22011	14.41905	12.89452
66620	2.20673	2.36375	1.95289	12.46471	12.05959	11.69098	6.98966	5.19793	3.65070	10.59300	10.44299	10.14249	3.21619	2.87058	2.60121	16.21400	14.42228	12.89510
66780	2.20545	2.36338	1.95508	12.46631	12.06149	11.69241	6.98862	5.19967	3.65317	10.59469	10.44576	10.14522	3.21659	2.87145	2.59941	16.22011	14.41938	12.89415
66950	2.20699	2.36138	1.95383	12.46504	12.06054	11.69230	6.99451	5.20141	3.64986	10.59460	10.44634	10.14438	3.21403	2.86942	2.59443	16.21834	14.41970	12.89435
67110	2.20619	2.36435	1.95603	12.46456	12.06013	11.69114	6.99156	5.19669	3.65007	10.59287	10.44383	10.14361	3.21224	2.86991	2.60133	16.22129	14.42178	12.89647
67280	2.20556	2.36072	1.95312	12.46884	12.06272	11.69241	6.98397	5.19489	3.65067	10.59545	10.44611	10.14544	3.21501	2.87000	2.59804	16.21272	14.42441	12.89865
67440	2.20440	2.36235	1.95485	12.46843	12.06342	11.69524	6.98520	5.19575	3.65037	10.59615	10.44754	10.14676	3.21513	2.87079	2.60073	16.21903	14.42583	12.90076
67610	2.20638	2.36472	1.95548	12.46807	12.06191	11.69336	6.98918	5.19674	3.64837	10.59447	10.44619	10.14601	3.21511	2.86978	2.60239	16.21431	14.42611	12.90156	34.94	6.1	0.00	-2.04	0.01730	0.01198	0.01517	0.01826	0.01889	0.01477	0.00546	0.01514	0.02004	0.01857	0.01287	0.01639	0.01704	0.01762	0.01376	0.00574	0.01613	0.02147
67770	2.20909	2.36604	1.95448	12.47066	12.06422	11.69758	6.99516	5.19812	3.65194	10.59683	10.44561	10.15020	3.21467	2.86808	2.59814	16.21490	14.42546	12.89930
67940	2.20660	2.36506	1.95649	12.47662	12.06807	11.70075	6.99198	5.20346	3.65474	10.60062	10.45194	10.15147	3.21694	2.87175	2.60120	16.22367	14.43025	12.90435
68100	2.20746	2.36437	1.95731	12.47350	12.06816	11.69940	6.99644	5.20152	3.65070	10.59909	10.45118	10.15256	3.21320	2.86858	2.60040	16.21864	14.42735	12.90144
68270	2.20419	2.36301	1.95235	12.47000	12.06368	11.69704	6.98922	5.19295	3.64812	10.59811	10.44975	10.14917	3.21349	2.87038	2.59943	16.22091	14.42863	12.90408
68430	2.20759	2.36392	1.95457	12.47371	12.06666	11.70124	6.99478	5.19825	3.65142	10.60048	10.45225	10.15157	3.21447	2.86787	2.59854	16.22317	14.42860	12.90247
68600	2.20541	2.36632	1.95752	12.47503	12.06895	11.70193	6.99259	5.20004	3.65166	10.60339	10.45434	10.15326	3.21683	2.86855	2.59899	16.22583	14.43238	12.90456
68760	2.20784	2.36337	1.95440	12.47243	12.06705	11.69940	6.98899	5.19368	3.64993	10.60110	10.45151	10.15254	3.21595	2.87119	2.60204	16.23471	14.43457	12.90950
68930	2.21015	2.36605	1.95763	12.47537	12.07038	11.70224	6.99934	5.20035	3.65164	10.60444	10.45459	10.15387	3.21682	2.87250	2.59952	16.22465	14.43244	12.90468
69090	2.20570	2.36337	1.95575	12.47443	12.06938	11.70166	6.98642	5.19615	3.65087	10.60314	10.45343	10.15358	3.21407	2.86841	2.59688	16.23461	14.43090	12.90450
69260	2.20655	2.36231	1.95473	12.47660	12.07128	11.70189	6.99238	5.19787	3.65341	10.60533	10.45525	10.15512	3.21119	2.87140	2.59870	16.22692	14.43290	12.90634	34.94	6.1	0.00	-2.04	0.01730	0.01198	0.01517	0.01826	0.01889	0.01477	0.00546	0.01513	0.02004	0.01857	0.01287	0.01639	0.01704	0.01762	0.01376	0.00574	0.01613	0.02147
69420	2.20469	2.36302	1.95237	12.47511	12.06801	11.70007	6.98303	5.19819	3.64755	10.60338	10.45340	10.15380	3.21228	2.87083	2.59911	16.23245	14.43161	12.90835
69590	2.20694	2.36413	1.95733	12.47725	12.07060	11.70266	6.98013	5.19823	3.65066	10.60506	10.45438	10.15561	3.21723	2.87228	2.60211	16.23452	14.43802	12.91086
69750	2.20998	2.36490	1.95750	12.48025	12.07364	11.70448	7.00108	5.20074	3.65295	10.60631	10.45696	10.15853	3.21663	2.87073	2.59871	16.22801	14.43492	12.90890
69920	2.20544	2.36420	1.95461	12.47751	12.07344	11.70382	6.99333	5.19496	3.64988	10.60599	10.45533	10.15611	3.21356	2.87021	2.60057	16.22298	14.43262	12.90769
70080	2.20701	2.36533	1.95674	12.47625	12.07125	11.70243	6.99333	5.19803	3.65275	10.60529	10.45578	10.15745	3.21542	2.86852	2.60034	16.23472	14.43640	12.90963
70250	2.20816	2.36381	1.95504	12.47692	12.07173	11.70334	6.98459	5.19496	3.64906	10.60495	10.45605	10.15529	3.21632	2.87173	2.59862	16.23215	14.43815	12.91242
70410	2.20867	2.36706	1.95485	12.48060	12.07497	11.70595	6.99537	5.19990	3.64963	10.60711	10.45725	10.15797	3.21378	2.86866	2.59481	16.22978	14.43709	12.90986
70580	2.20610	2.36895	1.95781	12.48230	12.07587	11.70802	6.99742	5.20112	3.65462	10.60914	10.45953	10.16121	3.21711	2.87132	2.59890	16.23314	14.44290	12.91289
70740	2.20624	2.36197	1.95503	12.48025	12.07431	11.70531	6.99039	5.19702	3.65000	10.60670	10.45789	10.15794	3.21361	2.86726	2.59570	16.22732	14.43731	12.90995
70910	2.20258	2.36292	1.95373	12.47819	12.07187	11.70350	6.98502	5.19583	3.65020	10.60424	10.45553	10.15551	3.21426	2.87048	2.59902	16.22741	14.43753	12.91067	34.94	6.1	0.00	-2.04	0.01730	0.01198	0.01517	0.01826	0.01889	0.01477	0.00546	0.01513	0.02004	0.01857	0.01287	0.01639	0.01704	0.01762	0.01376	0.00574	0.01613	0.02147
71070	2.20356	2.36242	1.95336	12.47948	12.07439	11.70305	6.97971	5.19707	3.64985	10.60427	10.45662	10.15611	3.21180	2.86929	2.59755	16.22977	14.43655	12.90965
71240	2.20602	2.36331	1.95491	12.47927	12.07466	11.70640	6.99556	5.19650	3.65221	10.60593	10.45956	10.15695	3.21388	2.86826	2.59599	16.23332	14.43603	12.90995
71400	2.20387	2.36231	1.95193	12.47789	12.07204	11.70330	6.98521	5.19245	3.64705	10.60395	10.45474	10.15496	3.21258	2.86998	2.60037	16.23046	14.43594	12.91060
71570	2.20639	2.36419	1.95587	12.48099	12.07405	11.70452	6.98868	5.19655	3.64740	10.60587	10.45751	10.15674	3.21317	2.86756	2.59793	16.22967	14.43510	12.91083
71730	2.20454	2.36372	1.95543	12.47890	12.07367	11.70593	6.98540	5.19753	3.65274	10.60649	10.45691	10.15840	3.21194	2.86688	2.59604	16.23254	14.43496	12.91018
71900	2.20413	2.36393	1.95531	12.48239	12.07595	11.70566	6.99181	5.19911	3.65344	10.60777	10.45909	10.16002	3.21315	2.86967	2.59826	16.23638	14.43830	12.91337
72060	2.20453	2.36179	1.95437	12.48081	12.07515	11.70522	6.99309	5.19648	3.64889	10.60739	10.45813	10.15910	3.21325	2.86794	2.59862	16.23431	14.43937	12.90982
72230	2.20334	2.36384	1.95417	12.48234	12.07626	11.70636	6.98958	5.19792	3.64942	10.61018	10.46035	10.15965	3.21234	2.87103	2.59594	16.23411	14.43775	12.91193
72390	2.20393	2.36422	1.95404	12.48141	12.07558	11.70593	6.98085	5.19217	3.64711	10.60828	10.45718	10.15917	3.21295	2.86976	2.59653	16.24517	14.44170	12.91494
72560	2.20638	2.36291	1.95264	12.48412	12.07758	11.70974	6.98215	5.19473	3.64759	10.60905	10.45978	10.16030	3.21100	2.86769	2.59447	16.23650	14.43927	12.91341	34.94	6.1	0.00	-2.04	0.01730	0.01198	0.01517	0.01826	0.01889	0.01477	0.00546	0.01513	0.02004	0.01857	0.01287	0.01639	0.01704	0.01762	0.01376	0.00574	0.01613	0.02147
72720	2.20401	2.36243	1.95226	12.48311	12.07675	11.70699	6.98115	5.19232	3.64849	10.60969	10.45850	10.15957	3.20985	2.86871	2.59526	16.22979	14.43921	12.91434
72890	2.20282	2.36112	1.95345	12.48255	12.07882	11.70821	6.99164	5.19771	3.64812	10.61188	10.45964	10.16144	3.21231	2.86765	2.59699	16.23700	14.43908	12.91576
73050	2.20099	2.36012	1.95123	12.48277	12.07712	11.70891	6.98200	5.19523	3.64596	10.60972	10.46011	10.16048	3.21324	2.87035	2.59549	16.23749	14.44664	12.91873
73220	2.20280	2.36083	1.95268	12.48551	12.07899	11.71018	6.97911	5.19164	3.64891	10.61172	10.46034	10.16048	3.21231	2.86869	2.59381	16.23384	14.44215	12.91451
73380	2.20449	2.36092	1.95272	12.48466	12.07855	11.71026	6.98713	5.19564	3.64815	10.61198	10.46133	10.16259	3.21065	2.86645	2.59384	16.24144	14.44324	12.91431
73550	2.20462	2.36214	1.95321	12.48414	12.08034	11.71080	6.98680	5.19386	3.64950	10.61382	10.46133	10.16333	3.21222	2.86830	2.59386	16.23838	14.44541	12.91784
73710	2.20179	2.36116	1.95096	12.48274	12.07558	11.70836	6.98466	5.19000	3.64277	10.61055	10.46034	10.16192	3.21339	2.87061	2.59894	16.25211	14.44782	12.92183
73880	2.20516	2.36374	1.95292	12.48691	12.08306	11.71501	6.99487	5.19362	3.64831	10.61429	10.46233	10.16424	3.21141	2.86565	2.59435	16.24578	14.44519	12.91910
74040	2.20217	2.35969	1.95251	12.48595	12.08061	11.71211	6.98039	5.19115	3.64775	10.61230	10.46247	10.16402	3.21224	2.86391	2.59378	16.23719	14.44385	12.91670
74210	2.20315	2.36124	1.95361	12.48710	12.08241	11.71604	6.98510	5.19738	3.65086	10.61538	10.46433	10.16496	3.21498	2.86656	2.59811	16.24213	14.44744	12.91982	34.94	6.2	0.00	-2.04	0.01730	0.01198	0.01517	0.01826	0.01889	0.01477	0.00546	0.01513	0.02004	0.01857	0.01287	0.01639	0.01704	0.01762	0.01376	0.00574	0.01613	0.02147
74370	2.20197	2.36055	1.95157	12.48519	12.08022	11.71130	6.99061	5.19134	3.64578	10.61416	10.46208	10.16270	3.21042	2.86431	2.59367	16.24302	14.44544	12.91826
74540	2.20233	2.36110	1.95459	12.48558	12.07895	11.71040	6.98804	5.19548	3.64570	10.61381	10.46338	10.16355	3.20957	2.86504	2.59568	16.23818	14.44417	12.91929
74700	2.20434	2.36139	1.95021	12.48730	12.07956	11.71237	6.98928	5.19374	3.64719	10.61332	10.46199	10.16434	3.21185	2.86613	2.59726	16.24707	14.45043	12.92246
74870	2.20592	2.36242	1.95311	12.49007	12.08416	11.71617	6.98249	5.19488	3.64613	10.61616	10.46477	10.16610	3.21148	2.86455	2.59525	16.24618	14.44741	12.91930
75040	2.20304	2.36096	1.95416	12.48809	12.08384	11.71802	6.99108	5.19851	3.64954	10.61820	10.46750	10.16923	3.21179	2.87019	2.59800	16.24707	14.45185	12.92385
75200	2.20317	2.36020	1.95264	12.49240	12.08403	11.71735	6.98538	5.19231	3.64802	10.61700	10.46537	10.16756	3.21041	2.86774	2.59824	16.25527	14.45158	12.92235
75370	2.20282	2.36079	1.95135	12.48911	12.08274	11.71397	6.97471	5.19083	3.64442	10.61442	10.46539	10.16550	3.21214	2.86930	2.59963	16.24559	14.45561	12.92528
75530	2.20653	2.36394	1.95539	12.49332	12.08556	11.71773	6.98647	5.19141	3.64794	10.61775	10.46713	10.16913	3.21237	2.86759	2.59675	16.25389	14.45446	12.92458
75700	2.20438	2.36394	1.95425	12.49055	12.08372	11.71710	6.98543	5.19279	3.64591	10.61895	10.46529	10.16834	3.20993	2.86737	2.59539	16.24835	14.44993	12.92265
75860	2.20288	2.36248	1.95531	12.49197	12.08716	11.71828	6.98573	5.19246	3.64697	10.62037	10.46726	10.16909	3.20924	2.86551	2.59471	16.24599	14.45401	12.92560	34.94	6.2	0.00	-2.04	0.01730	0.01198	0.01517	0.01826	0.01889	0.01477	0.00546	0.01513	0.02004	0.01857	0.01287	0.01639	0.01704	0.01761	0.01376	0.00574	0.01613	0.02147
76030	2.20059	2.36094	1.95301	12.49112	12.08547	11.71486	6.97971	5.19373	3.64395	10.61674	10.46599	10.16690	3.21176	2.86972	2.59652	16.25607	14.45959	12.92853
76190	2.20534	2.36215	1.95263	12.49672	12.08906	11.71897	6.98094	5.19712	3.64821	10.62083	10.47211	10.17026	3.20944	2.86639	2.59267	16.24717	14.45569	12.92465
