WetView ver 7.1	07-17-2019	12:07:16
AC9 Absorption and Attenuation Meter
00000311		; Serial number
2	; structure version number
Reserved
0.000000	0.000000		; Depth calibration
19200			; Baud rate
0.100000			; Path length (meters)
23			; number of temperature calibration bins
				12.61517	13.44096	14.46844	15.49904	16.50682	17.50108	18.49752	19.51783	20.49177	21.49009	22.48286	23.50673	24.54012	25.54812	26.49986	27.49321	28.50960	29.48671	30.47471	31.49432	32.50437	33.48679	34.49133	; temperature bins
a650	Blue	18.61587		0.01156	0.01096	0.01010	0.00930	0.00851	0.00774	0.00661	0.00573	0.00499	0.00402	0.00285	0.00203	0.00096	0.00000	-0.00110	-0.00152	-0.00210	-0.00247	-0.00259	-0.00317	-0.00346	-0.00380	-0.00403		; offset and temperature correction info
a676	Green	18.78942		0.00964	0.00899	0.00863	0.00813	0.00730	0.00639	0.00545	0.00448	0.00385	0.00301	0.00233	0.00165	0.00046	0.00000	-0.00106	-0.00167	-0.00251	-0.00280	-0.00316	-0.00329	-0.00377	-0.00392	-0.00441		; offset and temperature correction info
a715	Brown	18.59217		0.01171	0.01109	0.01043	0.00975	0.00878	0.00789	0.00685	0.00572	0.00469	0.00356	0.00255	0.00160	0.00061	0.00000	-0.00063	-0.00113	-0.00152	-0.00183	-0.00226	-0.00293	-0.00364	-0.00404	-0.00473		; offset and temperature correction info
c510	Red	18.18396		-0.00549	-0.00480	-0.00383	-0.00272	-0.00202	-0.00118	-0.00044	-0.00038	-0.00015	-0.00021	0.00013	0.00007	-0.00007	0.00000	-0.00007	-0.00065	-0.00045	-0.00018	0.00007	0.00039	-0.00001	-0.00002	-0.00045		; offset and temperature correction info
c532	Magenta	18.26528		-0.00721	-0.00645	-0.00581	-0.00518	-0.00465	-0.00345	-0.00281	-0.00270	-0.00182	-0.00141	-0.00108	-0.00072	-0.00022	0.00000	0.00044	0.00030	0.00031	-0.00006	-0.00052	-0.00089	-0.00142	-0.00149	-0.00154		; offset and temperature correction info
c555	Black	18.37125		-0.00430	-0.00419	-0.00381	-0.00319	-0.00286	-0.00254	-0.00205	-0.00196	-0.00138	-0.00137	-0.00067	-0.00051	-0.00030	0.00000	0.00067	0.00087	0.00057	0.00027	-0.00015	-0.00089	-0.00127	-0.00137	-0.00150		; offset and temperature correction info
a412	LtBlue	15.33566		-0.06011	-0.05567	-0.05012	-0.04441	-0.03922	-0.03412	-0.02941	-0.02503	-0.02049	-0.01588	-0.01121	-0.00784	-0.00311	0.00000	0.00273	0.00611	0.00757	0.00871	0.01066	0.01299	0.01539	0.01781	0.02175		; offset and temperature correction info
a440	LtGreen	16.05925		-0.01380	-0.01214	-0.01039	-0.00858	-0.00690	-0.00532	-0.00426	-0.00322	-0.00230	-0.00158	-0.00055	0.00006	0.00001	0.00000	0.00017	0.00016	-0.00094	-0.00222	-0.00363	-0.00486	-0.00567	-0.00651	-0.00782		; offset and temperature correction info
a488	Yellow	16.82827		0.00255	0.00293	0.00331	0.00354	0.00373	0.00378	0.00363	0.00350	0.00291	0.00225	0.00215	0.00142	0.00099	0.00000	-0.00092	-0.00169	-0.00295	-0.00396	-0.00479	-0.00542	-0.00582	-0.00604	-0.00663		; offset and temperature correction info
c650	Blue	18.49287		-0.00570	-0.00516	-0.00456	-0.00403	-0.00346	-0.00232	-0.00132	-0.00122	-0.00073	-0.00066	-0.00035	-0.00016	0.00003	0.00000	0.00044	0.00078	0.00108	0.00057	0.00040	-0.00042	-0.00033	-0.00029	-0.00034		; offset and temperature correction info
c676	Green	18.50570		0.00299	0.00293	0.00287	0.00293	0.00278	0.00294	0.00317	0.00251	0.00243	0.00215	0.00139	0.00123	0.00068	0.00000	-0.00041	-0.00106	-0.00205	-0.00268	-0.00325	-0.00413	-0.00495	-0.00610	-0.00674		; offset and temperature correction info
c715	Brown	17.88888		0.00826	0.00812	0.00773	0.00790	0.00766	0.00758	0.00753	0.00650	0.00571	0.00461	0.00359	0.00222	0.00101	0.00000	-0.00146	-0.00284	-0.00385	-0.00448	-0.00463	-0.00513	-0.00623	-0.00715	-0.00838		; offset and temperature correction info
a510	Red	17.18050		0.00353	0.00364	0.00354	0.00361	0.00381	0.00381	0.00356	0.00332	0.00277	0.00229	0.00176	0.00116	0.00036	0.00000	-0.00014	-0.00069	-0.00088	-0.00147	-0.00150	-0.00129	-0.00120	-0.00134	-0.00091		; offset and temperature correction info
a532	Magenta	17.40228		0.00550	0.00548	0.00526	0.00479	0.00464	0.00422	0.00393	0.00328	0.00253	0.00212	0.00136	0.00085	0.00039	0.00000	-0.00059	-0.00146	-0.00188	-0.00262	-0.00330	-0.00393	-0.00491	-0.00540	-0.00605		; offset and temperature correction info
a555	Black	17.72308		0.00849	0.00832	0.00800	0.00760	0.00724	0.00655	0.00580	0.00495	0.00435	0.00347	0.00252	0.00153	0.00049	0.00000	-0.00050	-0.00155	-0.00214	-0.00306	-0.00350	-0.00411	-0.00470	-0.00539	-0.00570		; offset and temperature correction info
c412	LtBlue	16.72802		-0.05949	-0.05458	-0.04744	-0.04134	-0.03547	-0.03064	-0.02511	-0.02047	-0.01574	-0.01163	-0.00761	-0.00442	-0.00204	0.00000	0.00100	0.00051	-0.00043	-0.00239	-0.00475	-0.00629	-0.00827	-0.00955	-0.01337		; offset and temperature correction info
c440	LtGreen	17.42637		-0.02723	-0.02503	-0.02216	-0.01930	-0.01691	-0.01394	-0.01125	-0.00926	-0.00732	-0.00582	-0.00401	-0.00226	-0.00093	0.00000	0.00082	0.00123	0.00133	0.00097	0.00038	-0.00003	-0.00022	-0.00023	-0.00125		; offset and temperature correction info
c488	Yellow	18.03666		-0.00640	-0.00554	-0.00465	-0.00357	-0.00276	-0.00154	-0.00067	-0.00031	-0.00014	-0.00012	0.00046	0.00032	0.00020	0.00000	0.00001	-0.00024	-0.00060	-0.00084	-0.00126	-0.00180	-0.00276	-0.00304	-0.00427		; offset and temperature correction info
0.003500	0.004000	0.015000	0.020000	0.015000	0.020000	2500.000000	2000.000000	1000.000000	; maxANoise	maxCNoise	maxADifference	maxCDifference	minACounts	minCCounts	minRCounts	maxTempSdev	maxDepthSdev
0			; auxilliary capabilities
1			; acquisition binsize
0	2.58401	2.55815	2.23582	11.46520	10.69050	9.97122	12.42195	8.39349	5.27888	8.31588	8.14643	7.68536	4.46313	3.83733	3.35024	20.19340	15.83523	12.38430	36.92	6.1	0.00	-2.04	0.01721	0.01194	0.01511	0.01824	0.01885	0.01475	0.00543	0.01506	0.01992	0.01856	0.01290	0.01645	0.01696	0.01752	0.01369	0.00572	0.01610	0.02141
170	2.58772	2.56013	2.23927	11.47537	10.69984	9.98037	12.40180	8.39494	5.28137	8.32181	8.15300	7.69051	4.46454	3.83441	3.34448	20.18253	15.82971	12.38082
330	2.58307	2.55564	2.23547	11.47488	10.70124	9.98339	12.40320	8.39577	5.28121	8.32582	8.15497	7.69522	4.46201	3.83409	3.34592	20.20531	15.83662	12.38548
490	2.58272	2.55434	2.23569	11.48157	10.70447	9.98737	12.42080	8.39209	5.27848	8.32883	8.15808	7.69817	4.46011	3.83161	3.34684	20.20134	15.83555	12.38773
660	2.58337	2.55813	2.23549	11.48538	10.71007	9.99405	12.41027	8.39612	5.28096	8.33574	8.16425	7.70098	4.46008	3.83631	3.34777	20.20399	15.84493	12.39565
820	2.58344	2.55602	2.23360	11.48580	10.70949	9.99484	12.40813	8.38802	5.28038	8.33650	8.16437	7.70131	4.46029	3.83406	3.34535	20.22107	15.84818	12.39891
980	2.58403	2.55299	2.23304	11.48936	10.71332	9.99599	12.38646	8.39068	5.27560	8.33916	8.16841	7.70458	4.45456	3.82586	3.34056	20.20413	15.85024	12.40417
1150	2.58028	2.54901	2.22958	11.49267	10.71298	10.00007	12.39253	8.38194	5.27115	8.34040	8.16944	7.70582	4.45574	3.83342	3.34620	20.20619	15.85546	12.40851
1320	2.58309	2.55843	2.23448	11.49825	10.71973	10.00371	12.40222	8.38671	5.27692	8.34791	8.17554	7.71210	4.45679	3.83157	3.34339	20.21488	15.85580	12.40727
1480	2.58211	2.55516	2.23831	11.49850	10.72031	10.00530	12.40895	8.39314	5.28031	8.35090	8.17784	7.71214	4.45713	3.82967	3.33963	20.20884	15.85552	12.41068
1650	2.57835	2.55410	2.23326	11.50453	10.72449	10.01108	12.39289	8.39069	5.28032	8.35522	8.18160	7.71446	4.45781	3.83340	3.34386	20.22379	15.86056	12.41500	36.92	6.1	0.00	-2.04	0.01721	0.01194	0.01511	0.01824	0.01885	0.01475	0.00543	0.01506	0.01992	0.01856	0.01290	0.01644	0.01696	0.01752	0.01369	0.00572	0.01610	0.02141
1810	2.58158	2.55398	2.23339	11.50534	10.72706	10.01206	12.39354	8.38562	5.27668	8.35613	8.18350	7.71490	4.46121	3.83684	3.34705	20.22497	15.86328	12.41895
1980	2.58196	2.55518	2.23571	11.51114	10.73160	10.01476	12.39322	8.38863	5.27968	8.35878	8.18504	7.71854	4.45964	3.83516	3.34824	20.21583	15.86407	12.41888
2140	2.58177	2.55381	2.23377	11.51271	10.73419	10.01485	12.37960	8.38823	5.27907	8.36073	8.18800	7.72013	4.45709	3.83524	3.34763	20.21701	15.86471	12.42047
2310	2.58327	2.55621	2.23595	11.51496	10.73458	10.01813	12.38887	8.38597	5.28055	8.36524	8.19194	7.72159	4.45763	3.83266	3.34564	20.23426	15.87050	12.42245
2470	2.58082	2.55489	2.23467	11.51412	10.73376	10.01779	12.40142	8.38771	5.27837	8.36408	8.19288	7.72301	4.45751	3.83512	3.34720	20.24504	15.87307	12.42636
2630	2.58488	2.55488	2.23643	11.51919	10.74038	10.01928	12.40413	8.39754	5.28535	8.36551	8.19884	7.72699	4.46554	3.83323	3.34150	20.23220	15.88217	12.43795
2790	2.57775	2.54788	2.22313	11.54024	10.75884	10.03957	12.35480	8.36478	5.24827	8.38102	8.21973	7.74453	4.42511	3.79709	3.30717	20.26605	15.90097	12.45712
2950	2.54622	2.51923	2.20024	11.56111	10.77621	10.05121	12.32697	8.32670	5.21939	8.38573	8.23372	7.75559	4.39951	3.77090	3.28393	20.27079	15.91553	12.47244
3120	2.52399	2.50125	2.18410	11.58191	10.79174	10.06703	12.28678	8.29023	5.19683	8.39646	8.24977	7.76787	4.37991	3.75898	3.27771	20.30328	15.93624	12.49206
3290	2.52475	2.50558	2.19180	11.59307	10.80308	10.07301	12.28360	8.28781	5.19465	8.40322	8.25345	7.76987	4.38523	3.76999	3.28866	20.29879	15.93623	12.48765	36.98	5.5	0.00	-2.04	0.01722	0.01195	0.01512	0.01823	0.01884	0.01474	0.00544	0.01508	0.01994	0.01855	0.01289	0.01644	0.01698	0.01753	0.01370	0.00572	0.01608	0.02140
3460	2.54048	2.54145	2.22007	11.57941	10.78556	10.06202	12.38586	8.40193	5.30628	8.40611	8.23298	7.75696	4.49569	3.86007	3.37754	20.25800	15.90669	12.45918
3620	2.60368	2.57442	2.24999	11.55451	10.76855	10.05174	12.36974	8.38320	5.26187	8.39542	8.23456	7.75938	4.44726	3.79995	3.31885	20.27815	15.92325	12.47912
3770	2.54884	2.52084	2.19856	11.58737	10.79732	10.07170	12.30689	8.31579	5.21128	8.40704	8.25664	7.77625	4.39792	3.76500	3.28751	20.30682	15.93898	12.49900
3940	2.52224	2.50600	2.18916	11.60304	10.80782	10.07858	12.28903	8.30294	5.22751	8.41156	8.25173	7.77043	4.41206	3.80263	3.31922	20.27637	15.91924	12.47023
4100	2.57537	2.57838	2.25116	11.55628	10.76878	10.04887	12.43060	8.42259	5.31744	8.40239	8.22552	7.75331	4.49762	3.86332	3.37145	20.26510	15.90354	12.46267
4250	2.59997	2.56066	2.24293	11.55321	10.76858	10.05005	12.37719	8.36902	5.23841	8.39972	8.24284	7.76508	4.42942	3.77983	3.30304	20.28201	15.92714	12.48517
4410	2.53263	2.51341	2.19641	11.59163	10.79953	10.07860	12.29682	8.29495	5.19428	8.41657	8.26484	7.78404	4.37972	3.75649	3.27797	20.30697	15.94527	12.50025
4580	2.52439	2.51077	2.19465	11.58688	10.79517	10.06505	12.30405	8.33755	5.24614	8.41387	8.24433	7.76548	4.45145	3.82606	3.36757	20.27503	15.91048	12.46299
4730	2.60178	2.57618	2.25027	11.54572	10.76114	10.04275	12.41120	8.41075	5.30071	8.40361	8.22374	7.75169	4.48532	3.85029	3.36706	20.25370	15.89213	12.44749
4890	2.59764	2.56577	2.24912	11.53523	10.75570	10.03947	12.40957	8.39818	5.28479	8.40170	8.22535	7.75147	4.47044	3.84026	3.35885	20.24345	15.88976	12.44276	36.92	6.4	0.00	-2.04	0.01721	0.01194	0.01512	0.01823	0.01884	0.01474	0.00543	0.01507	0.01993	0.01855	0.01289	0.01644	0.01697	0.01753	0.01370	0.00572	0.01609	0.02141
5050	2.59270	2.56306	2.24465	11.52920	10.75070	10.03337	12.38389	8.38741	5.27689	8.40001	8.22247	7.74886	4.46220	3.83104	3.34705	20.23724	15.88849	12.44216
5210	2.58662	2.55680	2.23997	11.52878	10.75049	10.03369	12.37538	8.38211	5.27310	8.40039	8.22454	7.75185	4.46147	3.83167	3.34307	20.24566	15.88481	12.44728
5370	2.58687	2.55814	2.23838	11.53027	10.75231	10.03622	12.38029	8.38565	5.27822	8.40198	8.22873	7.75608	4.46157	3.83313	3.34870	20.25246	15.88919	12.44903
5530	2.59071	2.56152	2.24613	11.54038	10.76078	10.04425	12.38397	8.39414	5.28566	8.40908	8.23308	7.76147	4.46593	3.83873	3.35360	20.25897	15.89535	12.45525
5700	2.58937	2.56077	2.24418	11.53854	10.75972	10.04170	12.38701	8.38801	5.28156	8.40795	8.23384	7.76129	4.46445	3.83849	3.35247	20.26652	15.89949	12.45815
5860	2.59086	2.56491	2.24483	11.54167	10.76103	10.04368	12.41023	8.39315	5.28469	8.40935	8.23614	7.76301	4.46526	3.84050	3.35008	20.25779	15.89605	12.45520
6020	2.59132	2.56730	2.25037	11.54872	10.76944	10.05177	12.41458	8.40206	5.29201	8.41901	8.24501	7.77333	4.47345	3.84316	3.35585	20.27749	15.90973	12.46806
6190	2.59037	2.56540	2.24592	11.55303	10.77255	10.05248	12.39307	8.39344	5.28606	8.41927	8.24754	7.77445	4.46389	3.84065	3.35545	20.26904	15.90664	12.46541
6350	2.59167	2.56516	2.24756	11.55172	10.77236	10.05028	12.40628	8.39196	5.28330	8.41608	8.24569	7.77399	4.46411	3.83697	3.35054	20.27408	15.90559	12.46616
6520	2.58267	2.55662	2.23879	11.55463	10.77223	10.05431	12.37994	8.38004	5.27405	8.41738	8.24792	7.77387	4.45923	3.83391	3.35040	20.26108	15.91592	12.47414	36.92	6.1	0.00	-2.04	0.01721	0.01194	0.01511	0.01823	0.01885	0.01474	0.00543	0.01506	0.01992	0.01856	0.01289	0.01644	0.01696	0.01752	0.01369	0.00572	0.01609	0.02141
6680	2.58670	2.55956	2.24228	11.56054	10.77837	10.05956	12.38961	8.38990	5.28428	8.42281	8.25524	7.78109	4.45992	3.83392	3.34894	20.28865	15.91506	12.47433
6850	2.58699	2.56259	2.24671	11.56487	10.78241	10.06405	12.38764	8.39173	5.28688	8.42713	8.25994	7.78569	4.46457	3.83893	3.34933	20.28138	15.91646	12.47782
7010	2.58798	2.56183	2.24248	11.56356	10.78196	10.05913	12.39970	8.38841	5.28104	8.42376	8.25767	7.78141	4.46360	3.84039	3.35617	20.27812	15.91656	12.47836
7180	2.59254	2.56380	2.24536	11.56543	10.78232	10.06348	12.39265	8.39194	5.28551	8.42555	8.26018	7.78668	4.46376	3.83867	3.35510	20.28079	15.91541	12.47875
7340	2.58758	2.56345	2.24663	11.56499	10.78311	10.06415	12.40209	8.39115	5.28625	8.42613	8.26278	7.78774	4.46458	3.84067	3.35311	20.27086	15.91318	12.47846
7510	2.58810	2.56555	2.24753	11.56868	10.78624	10.06602	12.39938	8.39052	5.28737	8.42835	8.26449	7.79016	4.46593	3.83932	3.35292	20.27753	15.91653	12.47959
7670	2.58955	2.56356	2.24377	11.56971	10.78587	10.06362	12.38453	8.39028	5.28290	8.42878	8.26460	7.79100	4.46441	3.84038	3.35449	20.28924	15.92025	12.48416
7840	2.58806	2.56409	2.24553	11.57464	10.79075	10.06840	12.40414	8.39203	5.28069	8.43260	8.26834	7.79534	4.46628	3.83995	3.35874	20.28034	15.92790	12.48858
8000	2.59378	2.56387	2.24697	11.58046	10.79553	10.07300	12.38723	8.39355	5.28623	8.43715	8.27474	7.80033	4.46667	3.83891	3.35503	20.30068	15.92509	12.48896
8170	2.58807	2.56240	2.24299	11.58268	10.79634	10.07288	12.38409	8.38411	5.28258	8.43402	8.27230	7.79861	4.45862	3.83558	3.34935	20.28105	15.92312	12.48711	36.98	6.0	0.00	-2.04	0.01721	0.01194	0.01511	0.01824	0.01885	0.01474	0.00543	0.01506	0.01992	0.01856	0.01290	0.01644	0.01696	0.01752	0.01369	0.00572	0.01610	0.02141
8330	2.58637	2.56119	2.24321	11.58304	10.79628	10.07241	12.38638	8.38782	5.28309	8.43613	8.27523	7.80146	4.46235	3.83581	3.35083	20.28921	15.92356	12.48941
8500	2.58570	2.56070	2.24186	11.58046	10.79471	10.07189	12.36647	8.38705	5.28120	8.43500	8.27563	7.80048	4.46208	3.83823	3.35239	20.28669	15.93070	12.49465
8660	2.59100	2.56287	2.24194	11.58583	10.79946	10.07598	12.39746	8.38415	5.28096	8.43809	8.27698	7.80349	4.46050	3.83711	3.34990	20.28966	15.92920	12.49198
8830	2.58900	2.56407	2.24485	11.58812	10.80271	10.07856	12.38917	8.39526	5.28499	8.44071	8.28243	7.80636	4.46313	3.83449	3.35149	20.29441	15.93290	12.49877
8990	2.58963	2.56035	2.24456	11.59049	10.80168	10.07974	12.39590	8.38312	5.28029	8.43989	8.28283	7.80794	4.46367	3.83811	3.35437	20.30659	15.94234	12.50595
9150	2.59127	2.56258	2.24462	11.59754	10.80864	10.08682	12.40346	8.39052	5.28257	8.44511	8.28808	7.81441	4.46035	3.83696	3.34916	20.29767	15.93985	12.50253
9320	2.58570	2.56151	2.24405	11.59465	10.80631	10.08496	12.38605	8.38448	5.28062	8.44574	8.28997	7.81573	4.46153	3.83429	3.34970	20.30718	15.94081	12.50417
9480	2.58791	2.56181	2.24322	11.59477	10.80718	10.08509	12.38204	8.38516	5.27596	8.44350	8.28924	7.81655	4.45989	3.83875	3.35422	20.30748	15.94643	12.50931
9650	2.59027	2.56389	2.24355	11.60224	10.81311	10.09125	12.39221	8.39021	5.28120	8.45080	8.29501	7.82336	4.46036	3.83528	3.35060	20.30926	15.94569	12.51053
9810	2.58823	2.56349	2.24513	11.60281	10.81740	10.09528	12.38209	8.38830	5.28245	8.45512	8.30091	7.82668	4.46162	3.83495	3.34963	20.31205	15.95201	12.51347	36.98	6.2	0.00	-2.04	0.01720	0.01193	0.01511	0.01824	0.01885	0.01475	0.00543	0.01506	0.01992	0.01856	0.01289	0.01644	0.01696	0.01752	0.01369	0.00572	0.01610	0.02142
9980	2.58802	2.56020	2.24279	11.60506	10.81867	10.09471	12.38159	8.38307	5.27724	8.45557	8.30031	7.82842	4.45905	3.83513	3.35036	20.32350	15.95058	12.51674
10140	2.58802	2.56116	2.24446	11.60890	10.82349	10.09860	12.38914	8.38621	5.27702	8.45576	8.30377	7.83179	4.45865	3.83184	3.34602	20.30565	15.94777	12.51258
10300	2.58545	2.55885	2.24190	11.61000	10.82361	10.10060	12.39177	8.38481	5.27877	8.45967	8.30637	7.83709	4.45761	3.83143	3.34504	20.31026	15.95026	12.51721
10470	2.58423	2.55617	2.24093	11.61224	10.82693	10.10307	12.38988	8.38204	5.27515	8.46131	8.30863	7.83703	4.45905	3.83403	3.34858	20.30758	15.95741	12.52275
10630	2.58760	2.56207	2.24344	11.62061	10.83570	10.11062	12.37971	8.38491	5.28074	8.46828	8.31448	7.84485	4.45991	3.83080	3.34595	20.32589	15.96131	12.52496
10790	2.58671	2.56055	2.24255	11.62186	10.83661	10.11119	12.38209	8.38103	5.27606	8.46912	8.31525	7.84486	4.45903	3.83090	3.34491	20.32633	15.95974	12.52600
10960	2.58281	2.55790	2.24096	11.62240	10.83498	10.10919	12.38028	8.38019	5.27232	8.46710	8.31455	7.84432	4.45427	3.82754	3.34690	20.32633	15.95901	12.52493
11120	2.58315	2.55931	2.23979	11.62303	10.83815	10.11319	12.38545	8.38257	5.27774	8.46994	8.31815	7.84802	4.45467	3.82984	3.34593	20.32782	15.96457	12.52975
11290	2.58199	2.55684	2.23911	11.62641	10.83964	10.11372	12.37323	8.38188	5.27248	8.47039	8.31872	7.84945	4.45596	3.83086	3.34760	20.32738	15.97007	12.53458
11450	2.59090	2.56504	2.24681	11.62553	10.84090	10.11654	12.38901	8.39097	5.28461	8.47170	8.32179	7.85178	4.46223	3.83977	3.35249	20.32184	15.96847	12.53214	36.92	6.1	0.00	-2.04	0.01722	0.01194	0.01512	0.01823	0.01884	0.01474	0.00543	0.01507	0.01993	0.01855	0.01289	0.01643	0.01697	0.01753	0.01370	0.00572	0.01609	0.02141
11620	2.58817	2.56453	2.24784	11.63081	10.84624	10.11967	12.39901	8.39472	5.28619	8.47490	8.32415	7.85636	4.46677	3.83779	3.35258	20.33138	15.97465	12.53814
11780	2.58832	2.56274	2.24634	11.63518	10.84737	10.12416	12.37434	8.38912	5.28269	8.47571	8.32673	7.85672	4.46051	3.83631	3.35014	20.34182	15.97270	12.53965
11940	2.58904	2.56296	2.24458	11.64207	10.85568	10.13013	12.40960	8.38774	5.27846	8.48034	8.33470	7.86339	4.45646	3.82974	3.34560	20.34645	15.98468	12.55255
12100	2.57840	2.54836	2.23159	11.65369	10.86246	10.13645	12.37164	8.35562	5.24846	8.48288	8.34115	7.86891	4.42935	3.80016	3.31718	20.34705	15.99318	12.55664
12270	2.55127	2.52881	2.20917	11.66714	10.87487	10.14601	12.30713	8.33255	5.22856	8.48695	8.35065	7.87788	4.40707	3.78240	3.29770	20.35467	16.00121	12.56764
12430	2.54000	2.51954	2.20520	11.68571	10.89419	10.16203	12.29925	8.31680	5.21636	8.49936	8.36574	7.89106	4.39869	3.77567	3.29998	20.36633	16.01769	12.58323
12600	2.53879	2.51785	2.20515	11.69631	10.90093	10.16653	12.30526	8.32014	5.22018	8.50494	8.36708	7.89222	4.40829	3.79174	3.31259	20.37861	16.02323	12.58646
12770	2.55697	2.53455	2.22028	11.69044	10.89558	10.16205	12.33196	8.35039	5.25011	8.50382	8.36029	7.88795	4.42933	3.80805	3.32565	20.37292	16.01422	12.57586
12930	2.56523	2.54083	2.22635	11.67776	10.88537	10.16023	12.35505	8.36008	5.25255	8.50409	8.35760	7.88787	4.43633	3.81594	3.33088	20.35930	16.01139	12.57373
13100	2.57715	2.55149	2.23472	11.67192	10.88017	10.15633	12.36916	8.36758	5.26246	8.49878	8.35439	7.88380	4.44347	3.81717	3.33202	20.36350	16.00762	12.57221	36.92	6.2	0.00	-2.04	0.01723	0.01195	0.01513	0.01822	0.01884	0.01474	0.00544	0.01508	0.01995	0.01855	0.01289	0.01643	0.01699	0.01754	0.01371	0.00572	0.01608	0.02140
13260	2.56770	2.54435	2.22917	11.66969	10.87852	10.15366	12.35968	8.35926	5.25327	8.49598	8.35236	7.88337	4.43563	3.81027	3.32621	20.35184	16.00049	12.56857
13420	2.56696	2.54232	2.22590	11.66809	10.87790	10.15567	12.36172	8.35917	5.25270	8.49697	8.35365	7.88461	4.43701	3.81133	3.33002	20.36889	16.01081	12.57192
13590	2.56589	2.54409	2.22825	11.66599	10.87727	10.15557	12.37047	8.36138	5.25623	8.49685	8.35119	7.88295	4.44055	3.81476	3.32953	20.35438	16.00785	12.57066
13750	2.57083	2.54532	2.22906	11.66650	10.87810	10.15493	12.36328	8.36347	5.25730	8.50014	8.35226	7.88520	4.44097	3.81400	3.33357	20.36455	16.00952	12.57089
13910	2.56977	2.54665	2.22902	11.66470	10.87656	10.15478	12.35274	8.35945	5.25793	8.50022	8.35141	7.88552	4.43836	3.81180	3.32896	20.36081	16.00756	12.56934
14080	2.56629	2.54552	2.22991	11.66497	10.87955	10.16001	12.35838	8.36574	5.25951	8.50582	8.35708	7.88978	4.43969	3.81802	3.33205	20.36964	16.01386	12.57463
14240	2.57132	2.54881	2.23110	11.66788	10.87993	10.15754	12.33579	8.35895	5.25882	8.50271	8.35415	7.88862	4.43911	3.81579	3.33484	20.36171	16.01360	12.57097
14400	2.57094	2.54763	2.23057	11.66747	10.88099	10.15982	12.34883	8.35787	5.25898	8.50515	8.35536	7.89258	4.44075	3.81663	3.33239	20.35991	16.01563	12.57416
14570	2.57072	2.54908	2.23144	11.66836	10.88337	10.16243	12.35707	8.35928	5.25404	8.50645	8.35656	7.89272	4.44137	3.81819	3.33351	20.37383	16.01862	12.57813
14730	2.57626	2.55059	2.23751	11.67096	10.88517	10.16389	12.36895	8.37208	5.26863	8.50871	8.35941	7.89645	4.44834	3.82117	3.33839	20.36174	16.01294	12.57242	36.92	5.9	0.00	-2.04	0.01723	0.01195	0.01513	0.01822	0.01883	0.01473	0.00544	0.01509	0.01996	0.01854	0.01289	0.01643	0.01699	0.01755	0.01372	0.00572	0.01608	0.02139
14900	2.57802	2.55497	2.23821	11.66963	10.88535	10.16601	12.37115	8.37228	5.26814	8.51287	8.36216	7.89959	4.44921	3.82296	3.33987	20.36817	16.01510	12.57482
15060	2.57681	2.55306	2.23534	11.67151	10.88515	10.16524	12.36952	8.37098	5.26498	8.50961	8.35981	7.89679	4.44543	3.82220	3.33807	20.36458	16.01551	12.57381
15220	2.57362	2.54902	2.23305	11.67011	10.88568	10.16780	12.36650	8.36719	5.26287	8.50993	8.36137	7.89830	4.44733	3.82171	3.33735	20.36638	16.01484	12.57358
15390	2.57303	2.55114	2.23077	11.66989	10.88320	10.16421	12.34252	8.36474	5.26106	8.50823	8.36000	7.89873	4.44667	3.82151	3.34055	20.36892	16.01329	12.57743
15550	2.57692	2.55165	2.23615	11.67405	10.88640	10.16903	12.37769	8.36895	5.26491	8.51198	8.36300	7.90150	4.44508	3.81967	3.33792	20.36069	16.01394	12.57442
15720	2.57426	2.55191	2.23501	11.67533	10.88921	10.16960	12.34912	8.37495	5.26772	8.51377	8.36276	7.90229	4.44940	3.82308	3.33834	20.36877	16.01703	12.57866
15880	2.57645	2.55130	2.23541	11.67460	10.88830	10.16912	12.37271	8.36493	5.26310	8.51155	8.36206	7.90116	4.44738	3.82558	3.34274	20.37057	16.01825	12.57822
16050	2.57759	2.55414	2.23983	11.67454	10.88982	10.17217	12.36756	8.37039	5.26628	8.51505	8.36674	7.90539	4.44493	3.82374	3.33915	20.37327	16.01838	12.57776
16210	2.57665	2.55532	2.23985	11.67637	10.89221	10.17520	12.37344	8.37526	5.26963	8.51631	8.36776	7.90559	4.44900	3.82456	3.34063	20.37252	16.01912	12.58110
16380	2.57935	2.55384	2.23945	11.67433	10.88768	10.17154	12.34989	8.37652	5.27044	8.51182	8.36461	7.90390	4.45372	3.83160	3.34761	20.36957	16.02350	12.58375	36.98	6.1	0.00	-2.04	0.01724	0.01196	0.01514	0.01822	0.01883	0.01473	0.00544	0.01510	0.01997	0.01854	0.01288	0.01643	0.01700	0.01756	0.01372	0.00571	0.01608	0.02139
16540	2.58248	2.55419	2.23869	11.67941	10.89426	10.17651	12.37323	8.37586	5.27005	8.51504	8.36885	7.90738	4.45232	3.82618	3.34267	20.37017	16.01858	12.58019
16710	2.58363	2.55557	2.24441	11.68315	10.89643	10.17746	12.37053	8.38177	5.27612	8.51692	8.37160	7.91025	4.45498	3.82855	3.34632	20.37107	16.02328	12.58506
16870	2.58401	2.55676	2.24061	11.68322	10.89593	10.17913	12.39293	8.37767	5.26959	8.51788	8.37185	7.91066	4.45190	3.82769	3.34412	20.36762	16.02196	12.58619
17030	2.57867	2.55553	2.24067	11.68271	10.89664	10.17729	12.37053	8.37072	5.26940	8.51766	8.37189	7.91160	4.45462	3.82952	3.34649	20.36718	16.02540	12.58858
17200	2.58273	2.55761	2.24146	11.68609	10.90017	10.18227	12.36571	8.37456	5.27108	8.52213	8.37902	7.91577	4.45313	3.83044	3.34413	20.37032	16.02750	12.58864
17360	2.58231	2.55670	2.24295	11.68510	10.90128	10.18379	12.37461	8.37388	5.27271	8.52246	8.37858	7.91887	4.45310	3.82721	3.34614	20.38006	16.02605	12.59126
17530	2.58230	2.55653	2.24032	11.68494	10.89858	10.18229	12.36424	8.37546	5.27198	8.52235	8.37531	7.91648	4.45157	3.82998	3.34412	20.37736	16.02572	12.59087
17690	2.58235	2.55778	2.24157	11.68604	10.89988	10.18429	12.39661	8.37738	5.27397	8.52262	8.37739	7.91756	4.45410	3.82899	3.34543	20.36762	16.02618	12.58803
17860	2.58422	2.55871	2.24390	11.68766	10.90246	10.18450	12.38688	8.37942	5.27318	8.52391	8.37773	7.91876	4.45326	3.82984	3.34510	20.37242	16.02579	12.58885
18020	2.58437	2.56047	2.24384	11.68692	10.89969	10.18342	12.37595	8.38099	5.27595	8.52290	8.37847	7.91737	4.45646	3.83119	3.34640	20.36013	16.02394	12.58673	36.87	6.1	0.00	-2.04	0.01724	0.01196	0.01514	0.01822	0.01883	0.01473	0.00544	0.01510	0.01997	0.01854	0.01288	0.01642	0.01700	0.01756	0.01373	0.00571	0.01607	0.02139
18190	2.58565	2.56214	2.24381	11.68829	10.90466	10.18526	12.36599	8.38170	5.27517	8.52367	8.37978	7.91894	4.45520	3.83011	3.34835	20.37586	16.02577	12.58962
18350	2.58405	2.56059	2.24354	11.69068	10.90655	10.18597	12.37921	8.37812	5.27586	8.52551	8.38288	7.92042	4.45607	3.83149	3.34880	20.36177	16.02294	12.58752
18520	2.58627	2.55836	2.24378	11.68805	10.90293	10.18323	12.36925	8.37716	5.27347	8.52293	8.37934	7.91914	4.45743	3.83394	3.35127	20.38320	16.02725	12.59138
18680	2.58651	2.56274	2.24533	11.69166	10.90460	10.18437	12.38960	8.38351	5.27590	8.52596	8.38196	7.92215	4.45799	3.83243	3.34795	20.36911	16.02603	12.58793
18850	2.58788	2.56259	2.24764	11.69277	10.90874	10.18853	12.37586	8.38941	5.28002	8.53076	8.38547	7.92485	4.46202	3.83347	3.35037	20.37496	16.02838	12.59366
19010	2.58597	2.56147	2.24486	11.69335	10.90693	10.18651	12.36999	8.38401	5.27426	8.52681	8.38288	7.92351	4.45986	3.83607	3.35075	20.37091	16.02735	12.59211
19170	2.58810	2.55954	2.24555	11.69397	10.90850	10.18901	12.38412	8.38487	5.27870	8.52901	8.38445	7.92553	4.45890	3.83123	3.34751	20.38125	16.02858	12.59189
19340	2.58669	2.56299	2.24581	11.69655	10.91288	10.19122	12.39099	8.38369	5.28182	8.53295	8.39041	7.92907	4.46183	3.83471	3.35283	20.37975	16.03283	12.59749
19500	2.58581	2.56311	2.24496	11.69651	10.91242	10.19247	12.37529	8.38155	5.27624	8.53103	8.38764	7.92698	4.45796	3.83445	3.34909	20.38365	16.03006	12.59654
19670	2.58667	2.56103	2.24557	11.69768	10.91476	10.19129	12.37085	8.38524	5.27664	8.53186	8.38884	7.92761	4.45980	3.83423	3.35137	20.37128	16.02908	12.59534	36.92	6.1	0.00	-2.04	0.01724	0.01196	0.01514	0.01821	0.01883	0.01473	0.00545	0.01511	0.01998	0.01854	0.01288	0.01642	0.01701	0.01757	0.01373	0.00571	0.01607	0.02139
19830	2.58701	2.56214	2.24574	11.69652	10.91355	10.19181	12.37518	8.38654	5.27828	8.53309	8.39114	7.92929	4.45922	3.83540	3.35075	20.37308	16.02872	12.59679
19990	2.59010	2.55968	2.24584	11.69674	10.91245	10.19163	12.36098	8.38364	5.27556	8.53271	8.39000	7.92857	4.46017	3.83679	3.35173	20.38703	16.03440	12.59864
20160	2.58843	2.56242	2.24795	11.70235	10.91854	10.19547	12.37943	8.38390	5.28130	8.53687	8.39126	7.93063	4.46160	3.83292	3.34922	20.38718	16.03272	12.59728
20320	2.58576	2.56112	2.24498	11.70098	10.91795	10.19638	12.37845	8.38255	5.27978	8.53765	8.39380	7.93168	4.46097	3.83675	3.35120	20.38418	16.03166	12.59909
20490	2.58857	2.56203	2.24574	11.70080	10.91728	10.19517	12.37853	8.38520	5.27825	8.53658	8.39190	7.93117	4.46109	3.83346	3.35040	20.38133	16.03395	12.59804
20650	2.58659	2.56449	2.24577	11.70008	10.91877	10.19685	12.39324	8.38194	5.27983	8.53950	8.39528	7.93374	4.45827	3.83608	3.35310	20.37608	16.03308	12.60066
20820	2.58746	2.56465	2.24778	11.70509	10.92297	10.19860	12.40036	8.38643	5.28068	8.54169	8.39788	7.93709	4.46214	3.83446	3.35214	20.37533	16.03669	12.60354
20980	2.58827	2.56422	2.24574	11.70682	10.92568	10.20153	12.38392	8.38059	5.28120	8.54299	8.39805	7.93846	4.46064	3.83597	3.35436	20.38613	16.03924	12.60586
21150	2.58682	2.56295	2.24733	11.70920	10.92477	10.20228	12.37151	8.38677	5.27843	8.54261	8.40027	7.93857	4.45911	3.83358	3.35024	20.39018	16.03624	12.60402
21310	2.58855	2.56654	2.24756	11.71182	10.92868	10.20488	12.38412	8.38725	5.28269	8.54521	8.40336	7.94104	4.46122	3.83636	3.35533	20.38664	16.04008	12.60913	36.92	6.2	0.00	-2.04	0.01725	0.01196	0.01514	0.01821	0.01883	0.01473	0.00545	0.01511	0.01998	0.01854	0.01288	0.01642	0.01701	0.01757	0.01373	0.00571	0.01607	0.02139
21480	2.59035	2.56258	2.24873	11.71290	10.92839	10.20148	12.37767	8.38084	5.27816	8.54357	8.40109	7.93959	4.46404	3.83925	3.35676	20.39070	16.04285	12.61198
21640	2.59090	2.56379	2.24946	11.71746	10.93185	10.20717	12.38183	8.38933	5.28210	8.54879	8.40676	7.94378	4.46039	3.83698	3.35349	20.39100	16.04156	12.61262
21810	2.59037	2.56305	2.24891	11.71888	10.93503	10.21049	12.39246	8.38734	5.28439	8.55147	8.40720	7.94553	4.46432	3.83690	3.35501	20.40167	16.04893	12.61419
21970	2.58968	2.56350	2.24678	11.71837	10.93271	10.20761	12.36461	8.38664	5.28248	8.55068	8.40634	7.94344	4.46183	3.83975	3.35762	20.40151	16.04999	12.61601
22130	2.59250	2.56622	2.24841	11.71989	10.93359	10.20840	12.38085	8.39098	5.28258	8.55249	8.40687	7.94557	4.46059	3.83376	3.35209	20.39851	16.04792	12.61620
22300	2.58843	2.56451	2.25047	11.72065	10.93639	10.21198	12.37179	8.39166	5.28577	8.55522	8.41072	7.94844	4.46264	3.83613	3.35370	20.40768	16.05057	12.61773
22460	2.58772	2.56023	2.24535	11.71993	10.93333	10.21021	12.38510	8.38774	5.28179	8.55301	8.40882	7.94722	4.46182	3.83517	3.34821	20.40091	16.04547	12.61439
22620	2.58772	2.56327	2.24829	11.72320	10.93780	10.21241	12.38281	8.39100	5.28354	8.55633	8.41140	7.95000	4.46461	3.83829	3.35365	20.39610	16.05122	12.62009
22790	2.58852	2.56316	2.24573	11.72043	10.93608	10.21166	12.36355	8.38611	5.27788	8.55402	8.40826	7.94773	4.45995	3.83468	3.35357	20.39490	16.05222	12.62242
22950	2.58806	2.56299	2.24838	11.72351	10.93899	10.21419	12.39385	8.38477	5.28167	8.55545	8.41191	7.95046	4.46453	3.83974	3.35618	20.40624	16.05356	12.62169	36.92	6.1	0.00	-2.04	0.01725	0.01196	0.01514	0.01821	0.01882	0.01473	0.00545	0.01511	0.01998	0.01854	0.01288	0.01642	0.01701	0.01757	0.01373	0.00571	0.01607	0.02138
23120	2.58864	2.56330	2.24785	11.72535	10.94235	10.21554	12.38216	8.38751	5.28105	8.55714	8.41503	7.94952	4.46230	3.83884	3.35325	20.39828	16.05576	12.62271
23280	2.59110	2.56502	2.24640	11.72804	10.94185	10.21756	12.39892	8.38885	5.27928	8.55732	8.41451	7.95100	4.46123	3.83895	3.35480	20.40113	16.05850	12.62534
23450	2.59133	2.56406	2.24976	11.72823	10.94197	10.21640	12.39295	8.38411	5.28268	8.55824	8.41572	7.95326	4.46215	3.83852	3.35531	20.39918	16.05925	12.62475
23610	2.59182	2.56620	2.24972	11.72900	10.94391	10.21802	12.38053	8.38874	5.28165	8.56011	8.41668	7.95179	4.46340	3.83574	3.35365	20.39302	16.05395	12.62446
23780	2.59165	2.56853	2.25260	11.73218	10.94809	10.22270	12.35858	8.39264	5.28656	8.56376	8.42032	7.95629	4.46618	3.84015	3.35426	20.40459	16.05983	12.62834
23940	2.59177	2.56582	2.24913	11.73324	10.94637	10.22171	12.36820	8.38288	5.28139	8.56157	8.41980	7.95562	4.46545	3.83989	3.35743	20.42280	16.06630	12.63361
24110	2.58880	2.56462	2.24871	11.73880	10.95033	10.22510	12.37824	8.38797	5.28402	8.56480	8.42257	7.95680	4.46597	3.83718	3.35225	20.41196	16.06138	12.62947
24270	2.58739	2.56720	2.25002	11.73801	10.95114	10.22630	12.38666	8.38693	5.28505	8.56621	8.42360	7.95816	4.46468	3.83966	3.35595	20.40549	16.06349	12.63123
24430	2.59028	2.56694	2.24680	11.73509	10.94985	10.22437	12.36249	8.38747	5.28075	8.56506	8.42236	7.95669	4.46300	3.83943	3.35707	20.40790	16.06685	12.63160
24600	2.59159	2.56775	2.24989	11.73914	10.95287	10.22613	12.37446	8.38654	5.28157	8.56668	8.42632	7.95899	4.46183	3.83732	3.35315	20.41802	16.06466	12.63156	36.92	6.3	0.00	-2.04	0.01725	0.01196	0.01514	0.01821	0.01882	0.01473	0.00545	0.01511	0.01998	0.01854	0.01288	0.01642	0.01701	0.01757	0.01373	0.00571	0.01607	0.02138
24760	2.59165	2.56411	2.24978	11.73611	10.94985	10.22360	12.38712	8.38460	5.27943	8.56424	8.42237	7.95813	4.46528	3.84102	3.36060	20.40868	16.06971	12.63561
24930	2.59174	2.56926	2.25252	11.74264	10.95564	10.22740	12.38124	8.38950	5.28675	8.57061	8.42888	7.96116	4.46370	3.83984	3.35545	20.42464	16.06647	12.63171
25090	2.59208	2.56559	2.25119	11.74101	10.95288	10.22706	12.37063	8.38841	5.28408	8.57065	8.42775	7.96128	4.46444	3.83849	3.35565	20.40733	16.06583	12.63395
25260	2.58843	2.56389	2.24773	11.73908	10.95285	10.22514	12.36476	8.38736	5.28138	8.56849	8.42686	7.96063	4.46448	3.84087	3.35766	20.41440	16.07175	12.63814
25420	2.59150	2.56564	2.25151	11.74646	10.95945	10.23054	12.39227	8.39357	5.28525	8.57426	8.43361	7.96536	4.46535	3.84002	3.35545	20.41982	16.06910	12.63426
25590	2.58920	2.56188	2.24983	11.74391	10.95805	10.23123	12.38941	8.38325	5.28068	8.57455	8.43410	7.96627	4.46458	3.83934	3.35729	20.42901	16.06955	12.63851
25750	2.59515	2.56782	2.25133	11.74628	10.96079	10.23479	12.37830	8.39080	5.28496	8.57722	8.43500	7.96839	4.46233	3.83638	3.35628	20.42495	16.07301	12.63801
25920	2.59285	2.56866	2.25181	11.74620	10.96215	10.23644	12.38819	8.39373	5.28706	8.57909	8.43635	7.96974	4.46660	3.83801	3.35760	20.42178	16.07457	12.64190
26080	2.59217	2.56641	2.25089	11.74539	10.96017	10.23337	12.37398	8.39135	5.28267	8.57780	8.43601	7.96665	4.46451	3.84090	3.35906	20.41802	16.07305	12.64004
26250	2.59021	2.56768	2.25221	11.74616	10.95873	10.23346	12.36522	8.38960	5.28384	8.57782	8.43506	7.96830	4.46607	3.83661	3.35624	20.42248	16.07333	12.64076	36.92	6.3	0.00	-2.04	0.01725	0.01196	0.01514	0.01821	0.01882	0.01473	0.00545	0.01511	0.01998	0.01853	0.01288	0.01642	0.01701	0.01757	0.01373	0.00571	0.01607	0.02138
26410	2.59188	2.56641	2.24934	11.74805	10.95809	10.23407	12.38277	8.39009	5.28249	8.57731	8.43592	7.96766	4.46608	3.84307	3.35912	20.41660	16.07990	12.64770
26570	2.59447	2.56810	2.25467	11.75395	10.96453	10.24159	12.38857	8.39458	5.28710	8.58423	8.44144	7.97364	4.46806	3.84292	3.35979	20.42022	16.07968	12.64635
26740	2.59250	2.56874	2.25152	11.75376	10.96603	10.24112	12.39364	8.39753	5.28950	8.58562	8.44094	7.97370	4.46849	3.84101	3.35887	20.42941	16.07725	12.64661
26900	2.59271	2.56945	2.25007	11.75056	10.96224	10.23953	12.38105	8.38953	5.28346	8.58309	8.43952	7.97212	4.46356	3.83683	3.35301	20.42474	16.07479	12.64584
27060	2.59329	2.56847	2.25242	11.75004	10.96253	10.24031	12.37517	8.39425	5.28625	8.58479	8.44209	7.97319	4.46761	3.84229	3.35786	20.43680	16.07916	12.64784
27230	2.59321	2.56836	2.25060	11.74886	10.96174	10.23856	12.40198	8.39050	5.28155	8.58174	8.43683	7.96997	4.46194	3.83869	3.35700	20.42338	16.07611	12.64488
27390	2.59521	2.57298	2.25327	11.75154	10.96323	10.24234	12.40476	8.39813	5.28827	8.58707	8.44219	7.97394	4.46582	3.84358	3.35780	20.41585	16.08159	12.64830
27550	2.59227	2.56995	2.25308	11.75092	10.96095	10.23904	12.40738	8.39295	5.28616	8.58443	8.44011	7.97352	4.46376	3.83512	3.35261	20.42745	16.07803	12.64698
27720	2.59238	2.57042	2.25416	11.75458	10.96722	10.24471	12.40820	8.39791	5.29180	8.59033	8.44432	7.97672	4.47276	3.84104	3.35848	20.42775	16.08746	12.65327
27880	2.59312	2.56670	2.25058	11.75467	10.96529	10.24320	12.38372	8.39342	5.28756	8.58934	8.44220	7.97614	4.46888	3.84043	3.35679	20.42600	16.08353	12.65165	36.92	6.1	0.00	-2.04	0.01725	0.01196	0.01514	0.01821	0.01882	0.01473	0.00545	0.01511	0.01998	0.01853	0.01288	0.01642	0.01701	0.01757	0.01373	0.00571	0.01607	0.02138
28050	2.59361	2.56986	2.25071	11.75278	10.96436	10.24331	12.38699	8.39456	5.28815	8.58965	8.44483	7.97593	4.46521	3.83984	3.35962	20.44199	16.08534	12.65065
28210	2.59193	2.57004	2.25026	11.75159	10.96404	10.24220	12.39050	8.39163	5.28331	8.58877	8.44211	7.97484	4.46708	3.84249	3.36047	20.42721	16.08855	12.65518
28370	2.59671	2.57085	2.25330	11.75665	10.96790	10.24674	12.38160	8.39425	5.28620	8.59389	8.44781	7.98098	4.46501	3.83958	3.35588	20.43128	16.08654	12.65312
28540	2.59544	2.56970	2.25487	11.75916	10.96964	10.24927	12.37352	8.39523	5.29036	8.59729	8.44933	7.98268	4.46687	3.84243	3.35940	20.43821	16.08972	12.65673
28700	2.59350	2.56906	2.25028	11.75833	10.96798	10.24787	12.38209	8.39247	5.28624	8.59406	8.44712	7.97947	4.46652	3.84236	3.36010	20.44470	16.09124	12.65909
28870	2.59374	2.57234	2.25455	11.76105	10.97268	10.25305	12.38511	8.39492	5.28706	8.59951	8.45087	7.98314	4.47085	3.84360	3.36049	20.44123	16.09264	12.66146
29030	2.59839	2.57221	2.25505	11.76389	10.97604	10.25395	12.39279	8.39827	5.28909	8.60007	8.45172	7.98555	4.47102	3.84281	3.36205	20.44002	16.09254	12.66066
29200	2.59545	2.57207	2.25408	11.76419	10.97553	10.25418	12.40400	8.39902	5.28975	8.60306	8.45649	7.98823	4.47079	3.84391	3.35862	20.45497	16.10147	12.66506
29360	2.59504	2.56955	2.25293	11.76686	10.97825	10.25486	12.37531	8.39360	5.28714	8.59986	8.45471	7.98611	4.46685	3.84097	3.35773	20.43444	16.09423	12.66322
29520	2.59720	2.56829	2.25369	11.76415	10.97629	10.25328	12.39575	8.39640	5.29082	8.59980	8.45333	7.98504	4.47074	3.84316	3.35943	20.42232	16.09543	12.66102	36.87	6.2	0.00	-2.04	0.01725	0.01196	0.01514	0.01821	0.01882	0.01473	0.00545	0.01511	0.01998	0.01853	0.01288	0.01642	0.01701	0.01757	0.01373	0.00571	0.01607	0.02138
29690	2.59473	2.56946	2.25378	11.76408	10.97663	10.25337	12.38954	8.39847	5.28809	8.60116	8.45245	7.98726	4.47029	3.84523	3.36286	20.45008	16.09692	12.66681
29850	2.59665	2.57392	2.25474	11.76985	10.98207	10.25930	12.40173	8.39891	5.29014	8.60642	8.45912	7.99130	4.46888	3.84477	3.35855	20.45370	16.10293	12.66802
30020	2.59676	2.57317	2.25648	11.77258	10.98613	10.26258	12.38635	8.40297	5.29082	8.60800	8.45914	7.99242	4.47102	3.84041	3.36036	20.44736	16.10001	12.67036
30180	2.59617	2.56805	2.25259	11.77285	10.98477	10.26031	12.39256	8.39263	5.28917	8.60823	8.45890	7.99210	4.46962	3.84349	3.36122	20.45461	16.10469	12.67098
30340	2.59327	2.57017	2.25196	11.77234	10.98434	10.26060	12.39714	8.39208	5.28858	8.60756	8.46169	7.99249	4.47060	3.84388	3.35835	20.45128	16.09942	12.66977
30510	2.59528	2.56840	2.25260	11.76961	10.98277	10.25835	12.39003	8.39029	5.28702	8.60809	8.46142	7.99249	4.47129	3.84686	3.36403	20.44751	16.11008	12.67554
30670	2.59777	2.57391	2.25704	11.77915	10.99015	10.26756	12.39624	8.39894	5.29087	8.61376	8.46820	7.99849	4.47040	3.84603	3.36074	20.44117	16.10459	12.67209
30840	2.59601	2.57271	2.25722	11.78082	10.99562	10.27217	12.39248	8.39924	5.29363	8.61717	8.47237	8.00225	4.47334	3.84510	3.36286	20.45340	16.10660	12.67699
31000	2.59719	2.56851	2.25454	11.77944	10.99194	10.26745	12.39003	8.39697	5.28773	8.61435	8.46937	7.99981	4.46993	3.84315	3.36018	20.45189	16.10735	12.67592
31170	2.59718	2.57098	2.25507	11.78106	10.99227	10.26905	12.38253	8.39379	5.28846	8.61522	8.46982	7.99987	4.46628	3.84215	3.35760	20.45550	16.10682	12.67509	36.98	6.2	0.00	-2.04	0.01725	0.01196	0.01514	0.01821	0.01882	0.01473	0.00545	0.01511	0.01998	0.01853	0.01288	0.01642	0.01701	0.01757	0.01373	0.00571	0.01607	0.02138
31330	2.59549	2.57022	2.25148	11.77980	10.99110	10.26614	12.35765	8.39092	5.28307	8.61476	8.47087	7.99978	4.46979	3.84418	3.36094	20.46034	16.11088	12.68335
31490	2.59856	2.57252	2.25533	11.78660	10.99623	10.27253	12.38400	8.39722	5.29068	8.61938	8.47472	8.00327	4.46954	3.84208	3.35922	20.45490	16.10857	12.67813
31660	2.59700	2.57195	2.25667	11.78593	10.99703	10.27388	12.42805	8.40150	5.29315	8.62058	8.47592	8.00569	4.47117	3.84600	3.36034	20.46034	16.11319	12.68250
31820	2.59808	2.57055	2.25488	11.78434	10.99571	10.27101	12.40666	8.39493	5.28720	8.62023	8.47382	8.00399	4.46647	3.84671	3.36149	20.46503	16.11348	12.68166
31990	2.59814	2.57179	2.25596	11.78734	10.99779	10.27375	12.40322	8.39533	5.28978	8.62129	8.47791	8.00771	4.47193	3.84464	3.36203	20.46881	16.11511	12.68441
32150	2.59895	2.57472	2.25622	11.78813	10.99755	10.27496	12.38817	8.39760	5.29190	8.62316	8.47728	8.00890	4.47226	3.84504	3.36054	20.46170	16.11553	12.68179
32320	2.59597	2.57263	2.25639	11.78646	10.99761	10.27660	12.39062	8.39747	5.29329	8.62598	8.47948	8.01119	4.47063	3.84547	3.36048	20.46488	16.11443	12.68342
32480	2.59795	2.56970	2.25640	11.78663	10.99819	10.27697	12.39013	8.39603	5.28728	8.62519	8.47906	8.00924	4.46596	3.84156	3.36016	20.46321	16.11332	12.68342
32640	2.59395	2.56964	2.25798	11.78986	11.00326	10.28031	12.38556	8.40027	5.29463	8.62916	8.48444	8.01469	4.47130	3.84683	3.36068	20.47366	16.11983	12.68905
32810	2.59867	2.57162	2.25612	11.79086	11.00238	10.28008	12.39512	8.39331	5.28945	8.62587	8.48288	8.01228	4.47101	3.84650	3.36385	20.47042	16.12161	12.69024	36.98	6.1	0.00	-2.04	0.01725	0.01196	0.01514	0.01821	0.01882	0.01473	0.00545	0.01511	0.01998	0.01853	0.01288	0.01642	0.01701	0.01757	0.01373	0.00571	0.01607	0.02138
32970	2.60032	2.57376	2.25683	11.79477	11.00597	10.28040	12.40690	8.39622	5.29219	8.62719	8.48264	8.01264	4.47407	3.84707	3.36285	20.45711	16.11949	12.68836
33140	2.59822	2.57126	2.25543	11.79432	11.00407	10.27946	12.39103	8.39961	5.29174	8.62528	8.48466	8.01164	4.47111	3.84595	3.36131	20.46649	16.12001	12.68699
33300	2.59885	2.57243	2.25649	11.79289	11.00183	10.27941	12.38384	8.39278	5.29055	8.62584	8.48319	8.01122	4.46757	3.84373	3.36117	20.46664	16.11884	12.68647
33460	2.59746	2.57555	2.25670	11.79536	11.00606	10.28103	12.37772	8.39792	5.29223	8.62781	8.48677	8.01493	4.47290	3.84389	3.36175	20.45847	16.12183	12.68950
33630	2.60080	2.57352	2.25760	11.79287	11.00256	10.27671	12.40699	8.39642	5.28875	8.62601	8.48242	8.01336	4.46826	3.84470	3.35962	20.47602	16.12496	12.69114
33790	2.59962	2.57127	2.25761	11.79525	11.00479	10.28118	12.39381	8.39807	5.29247	8.62965	8.48580	8.01624	4.46943	3.84353	3.36076	20.47466	16.12900	12.69386
33960	2.59817	2.57097	2.25608	11.79542	11.00442	10.28168	12.39537	8.39362	5.29032	8.62996	8.48601	8.01523	4.47360	3.84976	3.36680	20.47072	16.13613	12.70172
34120	2.60412	2.57536	2.26297	11.80282	11.01329	10.28772	12.40944	8.39754	5.29740	8.63600	8.49251	8.02241	4.47093	3.84519	3.36315	20.48193	16.13248	12.69946
34290	2.60151	2.57474	2.26074	11.80386	11.01646	10.29111	12.40167	8.40153	5.29434	8.63948	8.49693	8.02357	4.47527	3.84580	3.36340	20.48617	16.13711	12.70278
34450	2.60062	2.57643	2.25831	11.80366	11.01289	10.28850	12.38722	8.39915	5.29126	8.63595	8.49246	8.02281	4.47291	3.84296	3.36423	20.47705	16.13622	12.70112	36.98	6.1	0.00	-2.04	0.01725	0.01196	0.01514	0.01821	0.01882	0.01473	0.00545	0.01511	0.01998	0.01853	0.01288	0.01642	0.01701	0.01757	0.01373	0.00571	0.01607	0.02138
34610	2.59872	2.57325	2.26017	11.80323	11.01315	10.28940	12.39752	8.39613	5.29137	8.63712	8.49297	8.02282	4.46990	3.84205	3.35871	20.48144	16.13062	12.69756
34780	2.59600	2.57488	2.25587	11.79775	11.00797	10.28446	12.36730	8.39379	5.28912	8.63358	8.48901	8.01889	4.47170	3.84871	3.36441	20.49175	16.14020	12.70445
34940	2.60119	2.57646	2.26121	11.80481	11.01638	10.29213	12.40194	8.40360	5.29325	8.63863	8.49662	8.02453	4.47029	3.84461	3.36332	20.49235	16.13954	12.70306
35110	2.60086	2.57775	2.26213	11.80664	11.01813	10.29400	12.40677	8.40434	5.29601	8.64153	8.50039	8.02722	4.47363	3.84541	3.36217	20.49296	16.14121	12.70318
35270	2.60120	2.57620	2.25999	11.80455	11.01592	10.29149	12.40235	8.39780	5.29103	8.63727	8.49672	8.02364	4.47186	3.84555	3.36426	20.49160	16.13687	12.70266
35430	2.59847	2.57250	2.25946	11.80550	11.01506	10.29142	12.40423	8.40099	5.29354	8.63702	8.49761	8.02419	4.47110	3.84677	3.36376	20.47977	16.13863	12.70437
35600	2.59975	2.57664	2.26016	11.80673	11.01778	10.29234	12.38967	8.40575	5.29532	8.63942	8.49995	8.02599	4.47203	3.84626	3.36507	20.48917	16.13645	12.70300
35760	2.59937	2.57392	2.25920	11.80546	11.01750	10.29198	12.38559	8.40622	5.29502	8.64079	8.49944	8.02619	4.47264	3.84532	3.36400	20.48629	16.13759	12.70194
35930	2.60156	2.57392	2.25877	11.80468	11.01772	10.29301	12.40079	8.39813	5.29476	8.63830	8.50029	8.02702	4.47180	3.84685	3.36353	20.47265	16.13404	12.70202
36090	2.59944	2.57290	2.25760	11.80492	11.01715	10.29270	12.41719	8.39905	5.29069	8.64068	8.50030	8.02796	4.47041	3.84558	3.36370	20.47845	16.13532	12.70186	36.92	6.0	0.00	-2.04	0.01725	0.01196	0.01514	0.01821	0.01882	0.01473	0.00545	0.01511	0.01998	0.01853	0.01288	0.01642	0.01701	0.01757	0.01373	0.00571	0.01607	0.02138
36260	2.60132	2.57457	2.26097	11.80670	11.01924	10.29490	12.38291	8.39815	5.29347	8.64370	8.50392	8.03056	4.47114	3.84567	3.36251	20.48315	16.13369	12.70250
36420	2.59882	2.57394	2.25814	11.80535	11.01672	10.29245	12.39672	8.39466	5.29064	8.63966	8.49975	8.02670	4.47302	3.84686	3.36455	20.47345	16.13428	12.70289
36590	2.59953	2.57403	2.25945	11.80651	11.01944	10.29395	12.40654	8.40055	5.29258	8.64283	8.50242	8.02878	4.47002	3.84349	3.36229	20.47103	16.13112	12.69864
36750	2.60194	2.57721	2.25978	11.80775	11.01927	10.29739	12.37981	8.40420	5.29869	8.64401	8.50382	8.03206	4.47436	3.84904	3.36521	20.48209	16.13900	12.70451
36920	2.60049	2.57658	2.26005	11.80703	11.01991	10.29635	12.37124	8.40094	5.29415	8.64329	8.50334	8.03157	4.47326	3.84356	3.36414	20.48345	16.13359	12.70271
37080	2.60100	2.57391	2.26061	11.80779	11.02030	10.29402	12.39639	8.40283	5.29457	8.64443	8.50482	8.03099	4.47199	3.84558	3.36292	20.48876	16.13121	12.70026
37250	2.60139	2.57699	2.26229	11.81076	11.02355	10.29849	12.39525	8.40739	5.29913	8.64676	8.50845	8.03458	4.47623	3.85204	3.36807	20.48421	16.13558	12.70617
37410	2.60199	2.57547	2.26134	11.81066	11.02240	10.29608	12.38985	8.40145	5.29511	8.64412	8.50457	8.03056	4.47576	3.84964	3.36624	20.48618	16.13767	12.70817
37570	2.60197	2.57603	2.26146	11.81352	11.02539	10.29866	12.41506	8.40480	5.29328	8.64688	8.50938	8.03432	4.47166	3.84730	3.36238	20.47875	16.13506	12.70655
37740	2.59957	2.57645	2.26154	11.81408	11.02751	10.30232	12.39797	8.40475	5.29710	8.64775	8.50979	8.03767	4.47430	3.84616	3.36160	20.49434	16.13732	12.70712	36.92	6.1	0.00	-2.04	0.01725	0.01196	0.01514	0.01821	0.01882	0.01472	0.00545	0.01511	0.01998	0.01853	0.01288	0.01642	0.01701	0.01757	0.01373	0.00571	0.01607	0.02138
37900	2.59796	2.57190	2.25816	11.81348	11.02553	10.29712	12.40493	8.39505	5.29213	8.64471	8.50875	8.03479	4.47284	3.84480	3.36062	20.47721	16.13217	12.70331
38060	2.60069	2.57547	2.26145	11.81467	11.02748	10.30075	12.39765	8.40142	5.29672	8.64842	8.51291	8.03953	4.47284	3.84648	3.36337	20.49404	16.13689	12.70442
38230	2.60012	2.57421	2.25946	11.81280	11.02571	10.29563	12.38800	8.39801	5.29213	8.64559	8.50936	8.03465	4.47348	3.84813	3.36534	20.49525	16.13693	12.70785
38390	2.60266	2.57810	2.26132	11.81808	11.02804	10.30323	12.38628	8.40351	5.29312	8.64989	8.51360	8.03961	4.47490	3.84789	3.36207	20.48888	16.14100	12.71029
38550	2.59872	2.57394	2.25874	11.81593	11.02648	10.29998	12.38661	8.39849	5.29084	8.64673	8.51074	8.03720	4.47589	3.84648	3.36195	20.48085	16.14296	12.71222
38720	2.60092	2.57421	2.26072	11.82023	11.02970	10.30263	12.39732	8.39962	5.29362	8.65258	8.51268	8.04207	4.47503	3.84618	3.36400	20.48570	16.14185	12.70911
38880	2.59742	2.57159	2.25662	11.81642	11.02582	10.29967	12.37379	8.39576	5.28819	8.64759	8.51103	8.03671	4.47226	3.84730	3.36305	20.48357	16.14397	12.71340
39040	2.60220	2.57524	2.26103	11.81780	11.02904	10.30429	12.38726	8.40039	5.29268	8.65253	8.51280	8.04083	4.47115	3.84181	3.36096	20.48297	16.13937	12.70842
39210	2.59840	2.57393	2.25688	11.81169	11.02405	10.29942	12.38792	8.39541	5.28997	8.64837	8.51035	8.03656	4.47048	3.84913	3.36478	20.48054	16.14041	12.70905
39370	2.60061	2.57715	2.26001	11.81440	11.02796	10.30302	12.40468	8.39369	5.29298	8.65143	8.51423	8.04204	4.47367	3.84516	3.36178	20.48229	16.14128	12.70816	36.92	6.3	0.00	-2.04	0.01725	0.01196	0.01514	0.01821	0.01882	0.01472	0.00545	0.01511	0.01998	0.01853	0.01288	0.01642	0.01701	0.01757	0.01373	0.00571	0.01607	0.02138
39540	2.59947	2.57252	2.25779	11.81409	11.02516	10.30291	12.37714	8.39508	5.28871	8.65075	8.51246	8.04024	4.47200	3.84893	3.36697	20.48396	16.14787	12.71379
39700	2.60368	2.57573	2.26287	11.81888	11.03102	10.30663	12.39830	8.39949	5.29479	8.65289	8.51317	8.04268	4.47644	3.84595	3.36370	20.48593	16.13939	12.70880
39860	2.59808	2.57175	2.25980	11.81359	11.02548	10.30347	12.38252	8.40319	5.29259	8.65224	8.51375	8.04242	4.47346	3.84611	3.36164	20.49109	16.14281	12.71161
40030	2.59871	2.57482	2.25965	11.81442	11.02730	10.30362	12.39478	8.39433	5.28912	8.65250	8.51317	8.04300	4.47121	3.84521	3.36121	20.48806	16.13952	12.70643
40190	2.59810	2.57706	2.26048	11.81589	11.02686	10.30522	12.39233	8.40070	5.29378	8.65539	8.51685	8.04429	4.47446	3.84616	3.36606	20.48836	16.14147	12.70991
40350	2.59856	2.57397	2.25730	11.81319	11.02443	10.30226	12.38236	8.39682	5.29093	8.65194	8.51259	8.04128	4.47032	3.84778	3.36218	20.49124	16.14173	12.71042
40520	2.59846	2.57206	2.25903	11.81405	11.02423	10.30472	12.39830	8.39903	5.28866	8.65194	8.51368	8.04086	4.47338	3.84577	3.36450	20.48048	16.14043	12.71034
40680	2.59767	2.57078	2.26091	11.81239	11.02427	10.30148	12.40296	8.39393	5.29172	8.65336	8.51389	8.04131	4.47256	3.84931	3.36629	20.48502	16.14535	12.71318
40850	2.60160	2.57719	2.26209	11.81464	11.02780	10.30540	12.40411	8.39784	5.29523	8.65498	8.51489	8.04499	4.46995	3.84666	3.36021	20.47548	16.13635	12.70734
41010	2.60019	2.57667	2.26049	11.81402	11.02758	10.30492	12.39503	8.39883	5.29651	8.65576	8.51569	8.04542	4.47511	3.84773	3.36500	20.48247	16.14199	12.71099	36.92	6.2	0.00	-2.04	0.01725	0.01196	0.01514	0.01821	0.01882	0.01472	0.00545	0.01511	0.01998	0.01853	0.01288	0.01642	0.01701	0.01757	0.01373	0.00571	0.01607	0.02138
41180	2.60020	2.57344	2.25657	11.81172	11.02465	10.30287	12.38391	8.39667	5.28917	8.65504	8.51441	8.04465	4.47527	3.84539	3.36545	20.48747	16.14392	12.71148
41340	2.60224	2.57660	2.26143	11.81444	11.02700	10.30599	12.39372	8.39621	5.29175	8.65737	8.51710	8.04544	4.47325	3.84578	3.36013	20.48550	16.13945	12.70741
41510	2.60108	2.57618	2.26045	11.81529	11.03092	10.30657	12.41058	8.39988	5.29258	8.65965	8.51943	8.04788	4.47166	3.84627	3.36254	20.48428	16.14415	12.71155
41670	2.59838	2.57280	2.25858	11.81492	11.02758	10.30388	12.38939	8.39363	5.29333	8.65595	8.51824	8.04717	4.47223	3.84618	3.36503	20.48686	16.14102	12.70928
41830	2.59994	2.57519	2.26120	11.81773	11.02915	10.30617	12.39691	8.39711	5.28998	8.65927	8.51942	8.04853	4.47506	3.84829	3.36757	20.49156	16.14359	12.71505
42000	2.59951	2.57856	2.26217	11.82081	11.03297	10.30919	12.40861	8.40026	5.29526	8.66148	8.52194	8.05155	4.47339	3.84646	3.36423	20.49065	16.14493	12.71453
42160	2.60072	2.57724	2.26138	11.82026	11.03380	10.30988	12.38350	8.40143	5.29476	8.66326	8.52351	8.05377	4.47452	3.84618	3.36485	20.48974	16.14542	12.71534
42330	2.60032	2.57646	2.26064	11.82041	11.03365	10.30979	12.39642	8.39647	5.29150	8.66012	8.52105	8.05079	4.47287	3.84689	3.36822	20.49338	16.14741	12.71711
42490	2.60258	2.57634	2.26227	11.82573	11.03763	10.31342	12.40411	8.40130	5.29490	8.66551	8.52630	8.05350	4.47310	3.84628	3.36532	20.49293	16.14676	12.71574
42660	2.60058	2.57719	2.26021	11.82201	11.03904	10.31270	12.39904	8.40025	5.29458	8.66554	8.52661	8.05488	4.47352	3.84694	3.36573	20.49286	16.14549	12.71594	36.92	6.1	0.00	-2.04	0.01725	0.01196	0.01514	0.01821	0.01882	0.01473	0.00545	0.01511	0.01998	0.01853	0.01288	0.01642	0.01701	0.01757	0.01373	0.00571	0.01607	0.02138
42820	2.60056	2.57412	2.25995	11.82215	11.03494	10.31071	12.40288	8.39713	5.29297	8.66327	8.52454	8.05286	4.46920	3.84667	3.36034	20.48043	16.14507	12.71368
42980	2.60163	2.57746	2.26360	11.82279	11.04099	10.31606	12.40493	8.40305	5.29451	8.66761	8.52886	8.05692	4.47576	3.84798	3.36517	20.49347	16.15023	12.71836
43150	2.60074	2.57746	2.25984	11.82305	11.03641	10.31192	12.39380	8.40118	5.29293	8.66301	8.52633	8.05382	4.47425	3.84947	3.36701	20.48846	16.14850	12.71781
43310	2.60439	2.57619	2.26086	11.82187	11.03749	10.31263	12.40100	8.40157	5.29425	8.66600	8.52777	8.05662	4.47300	3.84692	3.36332	20.49028	16.14530	12.71692
43480	2.59960	2.57644	2.26088	11.82436	11.04042	10.31548	12.38310	8.39950	5.29531	8.66753	8.53039	8.05747	4.47244	3.84721	3.35993	20.49499	16.14964	12.72031
43640	2.59950	2.57555	2.25843	11.82561	11.04081	10.31646	12.38988	8.39633	5.29401	8.66818	8.53058	8.05910	4.47013	3.84667	3.36120	20.49393	16.14882	12.71795
43800	2.60145	2.57733	2.26193	11.82620	11.04159	10.31789	12.38841	8.40419	5.29558	8.67077	8.53252	8.05990	4.47452	3.84844	3.36527	20.49104	16.14859	12.72018
43970	2.60079	2.57721	2.26086	11.82301	11.03893	10.31632	12.40640	8.40153	5.29323	8.66775	8.53116	8.06095	4.47416	3.84775	3.36533	20.49377	16.14556	12.71800
44130	2.60039	2.57695	2.26300	11.82410	11.03950	10.31662	12.39446	8.39627	5.29541	8.66841	8.53152	8.06107	4.47404	3.84846	3.36617	20.48816	16.14908	12.72043
44300	2.60096	2.57651	2.26112	11.82540	11.04078	10.31909	12.39304	8.39930	5.29480	8.67045	8.53357	8.06351	4.47350	3.84726	3.36893	20.49417	16.15330	12.72332	36.92	6.1	0.00	-2.04	0.01725	0.01196	0.01514	0.01821	0.01882	0.01473	0.00545	0.01511	0.01998	0.01853	0.01288	0.01642	0.01701	0.01757	0.01373	0.00571	0.01607	0.02138
44460	2.60197	2.57634	2.26346	11.82715	11.04254	10.31970	12.40801	8.40006	5.29512	8.67219	8.53555	8.06486	4.47392	3.85017	3.36736	20.49250	16.15199	12.72317
44630	2.60162	2.57785	2.26306	11.82741	11.04445	10.31934	12.38821	8.40191	5.29415	8.67188	8.53529	8.06395	4.47286	3.85000	3.36665	20.49721	16.15388	12.72243
44790	2.60096	2.57766	2.26203	11.82720	11.04242	10.32095	12.39868	8.40194	5.29498	8.67299	8.53549	8.06552	4.47540	3.85181	3.36785	20.49265	16.15166	12.72175
44960	2.60361	2.57652	2.26083	11.82703	11.04287	10.32135	12.40187	8.39592	5.29800	8.67309	8.53570	8.06355	4.47511	3.85058	3.36700	20.48765	16.15264	12.72150
45120	2.60394	2.57786	2.26349	11.82793	11.04161	10.31814	12.39410	8.40046	5.29272	8.67105	8.53418	8.06348	4.47126	3.84714	3.36332	20.48629	16.15398	12.72391
45290	2.60285	2.57800	2.26224	11.83191	11.04327	10.31985	12.39050	8.39897	5.29606	8.67325	8.53647	8.06471	4.47322	3.84607	3.36104	20.49235	16.15395	12.72201
45450	2.59908	2.57819	2.26299	11.82716	11.04288	10.32238	12.38503	8.40126	5.29749	8.67618	8.53624	8.06676	4.47451	3.84851	3.36255	20.49736	16.15447	12.72322
45620	2.60203	2.57651	2.26162	11.82810	11.04330	10.32012	12.40253	8.39962	5.29245	8.67389	8.53517	8.06484	4.47359	3.85003	3.36771	20.49994	16.15480	12.72641
45780	2.60377	2.57826	2.26133	11.83046	11.04387	10.32144	12.39189	8.39859	5.29300	8.67264	8.53432	8.06416	4.47213	3.84594	3.36476	20.49281	16.14618	12.72008
45950	2.60217	2.57862	2.26369	11.82608	11.04288	10.31965	12.40089	8.40255	5.29575	8.67455	8.53808	8.06638	4.47670	3.84878	3.36657	20.50055	16.15401	12.72237	36.92	6.2	0.00	-2.04	0.01725	0.01196	0.01514	0.01821	0.01882	0.01473	0.00545	0.01511	0.01998	0.01853	0.01288	0.01642	0.01701	0.01757	0.01373	0.00571	0.01607	0.02138
46110	2.60227	2.57613	2.26117	11.82532	11.03967	10.31987	12.39533	8.39861	5.29363	8.67417	8.53707	8.06628	4.47492	3.84964	3.36709	20.49872	16.15731	12.72608
46270	2.60410	2.57731	2.26392	11.82988	11.04472	10.32198	12.39541	8.40022	5.29162	8.67799	8.53717	8.06852	4.47285	3.84655	3.36335	20.49736	16.14967	12.72119
46440	2.60447	2.57852	2.26532	11.82986	11.04512	10.32233	12.40007	8.40596	5.29534	8.67892	8.53886	8.07063	4.47693	3.84985	3.36659	20.49872	16.15617	12.72466
46600	2.60199	2.57628	2.26188	11.82818	11.04114	10.32133	12.39704	8.39382	5.29091	8.67475	8.53451	8.06755	4.47370	3.84647	3.36371	20.51194	16.15192	12.72335
46770	2.60337	2.57801	2.26219	11.82658	11.04296	10.32209	12.40359	8.40088	5.29066	8.67602	8.53581	8.06877	4.47273	3.84581	3.36286	20.49645	16.15052	12.72093
46930	2.59950	2.57433	2.25907	11.82504	11.03862	10.31632	12.38217	8.39356	5.28887	8.67329	8.53280	8.06605	4.47183	3.85068	3.36638	20.49599	16.15512	12.72566
47090	2.60314	2.57852	2.26220	11.83001	11.04374	10.32110	12.39631	8.40187	5.29393	8.67627	8.53726	8.07115	4.47209	3.84792	3.36405	20.49721	16.15388	12.72253
47260	2.60399	2.57649	2.26287	11.82814	11.04392	10.32113	12.39287	8.40092	5.29341	8.67784	8.53719	8.07022	4.47167	3.84567	3.36487	20.50632	16.15529	12.72152
47420	2.60225	2.57663	2.26130	11.82674	11.04079	10.31875	12.40449	8.39925	5.28987	8.67632	8.53683	8.06794	4.47009	3.84717	3.36350	20.50100	16.14987	12.72081
47590	2.60170	2.57496	2.26214	11.82790	11.04494	10.32200	12.39868	8.39830	5.29247	8.67865	8.53948	8.07210	4.47395	3.84846	3.36557	20.50354	16.15574	12.72454	36.92	6.0	0.00	-2.04	0.01725	0.01196	0.01514	0.01821	0.01882	0.01473	0.00545	0.01511	0.01998	0.01853	0.01288	0.01642	0.01701	0.01757	0.01373	0.00571	0.01607	0.02138
47760	2.60225	2.57687	2.26396	11.83081	11.04663	10.32318	12.39680	8.39443	5.29440	8.67967	8.54049	8.07417	4.47307	3.84808	3.36615	20.50324	16.15845	12.73068
47920	2.60436	2.57912	2.26490	11.83841	11.05328	10.32732	12.40195	8.40159	5.29420	8.68428	8.54592	8.07675	4.47368	3.85065	3.36265	20.50765	16.16286	12.72859
48090	2.60178	2.57761	2.26087	11.83475	11.04962	10.32414	12.39492	8.39506	5.29426	8.68169	8.54382	8.07592	4.47212	3.84838	3.36408	20.50203	16.15541	12.72644
48250	2.60044	2.57651	2.26403	11.83234	11.05095	10.32622	12.38323	8.39729	5.29506	8.68278	8.54566	8.07645	4.47295	3.84601	3.36508	20.50187	16.15881	12.72755
48420	2.60201	2.57537	2.26064	11.83489	11.04883	10.32415	12.39140	8.39696	5.28924	8.67953	8.54360	8.07478	4.47396	3.84916	3.36548	20.50036	16.15819	12.72993
48580	2.60342	2.57761	2.26326	11.83657	11.05108	10.32853	12.39508	8.40260	5.29499	8.68204	8.54589	8.07733	4.47204	3.84830	3.36608	20.50597	16.15655	12.72772
48750	2.60443	2.57935	2.26674	11.83707	11.05420	10.32937	12.40907	8.39901	5.29604	8.68466	8.54753	8.08024	4.47328	3.84830	3.36599	20.51068	16.16155	12.73144
48910	2.60425	2.57677	2.26232	11.83423	11.05043	10.32671	12.38494	8.39399	5.29249	8.68266	8.54324	8.07758	4.47331	3.84727	3.36489	20.51038	16.15747	12.72529
49070	2.60050	2.57724	2.26248	11.83359	11.04794	10.32497	12.37906	8.39800	5.28874	8.68078	8.54346	8.07510	4.47313	3.84639	3.36440	20.50537	16.15989	12.72747
49240	2.60361	2.57593	2.26223	11.83362	11.05110	10.32626	12.39134	8.39760	5.29087	8.68297	8.54431	8.07701	4.47126	3.84664	3.36533	20.50638	16.16050	12.72746	36.92	6.1	0.00	-2.04	0.01725	0.01196	0.01514	0.01821	0.01882	0.01473	0.00545	0.01511	0.01998	0.01853	0.01288	0.01642	0.01701	0.01757	0.01373	0.00571	0.01607	0.02138
49400	2.60258	2.57780	2.26441	11.83633	11.05196	10.32755	12.41672	8.39619	5.29291	8.68362	8.54656	8.07953	4.47561	3.84798	3.36574	20.50775	16.16020	12.72834
49570	2.60334	2.57673	2.26403	11.83636	11.05235	10.32927	12.38791	8.40000	5.29153	8.68336	8.54513	8.07761	4.47398	3.84969	3.36580	20.50319	16.16060	12.73196
49730	2.60414	2.57866	2.26326	11.83578	11.05141	10.32740	12.39617	8.39962	5.29528	8.68285	8.54586	8.07871	4.47275	3.84790	3.36248	20.50335	16.15740	12.72796
49900	2.60137	2.58036	2.26618	11.83765	11.05482	10.32994	12.38995	8.39819	5.29791	8.68777	8.54796	8.08223	4.47436	3.84961	3.36870	20.51596	16.16334	12.73254
50060	2.60226	2.57836	2.26238	11.83831	11.05348	10.32869	12.40918	8.39248	5.29279	8.68488	8.54470	8.08030	4.47248	3.84830	3.36524	20.50183	16.16363	12.73083
50230	2.60332	2.57832	2.26346	11.83796	11.05559	10.32831	12.39093	8.39672	5.29319	8.68604	8.54747	8.08169	4.47358	3.84876	3.36565	20.51079	16.16723	12.73283
50390	2.60525	2.57862	2.26383	11.84207	11.05813	10.33171	12.38211	8.39614	5.29285	8.68789	8.54815	8.08244	4.47301	3.85079	3.36892	20.51991	16.16870	12.73719
50560	2.60380	2.58184	2.26701	11.84787	11.06243	10.33394	12.40894	8.39832	5.29534	8.68934	8.55172	8.08627	4.47258	3.84963	3.36724	20.52219	16.16560	12.73373
50720	2.60162	2.58024	2.26568	11.84551	11.06442	10.33648	12.39649	8.40770	5.29919	8.69337	8.55523	8.09019	4.47582	3.85015	3.36581	20.52691	16.17419	12.74036
50890	2.60400	2.57664	2.26310	11.84981	11.06479	10.33817	12.39666	8.39504	5.29380	8.69263	8.55565	8.08923	4.47465	3.85110	3.37090	20.52620	16.17825	12.74620	36.92	6.1	0.00	-2.04	0.01725	0.01196	0.01514	0.01821	0.01882	0.01473	0.00545	0.01511	0.01998	0.01853	0.01288	0.01642	0.01701	0.01757	0.01373	0.00571	0.01607	0.02138
51050	2.60449	2.58034	2.26421	11.85279	11.06650	10.34176	12.39388	8.40171	5.29447	8.69697	8.55866	8.09303	4.47476	3.84712	3.36688	20.52239	16.17553	12.74350
51220	2.60187	2.57833	2.26427	11.84999	11.06389	10.33911	12.39813	8.39537	5.29315	8.69479	8.55675	8.09128	4.47026	3.84719	3.36530	20.51874	16.17426	12.74122
51380	2.60038	2.57392	2.26211	11.84945	11.06185	10.33717	12.40296	8.39583	5.29074	8.69268	8.55425	8.08936	4.47211	3.84877	3.37018	20.52818	16.17740	12.74635
51550	2.60556	2.57972	2.26543	11.85306	11.06770	10.34284	12.39502	8.40039	5.29337	8.69670	8.55894	8.09228	4.47224	3.84781	3.36702	20.51266	16.16843	12.74015
51710	2.60505	2.58217	2.26737	11.85445	11.06917	10.34694	12.40533	8.40356	5.29486	8.70008	8.56256	8.09619	4.47824	3.85124	3.36794	20.52528	16.17723	12.74551
51880	2.60688	2.57742	2.26234	11.85444	11.06682	10.34322	12.39960	8.39876	5.29400	8.69691	8.55916	8.09414	4.47311	3.84896	3.36540	20.52848	16.17566	12.74371
52040	2.60262	2.57915	2.26399	11.85009	11.06613	10.34188	12.39429	8.40003	5.29311	8.69585	8.55911	8.09352	4.47250	3.84509	3.36592	20.52331	16.17501	12.74230
52200	2.60427	2.57892	2.26447	11.85503	11.06852	10.34631	12.38987	8.40144	5.29840	8.69961	8.56352	8.09764	4.47673	3.84905	3.36611	20.52163	16.17848	12.74753
52370	2.60344	2.57962	2.26255	11.85411	11.06779	10.34388	12.40615	8.40102	5.29081	8.69818	8.56255	8.09531	4.47356	3.84887	3.36440	20.52118	16.17962	12.74698
52530	2.60281	2.57924	2.26259	11.85244	11.06801	10.34412	12.39377	8.39915	5.29633	8.69941	8.56348	8.09706	4.47385	3.84601	3.36474	20.53048	16.17576	12.74339	36.92	6.2	0.00	-2.04	0.01725	0.01196	0.01514	0.01821	0.01882	0.01473	0.00545	0.01511	0.01998	0.01853	0.01288	0.01642	0.01701	0.01757	0.01373	0.00571	0.01607	0.02138
52700	2.60025	2.57494	2.26087	11.85122	11.06635	10.34117	12.39017	8.39358	5.28845	8.69810	8.56071	8.09612	4.47346	3.85106	3.36904	20.52256	16.18319	12.74936
52860	2.60589	2.58046	2.26467	11.85682	11.07156	10.34752	12.41047	8.40279	5.29507	8.70322	8.56569	8.09903	4.47531	3.84637	3.36390	20.52393	16.18097	12.74696
53030	2.60227	2.57934	2.26362	11.85692	11.07083	10.34971	12.39909	8.40096	5.29627	8.70276	8.56654	8.10150	4.47283	3.84905	3.36406	20.52895	16.18110	12.74931
53190	2.60459	2.57996	2.26769	11.85897	11.07245	10.34987	12.39606	8.40113	5.29442	8.70585	8.56875	8.10262	4.47609	3.84904	3.36693	20.54099	16.18146	12.74874
53360	2.60269	2.57801	2.26760	11.85736	11.07392	10.34846	12.41145	8.40539	5.29591	8.70727	8.56944	8.10405	4.47486	3.84877	3.36573	20.52926	16.18116	12.74926
53520	2.60312	2.57896	2.26332	11.85635	11.07059	10.34735	12.38600	8.39845	5.29392	8.70423	8.56610	8.10419	4.47349	3.84756	3.36563	20.52576	16.18319	12.75276
53690	2.60445	2.58082	2.26552	11.86094	11.07600	10.35399	12.39999	8.40162	5.29545	8.70914	8.57091	8.10727	4.47121	3.84821	3.36445	20.53154	16.18555	12.75294
53850	2.60391	2.57911	2.26644	11.86026	11.07639	10.35318	12.38641	8.39971	5.29604	8.70965	8.56987	8.10862	4.47326	3.85060	3.36731	20.53230	16.18748	12.75448
54020	2.60151	2.57870	2.26248	11.86040	11.07301	10.35096	12.38363	8.39521	5.29010	8.70561	8.56689	8.10380	4.47497	3.85103	3.36764	20.52195	16.18722	12.75358
54180	2.60568	2.58058	2.26618	11.85903	11.07257	10.35240	12.41858	8.39918	5.29531	8.70585	8.56748	8.10439	4.47402	3.84792	3.36529	20.52925	16.17712	12.74982	36.92	6.0	0.00	-2.04	0.01725	0.01196	0.01514	0.01821	0.01882	0.01473	0.00545	0.01511	0.01998	0.01853	0.01288	0.01642	0.01701	0.01757	0.01373	0.00571	0.01607	0.02138
54340	2.60439	2.58027	2.26597	11.85993	11.07317	10.35296	12.39164	8.39933	5.29595	8.70842	8.57048	8.10719	4.47435	3.84894	3.36260	20.52940	16.18311	12.75271
54510	2.60448	2.57588	2.26091	11.86042	11.07195	10.35220	12.37636	8.39742	5.29268	8.70844	8.56858	8.10726	4.47590	3.84973	3.36855	20.53504	16.18717	12.75732
54670	2.60831	2.57981	2.26451	11.86376	11.07476	10.35567	12.38249	8.39863	5.29698	8.71144	8.56966	8.11031	4.47386	3.84814	3.36803	20.52681	16.18472	12.75371
54840	2.60668	2.58139	2.26614	11.86329	11.07564	10.35661	12.38992	8.40006	5.29733	8.71304	8.57094	8.11116	4.47664	3.84899	3.36855	20.53001	16.18596	12.75755
55000	2.60498	2.57832	2.26420	11.86185	11.07604	10.35222	12.40391	8.40083	5.29258	8.70934	8.56904	8.10827	4.47469	3.84845	3.36916	20.53443	16.18865	12.75808
55170	2.60571	2.57840	2.26293	11.86202	11.07612	10.35324	12.38502	8.39956	5.29287	8.71104	8.57070	8.10851	4.47253	3.84730	3.36355	20.53412	16.18619	12.75520
55330	2.60137	2.57576	2.26280	11.85992	11.07362	10.35178	12.39639	8.39755	5.29125	8.70826	8.56731	8.10767	4.47479	3.85057	3.36859	20.54494	16.19055	12.76061
55490	2.60478	2.57813	2.26673	11.86440	11.07718	10.35440	12.40637	8.40200	5.29226	8.71114	8.57003	8.11068	4.47512	3.84732	3.36668	20.53199	16.18534	12.75512
55660	2.60344	2.58038	2.26632	11.86553	11.08105	10.35852	12.39524	8.40541	5.29858	8.71582	8.57515	8.11265	4.47667	3.85071	3.36804	20.54708	16.19232	12.76143
55820	2.60292	2.57724	2.26510	11.86720	11.07882	10.35577	12.38573	8.40004	5.29549	8.71191	8.57332	8.11027	4.47577	3.84922	3.36875	20.54540	16.19131	12.76070	36.92	6.1	0.00	-2.04	0.01725	0.01196	0.01514	0.01821	0.01882	0.01473	0.00545	0.01511	0.01998	0.01853	0.01288	0.01642	0.01701	0.01757	0.01373	0.00571	0.01607	0.02138
55990	2.60257	2.57570	2.26348	11.86760	11.08047	10.35721	12.39938	8.40015	5.29360	8.71308	8.57317	8.11193	4.47407	3.84980	3.36646	20.53367	16.19154	12.76075
56150	2.60604	2.57806	2.26534	11.86885	11.08328	10.35900	12.38107	8.40413	5.29628	8.71520	8.57476	8.11373	4.47519	3.84758	3.36531	20.53108	16.19393	12.76198
56310	2.60219	2.57642	2.26152	11.86871	11.08047	10.35659	12.38050	8.39838	5.29231	8.71448	8.57445	8.11244	4.47675	3.85026	3.36711	20.54372	16.20029	12.76680
56480	2.60692	2.58257	2.26621	11.87486	11.08555	10.36151	12.39832	8.39814	5.29909	8.71807	8.57841	8.11579	4.47747	3.84954	3.36650	20.53732	16.19652	12.76404
56640	2.60420	2.57747	2.26461	11.87139	11.08340	10.36011	12.40037	8.39933	5.29708	8.71814	8.57837	8.11713	4.47564	3.84612	3.36483	20.53778	16.19374	12.76373
56810	2.60479	2.57819	2.26378	11.86962	11.08263	10.35873	12.38557	8.39684	5.29511	8.71657	8.57687	8.11577	4.47314	3.84632	3.36475	20.54372	16.19384	12.76088
56970	2.60233	2.57697	2.26465	11.86835	11.08420	10.36124	12.39137	8.40596	5.29708	8.72013	8.58028	8.11810	4.47521	3.84981	3.36621	20.54906	16.19738	12.76473
57130	2.60429	2.58062	2.26511	11.87113	11.08312	10.36207	12.38982	8.39876	5.29318	8.71864	8.57916	8.11854	4.47540	3.84944	3.36755	20.54677	16.19629	12.76580
57300	2.60562	2.57930	2.26410	11.87385	11.08519	10.36169	12.39080	8.40098	5.29597	8.71977	8.58024	8.11779	4.47258	3.84845	3.36389	20.54007	16.19367	12.76200
57460	2.60336	2.57778	2.26404	11.87089	11.08540	10.36309	12.39843	8.39930	5.29329	8.71988	8.58189	8.12149	4.47459	3.84917	3.36607	20.53901	16.19479	12.76565	36.92	6.1	0.00	-2.04	0.01724	0.01196	0.01514	0.01821	0.01882	0.01473	0.00545	0.01511	0.01998	0.01853	0.01288	0.01641	0.01701	0.01757	0.01373	0.00571	0.01607	0.02138
57630	2.60431	2.57835	2.26476	11.87253	11.08623	10.36375	12.40350	8.40241	5.29416	8.71897	8.58076	8.12089	4.47495	3.84723	3.36692	20.55426	16.19777	12.76600
57790	2.60412	2.58278	2.26713	11.87533	11.08901	10.36724	12.40007	8.40214	5.29876	8.72311	8.58643	8.12288	4.47287	3.85033	3.36625	20.55090	16.19758	12.76791
57960	2.60507	2.57780	2.26589	11.87751	11.09071	10.36894	12.41456	8.40307	5.29840	8.72523	8.58719	8.12553	4.47617	3.84923	3.36653	20.54526	16.19892	12.76748
58120	2.60530	2.57704	2.26455	11.87516	11.08906	10.36382	12.39999	8.39941	5.29482	8.72196	8.58369	8.12254	4.47424	3.85031	3.36894	20.54999	16.19928	12.76812
58290	2.60483	2.57887	2.26657	11.87603	11.09045	10.36827	12.41382	8.40646	5.29718	8.72419	8.58738	8.12463	4.47516	3.84819	3.36681	20.53459	16.19646	12.76565
58450	2.60513	2.58042	2.26692	11.87823	11.09253	10.36978	12.42120	8.40254	5.29703	8.72782	8.59007	8.12807	4.47897	3.85031	3.36635	20.54510	16.20227	12.77205
58620	2.60439	2.57897	2.26554	11.87890	11.09253	10.36902	12.39450	8.40007	5.29609	8.72522	8.58763	8.12578	4.47687	3.85186	3.37070	20.55502	16.20571	12.77324
58780	2.60688	2.58187	2.26517	11.88014	11.09581	10.37020	12.39876	8.40298	5.30045	8.72680	8.59052	8.12917	4.47551	3.84903	3.36789	20.54388	16.20082	12.76911
58950	2.60657	2.58076	2.26782	11.88201	11.09861	10.37229	12.41194	8.40813	5.30182	8.72943	8.59192	8.13120	4.47933	3.85032	3.36876	20.55411	16.20666	12.77126
59110	2.60478	2.57923	2.26436	11.87953	11.09454	10.37065	12.41231	8.40150	5.29763	8.72804	8.59149	8.12793	4.47432	3.85066	3.36908	20.54986	16.19787	12.76776	36.98	6.1	0.00	-2.04	0.01724	0.01196	0.01514	0.01821	0.01882	0.01473	0.00545	0.01511	0.01998	0.01853	0.01288	0.01641	0.01701	0.01757	0.01373	0.00571	0.01607	0.02138
59270	2.60504	2.57938	2.26420	11.87844	11.09332	10.36862	12.41034	8.40654	5.29517	8.72776	8.59029	8.12923	4.47761	3.85083	3.36688	20.54208	16.20004	12.77173
59440	2.60618	2.58048	2.26525	11.88263	11.09900	10.37320	12.41083	8.40354	5.29727	8.72926	8.59386	8.13170	4.47379	3.85003	3.36777	20.54574	16.20476	12.77273
59600	2.60604	2.57896	2.26605	11.88426	11.10046	10.37611	12.40616	8.40223	5.29641	8.73110	8.59482	8.13370	4.47719	3.85346	3.37028	20.55886	16.20686	12.77825
59770	2.60991	2.58568	2.26808	11.88915	11.10322	10.37940	12.40428	8.40718	5.30231	8.73407	8.59731	8.13546	4.47930	3.85252	3.36740	20.55718	16.20509	12.77428
59930	2.60676	2.58320	2.26816	11.88494	11.10213	10.37904	12.42624	8.40960	5.30136	8.73536	8.59794	8.13734	4.48210	3.85442	3.37025	20.55459	16.20775	12.77762
60090	2.60711	2.57987	2.26674	11.88781	11.10282	10.37879	12.41083	8.40260	5.29257	8.73581	8.59829	8.13605	4.47777	3.85178	3.36857	20.55932	16.21195	12.78078
60260	2.60454	2.58044	2.26556	11.88921	11.10371	10.37919	12.40870	8.40561	5.29713	8.73561	8.59849	8.13579	4.47737	3.85074	3.36643	20.56008	16.20745	12.77805
60420	2.60505	2.58162	2.26585	11.88682	11.10278	10.37778	12.38865	8.40370	5.29395	8.73335	8.59733	8.13505	4.47854	3.85252	3.36993	20.56222	16.21087	12.78203
60590	2.60659	2.57993	2.26681	11.89193	11.10797	10.38239	12.39438	8.40632	5.30000	8.73810	8.60085	8.13840	4.47846	3.85195	3.36719	20.55718	16.21008	12.77862
60750	2.60538	2.58122	2.26818	11.89224	11.10966	10.38427	12.40823	8.40725	5.29945	8.73824	8.60161	8.13946	4.47960	3.85182	3.37059	20.56561	16.21305	12.78330	36.92	6.1	0.00	-2.04	0.01724	0.01196	0.01514	0.01821	0.01882	0.01473	0.00545	0.01511	0.01998	0.01853	0.01288	0.01641	0.01701	0.01757	0.01373	0.00571	0.01607	0.02138
60910	2.60729	2.58075	2.26766	11.89309	11.10762	10.38371	12.38654	8.40864	5.29634	8.74082	8.60204	8.14070	4.47717	3.85319	3.37308	20.57967	16.21929	12.78673
61080	2.60667	2.58026	2.26825	11.89576	11.11358	10.38713	12.40724	8.40441	5.29983	8.74520	8.60605	8.14464	4.47804	3.85360	3.36950	20.56041	16.21601	12.78683
61240	2.60715	2.58217	2.26728	11.89873	11.11524	10.39185	12.40217	8.40448	5.30223	8.74615	8.60630	8.14619	4.47844	3.85226	3.37112	20.56240	16.21762	12.78877
61410	2.60655	2.58058	2.26800	11.89616	11.11271	10.38841	12.41249	8.40740	5.29897	8.74590	8.60801	8.14563	4.47713	3.85372	3.37118	20.57340	16.21788	12.78968
61570	2.60943	2.58189	2.26978	11.89875	11.11508	10.39014	12.39202	8.40490	5.30020	8.74729	8.60849	8.14664	4.47741	3.85381	3.36758	20.55919	16.21525	12.78758
61740	2.60950	2.58214	2.27150	11.89936	11.11708	10.39466	12.40479	8.41150	5.30179	8.75014	8.60916	8.14778	4.48154	3.85338	3.37146	20.56377	16.22097	12.79166
61900	2.60890	2.58367	2.26672	11.89915	11.11485	10.39026	12.40118	8.40677	5.30045	8.74788	8.60802	8.14783	4.48174	3.85688	3.37144	20.57570	16.22564	12.79444
62070	2.61094	2.58186	2.26969	11.90357	11.11840	10.39404	12.39848	8.41009	5.29889	8.74939	8.61181	8.14957	4.48093	3.85616	3.37255	20.57952	16.22429	12.79751
62230	2.61069	2.58337	2.26995	11.90500	11.12331	10.39817	12.39268	8.40875	5.30184	8.75424	8.61535	8.15368	4.48058	3.85437	3.37346	20.57922	16.22715	12.79512
62400	2.60781	2.58389	2.26881	11.90403	11.12088	10.39737	12.41422	8.40844	5.30135	8.75222	8.61298	8.15261	4.48091	3.85333	3.37097	20.57890	16.22477	12.79443	36.98	6.1	0.00	-2.04	0.01724	0.01196	0.01514	0.01821	0.01882	0.01473	0.00545	0.01511	0.01998	0.01853	0.01288	0.01641	0.01701	0.01757	0.01373	0.00571	0.01607	0.02138
62560	2.60605	2.58119	2.26810	11.90284	11.11877	10.39421	12.40938	8.40910	5.29909	8.75128	8.61392	8.15061	4.47628	3.84880	3.36766	20.57462	16.22662	12.79387
62720	2.60591	2.58044	2.27057	11.90174	11.12155	10.40107	12.40389	8.41293	5.30487	8.75710	8.61724	8.15593	4.48262	3.85570	3.37372	20.58150	16.23007	12.79942
62890	2.60827	2.58381	2.26812	11.90574	11.12175	10.39824	12.40881	8.40461	5.30022	8.75390	8.61454	8.15357	4.48055	3.85054	3.37234	20.57462	16.22951	12.80120
63050	2.60785	2.58239	2.26782	11.90810	11.12378	10.40229	12.41069	8.40629	5.29959	8.75587	8.61657	8.15469	4.47880	3.85492	3.37169	20.58395	16.22921	12.80187
63220	2.60721	2.58035	2.26622	11.90803	11.12366	10.40088	12.39890	8.40576	5.29593	8.75602	8.61900	8.15523	4.47960	3.85986	3.37707	20.57814	16.24034	12.80950
63380	2.61058	2.58786	2.27142	11.91458	11.13281	10.40745	12.41159	8.40613	5.30301	8.76288	8.62437	8.16171	4.48156	3.85434	3.37156	20.57997	16.23741	12.80643
63550	2.60816	2.58157	2.26812	11.91205	11.13059	10.40661	12.39391	8.40822	5.30086	8.76298	8.62332	8.16192	4.48025	3.85446	3.37132	20.58564	16.23948	12.81067
63710	2.60881	2.58215	2.26634	11.91472	11.13096	10.40820	12.39931	8.40587	5.29852	8.76366	8.62530	8.16375	4.48101	3.85687	3.37422	20.58747	16.24656	12.81917
63870	2.61074	2.58361	2.26909	11.92282	11.13810	10.41459	12.39628	8.41488	5.30563	8.76843	8.62890	8.16733	4.48030	3.85425	3.36937	20.58993	16.24376	12.81461
64040	2.60738	2.58105	2.26733	11.91743	11.13346	10.41296	12.41221	8.40671	5.30007	8.76574	8.62704	8.16582	4.48079	3.85141	3.36959	20.59561	16.24459	12.81405	36.92	6.1	0.00	-2.04	0.01724	0.01196	0.01514	0.01821	0.01882	0.01473	0.00545	0.01511	0.01998	0.01853	0.01288	0.01641	0.01701	0.01757	0.01373	0.00571	0.01607	0.02138
64200	2.60813	2.58331	2.26860	11.91617	11.13344	10.41416	12.39215	8.40486	5.30065	8.76648	8.62694	8.16564	4.47679	3.85103	3.37168	20.58473	16.24310	12.81491
64370	2.60795	2.58269	2.26830	11.91769	11.13243	10.41102	12.40631	8.40721	5.30377	8.76632	8.62556	8.16399	4.47892	3.85333	3.36757	20.58917	16.24640	12.81480
64530	2.60841	2.58329	2.26777	11.91897	11.13304	10.41380	12.42024	8.40921	5.30152	8.76692	8.62722	8.16625	4.47953	3.85305	3.37102	20.58933	16.24679	12.81660
64700	2.60921	2.58275	2.26797	11.91968	11.13454	10.41562	12.39166	8.40899	5.30330	8.76899	8.62808	8.16896	4.47958	3.85256	3.37207	20.59714	16.24844	12.81910
64860	2.60865	2.58744	2.26915	11.91937	11.13496	10.41369	12.39706	8.40559	5.30063	8.76710	8.62723	8.16717	4.47907	3.85406	3.37194	20.59913	16.24814	12.81670
65030	2.61156	2.58501	2.26991	11.91779	11.13471	10.41588	12.39731	8.40998	5.30204	8.76849	8.62801	8.16818	4.47980	3.85399	3.37377	20.60266	16.25022	12.82027
65190	2.61077	2.58806	2.27269	11.92460	11.13845	10.41897	12.40656	8.41456	5.30361	8.77091	8.63101	8.17055	4.47993	3.85413	3.37183	20.60787	16.25062	12.82196
65360	2.60787	2.58352	2.26978	11.92303	11.13935	10.41986	12.41074	8.41375	5.30579	8.77066	8.63099	8.17122	4.48086	3.85534	3.36976	20.59254	16.25071	12.82214
65520	2.60822	2.58441	2.26804	11.92220	11.13704	10.41774	12.40492	8.40976	5.29863	8.76965	8.63002	8.16894	4.47827	3.85113	3.36996	20.59484	16.25118	12.82080
65690	2.60765	2.58373	2.26921	11.92257	11.13875	10.41673	12.40252	8.41168	5.29901	8.76908	8.62878	8.16945	4.47811	3.85094	3.36822	20.59205	16.24873	12.81724	36.92	6.3	0.00	-2.04	0.01724	0.01196	0.01514	0.01821	0.01883	0.01473	0.00545	0.01511	0.01998	0.01853	0.01288	0.01641	0.01701	0.01757	0.01373	0.00571	0.01607	0.02138
65850	2.60630	2.58187	2.26856	11.92096	11.13583	10.41388	12.39990	8.40576	5.29688	8.76667	8.62749	8.16858	4.48216	3.85737	3.37458	20.60815	16.25417	12.82544
66010	2.61263	2.58610	2.27064	11.92628	11.14085	10.41996	12.41054	8.41275	5.30637	8.77128	8.63137	8.17130	4.48214	3.85693	3.37144	20.59926	16.25067	12.82094
66180	2.60893	2.58402	2.26962	11.92623	11.14338	10.41846	12.41784	8.41163	5.30668	8.76991	8.63154	8.17112	4.48393	3.85169	3.37081	20.58027	16.25081	12.81914
66340	2.60667	2.58362	2.26861	11.92289	11.13812	10.41505	12.39671	8.40829	5.29932	8.76634	8.62987	8.16742	4.47908	3.85245	3.36992	20.59512	16.24366	12.81529
66500	2.60930	2.58575	2.26952	11.92429	11.14215	10.41918	12.39090	8.41799	5.30404	8.77163	8.63490	8.17313	4.48480	3.85789	3.37098	20.61721	16.25071	12.82165
66670	2.60780	2.58593	2.26946	11.92434	11.14032	10.41660	12.40448	8.41260	5.30198	8.76864	8.63042	8.17222	4.48200	3.85423	3.37145	20.60386	16.24972	12.82029
66830	2.60904	2.58413	2.26747	11.92444	11.14097	10.41868	12.40432	8.40915	5.30068	8.76910	8.63354	8.17226	4.48170	3.85001	3.37052	20.60861	16.25008	12.82200
67000	2.60770	2.58228	2.26834	11.92381	11.14009	10.41678	12.40186	8.40651	5.30309	8.76734	8.63018	8.16953	4.48243	3.85781	3.37606	20.59726	16.25212	12.82324
67160	2.61133	2.58732	2.26890	11.92817	11.14214	10.41940	12.40203	8.41258	5.30265	8.77009	8.63440	8.17304	4.48159	3.85339	3.36970	20.60416	16.25001	12.81874
67330	2.60802	2.58189	2.27074	11.92569	11.14335	10.41825	12.41166	8.40925	5.30465	8.77089	8.63300	8.17115	4.48349	3.85591	3.37223	20.61200	16.24908	12.82034	36.92	6.1	0.00	-2.04	0.01724	0.01196	0.01514	0.01821	0.01883	0.01473	0.00545	0.01511	0.01997	0.01853	0.01288	0.01641	0.01701	0.01756	0.01373	0.00571	0.01607	0.02138
67490	2.60852	2.58177	2.26776	11.92439	11.14040	10.41608	12.41330	8.41151	5.30052	8.76730	8.63021	8.17032	4.47976	3.85695	3.37192	20.59912	16.24859	12.82041
67650	2.61074	2.58528	2.27151	11.92511	11.14126	10.41820	12.40380	8.41527	5.30190	8.76991	8.63362	8.17242	4.48094	3.85722	3.37240	20.58732	16.24938	12.82110
67820	2.60910	2.58629	2.27441	11.92749	11.14348	10.41933	12.40838	8.41709	5.30902	8.77117	8.63748	8.17524	4.48402	3.85981	3.37644	20.60602	16.25175	12.82246
67980	2.61121	2.58590	2.27172	11.92550	11.14116	10.41763	12.38939	8.41202	5.30774	8.76874	8.63265	8.17154	4.48728	3.86031	3.37923	20.59237	16.25479	12.82487
68150	2.61541	2.58877	2.27273	11.92816	11.14460	10.42118	12.41027	8.41193	5.30900	8.77207	8.63460	8.17360	4.48880	3.86302	3.37639	20.59605	16.25373	12.82337
68310	2.61594	2.58966	2.27608	11.93026	11.14683	10.42399	12.41109	8.42010	5.31162	8.77376	8.63920	8.17695	4.48829	3.86265	3.37670	20.59283	16.25459	12.82463
68470	2.61459	2.58840	2.27482	11.92908	11.14652	10.42346	12.39766	8.41562	5.30599	8.77483	8.63995	8.17772	4.48555	3.85589	3.37346	20.59927	16.25538	12.82525
68640	2.60991	2.58399	2.26809	11.92887	11.14410	10.42045	12.39708	8.40845	5.30021	8.76993	8.63519	8.17472	4.47782	3.85098	3.36887	20.58579	16.24786	12.81912
68800	2.59990	2.57858	2.26458	11.92355	11.14373	10.41951	12.38196	8.40712	5.30070	8.77328	8.63832	8.17535	4.47638	3.85327	3.36533	20.59651	16.24810	12.82036
68970	2.59991	2.57662	2.26081	11.92471	11.14081	10.41812	12.39654	8.40479	5.29568	8.77091	8.63527	8.17410	4.47597	3.85170	3.36789	20.60177	16.25042	12.82305	36.98	6.1	0.00	-2.04	0.01724	0.01196	0.01514	0.01821	0.01883	0.01473	0.00544	0.01510	0.01997	0.01853	0.01288	0.01641	0.01700	0.01756	0.01373	0.00571	0.01607	0.02138
69130	2.60234	2.57568	2.26241	11.92816	11.14573	10.42273	12.39687	8.40986	5.29863	8.77386	8.63926	8.17790	4.47752	3.84911	3.36206	20.59579	16.25167	12.82269
69300	2.60130	2.57628	2.26166	11.93095	11.14792	10.42408	12.40195	8.40492	5.29503	8.77501	8.64091	8.17888	4.47476	3.84972	3.36443	20.59395	16.25197	12.82500
69460	2.60390	2.57648	2.26485	11.93025	11.14842	10.42563	12.39122	8.40230	5.29770	8.77521	8.63943	8.17885	4.47802	3.85081	3.36339	20.59595	16.25025	12.82533
69630	2.60105	2.57617	2.26192	11.93177	11.14792	10.42360	12.38296	8.40336	5.29602	8.77486	8.64164	8.17866	4.47503	3.84979	3.36383	20.60070	16.24861	12.82214
69790	2.60268	2.57964	2.26370	11.93128	11.14995	10.42499	12.39278	8.40542	5.29838	8.77719	8.64229	8.18129	4.47680	3.84965	3.36421	20.60530	16.25217	12.82492
69960	2.60282	2.57945	2.26420	11.93123	11.14800	10.42401	12.40563	8.40382	5.29552	8.77608	8.64158	8.17984	4.47625	3.85243	3.36452	20.60637	16.25639	12.82887
70120	2.60339	2.57893	2.26317	11.93568	11.15113	10.42792	12.39900	8.40828	5.29799	8.77797	8.64331	8.18117	4.47525	3.85104	3.36263	20.60269	16.25273	12.82601
70290	2.60544	2.58016	2.26583	11.93666	11.15500	10.43317	12.39310	8.41154	5.30169	8.78152	8.64747	8.18562	4.47995	3.85259	3.36795	20.59916	16.25625	12.82950
70450	2.60476	2.57799	2.26331	11.93476	11.14994	10.42697	12.40006	8.40492	5.29704	8.77719	8.64283	8.18297	4.48124	3.85333	3.37065	20.60453	16.25642	12.82978
70620	2.60557	2.58043	2.26511	11.93527	11.15070	10.43037	12.41432	8.40724	5.30060	8.78206	8.64519	8.18597	4.47641	3.85200	3.36401	20.59721	16.25526	12.82861	36.98	6.1	0.00	-2.04	0.01724	0.01196	0.01513	0.01821	0.01883	0.01473	0.00544	0.01510	0.01997	0.01853	0.01288	0.01641	0.01700	0.01756	0.01372	0.00571	0.01607	0.02139
70780	2.60172	2.57731	2.26362	11.93392	11.15061	10.42878	12.41432	8.40128	5.29225	8.77922	8.64486	8.18389	4.47727	3.84922	3.36340	20.60120	16.25315	12.82939
70940	2.59962	2.57476	2.25870	11.93180	11.14776	10.42716	12.39916	8.39675	5.29153	8.77998	8.64469	8.18308	4.47386	3.85152	3.36368	20.60657	16.25430	12.82929
71110	2.60448	2.57885	2.26544	11.93459	11.15169	10.43111	12.38844	8.40119	5.29802	8.78306	8.64841	8.18701	4.47491	3.85261	3.36732	20.60549	16.25987	12.83255
71270	2.60360	2.57928	2.26382	11.93622	11.15249	10.43343	12.39073	8.40260	5.29656	8.78279	8.64776	8.18582	4.47530	3.85161	3.36438	20.60304	16.25928	12.83226
71440	2.60448	2.58014	2.26392	11.93827	11.15343	10.43165	12.41005	8.40227	5.29688	8.78463	8.64715	8.18727	4.47612	3.84966	3.36303	20.59522	16.25348	12.82916
71600	2.60329	2.57913	2.26552	11.93434	11.15283	10.43250	12.39924	8.40771	5.29975	8.78566	8.64815	8.18888	4.47705	3.85272	3.36605	20.60549	16.25925	12.83159
71770	2.60156	2.57869	2.26798	11.93748	11.15179	10.43156	12.41243	8.40667	5.29475	8.78382	8.64733	8.18770	4.47865	3.85195	3.36654	20.61562	16.26568	12.83495
71930	2.60473	2.57946	2.26648	11.94098	11.15587	10.43398	12.41194	8.40799	5.29821	8.78538	8.64883	8.19085	4.47820	3.85056	3.36674	20.61240	16.26198	12.83176
72100	2.60204	2.57798	2.26168	11.93935	11.15418	10.43367	12.39752	8.40429	5.29588	8.78542	8.64847	8.18806	4.47408	3.85155	3.36420	20.60442	16.26261	12.83214
72260	2.60187	2.57498	2.26105	11.93793	11.15221	10.43190	12.40081	8.39746	5.29402	8.78361	8.64750	8.18828	4.47631	3.84957	3.36696	20.60920	16.26673	12.83741	36.92	6.1	0.00	-2.04	0.01724	0.01196	0.01513	0.01821	0.01883	0.01473	0.00544	0.01510	0.01997	0.01853	0.01288	0.01641	0.01700	0.01756	0.01372	0.00571	0.01607	0.02139
72430	2.60293	2.57878	2.26399	11.94084	11.15726	10.43521	12.39034	8.40582	5.29522	8.78806	8.65050	8.19231	4.47446	3.84915	3.36394	20.60598	16.26435	12.83564
72590	2.60404	2.58066	2.26432	11.94345	11.15732	10.43702	12.38208	8.40872	5.29879	8.78774	8.65116	8.19321	4.47664	3.85026	3.36548	20.59755	16.26653	12.83533
72750	2.60207	2.57641	2.26199	11.93914	11.15316	10.43243	12.40737	8.40114	5.29226	8.78479	8.64926	8.18976	4.47572	3.84860	3.36500	20.60414	16.26346	12.83660
72920	2.60247	2.57854	2.26375	11.94100	11.15467	10.43356	12.39926	8.40107	5.29405	8.78500	8.64898	8.18888	4.47202	3.84505	3.35936	20.60889	16.26234	12.83276
73080	2.59881	2.57345	2.25991	11.93702	11.15261	10.43107	12.39099	8.39968	5.28892	8.78287	8.64708	8.18683	4.47374	3.85074	3.36257	20.60935	16.26815	12.83854
73250	2.60215	2.57932	2.26100	11.94461	11.15834	10.43612	12.39606	8.40036	5.29406	8.78673	8.65212	8.19170	4.47376	3.85016	3.36127	20.60306	16.26300	12.83524
73410	2.60187	2.57841	2.26151	11.94230	11.15810	10.43711	12.42065	8.40507	5.29814	8.78866	8.65459	8.19314	4.47665	3.84880	3.36333	20.61519	16.26587	12.83776
73580	2.60069	2.57756	2.26284	11.94363	11.15788	10.43283	12.39770	8.40294	5.29063	8.78617	8.65021	8.19041	4.47308	3.85022	3.36448	20.61979	16.26547	12.83975
73740	2.60078	2.57631	2.26127	11.94274	11.15790	10.43521	12.39926	8.40248	5.29489	8.78689	8.65178	8.19096	4.47504	3.84879	3.36182	20.60598	16.26069	12.83582
73910	2.60122	2.57698	2.26066	11.94296	11.15786	10.43644	12.39950	8.40510	5.29451	8.78880	8.65476	8.19335	4.47464	3.84745	3.36237	20.59761	16.26610	12.83904	36.92	6.2	0.00	-2.04	0.01724	0.01196	0.01513	0.01821	0.01883	0.01473	0.00544	0.01510	0.01997	0.01853	0.01288	0.01641	0.01700	0.01756	0.01372	0.00571	0.01608	0.02139
74070	2.60012	2.57473	2.26027	11.94025	11.15572	10.43426	12.39402	8.40018	5.28985	8.78410	8.65005	8.18910	4.46985	3.84519	3.36162	20.60773	16.26794	12.83963
74240	2.60095	2.57720	2.26299	11.94361	11.15782	10.43664	12.39475	8.40212	5.29372	8.78743	8.65252	8.19105	4.47465	3.85167	3.36694	20.60895	16.27065	12.84209
74400	2.60291	2.57775	2.26467	11.94643	11.15900	10.43651	12.39803	8.40796	5.29913	8.79021	8.65409	8.19382	4.47694	3.84889	3.36391	20.62016	16.26418	12.83798
74570	2.60357	2.57485	2.26188	11.94228	11.15757	10.43456	12.38870	8.40233	5.29339	8.78785	8.65098	8.19233	4.47122	3.84566	3.35968	20.60052	16.26332	12.83548
74730	2.60006	2.57654	2.26332	11.93802	11.15492	10.43428	12.40704	8.40746	5.29639	8.78743	8.65215	8.19261	4.47310	3.84685	3.36281	20.61402	16.26616	12.83644
74900	2.59827	2.57665	2.26200	11.94088	11.15340	10.43271	12.40491	8.40275	5.29629	8.78615	8.65091	8.18933	4.47682	3.85107	3.36508	20.61540	16.26821	12.83967
75060	2.60328	2.57782	2.26243	11.94284	11.15864	10.43406	12.41655	8.40275	5.29514	8.78982	8.65271	8.19537	4.47416	3.84789	3.36252	20.61755	16.26715	12.83747
75230	2.60267	2.57725	2.26425	11.94415	11.16038	10.43789	12.41753	8.40513	5.29898	8.79254	8.65535	8.19844	4.47404	3.85057	3.36346	20.60497	16.26877	12.83934
75390	2.60325	2.57653	2.26200	11.94330	11.15883	10.43485	12.39876	8.39762	5.29397	8.78961	8.65440	8.19415	4.47507	3.85477	3.36852	20.62292	16.27514	12.84477
75560	2.60379	2.57516	2.26447	11.94742	11.16020	10.43870	12.38442	8.40430	5.29288	8.79404	8.65569	8.19767	4.47237	3.84580	3.36158	20.62050	16.27102	12.83893	36.98	6.1	0.00	-2.04	0.01724	0.01195	0.01513	0.01821	0.01883	0.01473	0.00544	0.01510	0.01996	0.01853	0.01288	0.01642	0.01700	0.01756	0.01372	0.00571	0.01608	0.02139
75720	2.60018	2.57643	2.26173	11.94497	11.15944	10.43700	12.39105	8.40408	5.29306	8.79296	8.65591	8.19714	4.47227	3.84573	3.36274	20.60761	16.26825	12.83908
75880	2.60093	2.57699	2.26237	11.94535	11.15962	10.43756	12.38876	8.40003	5.29253	8.79359	8.65430	8.19767	4.47147	3.84554	3.36338	20.61713	16.27115	12.83987
76050	2.59937	2.57614	2.26209	11.94416	11.16127	10.43868	12.40554	8.40203	5.29138	8.79512	8.65695	8.19758	4.47092	3.84710	3.36255	20.61713	16.27485	12.84033
76210	2.59956	2.57750	2.26206	11.94735	11.16171	10.43945	12.41054	8.40192	5.29449	8.79678	8.65712	8.19918	4.47402	3.84658	3.36221	20.61851	16.26973	12.83974
76380	2.60120	2.57697	2.26183	11.94826	11.16326	10.44210	12.39375	8.40302	5.29722	8.79729	8.65893	8.19980	4.47520	3.84988	3.36225	20.61359	16.26914	12.84057
76540	2.60191	2.57604	2.26226	11.94456	11.15962	10.43727	12.38753	8.39677	5.29054	8.79357	8.65593	8.19827	4.47075	3.84728	3.36088	20.61344	16.26779	12.84128
76710	2.60152	2.57696	2.26336	11.94397	11.16015	10.43864	12.39383	8.40172	5.29438	8.79493	8.65778	8.19881	4.47716	3.85113	3.36483	20.61620	16.27568	12.84481
76870	2.60455	2.57867	2.26380	11.94882	11.16466	10.44243	12.40899	8.40148	5.29485	8.79846	8.65924	8.20129	4.47296	3.84962	3.36469	20.61835	16.27363	12.84381
77040	2.60118	2.57605	2.26260	11.94746	11.16288	10.43912	12.39817	8.39946	5.29272	8.79459	8.65600	8.19756	4.47260	3.84531	3.36074	20.62573	16.26855	12.83937
77200	2.60056	2.57329	2.25902	11.94669	11.16227	10.43790	12.38223	8.39687	5.29099	8.79477	8.65644	8.19869	4.47403	3.84935	3.36388	20.61910	16.27669	12.84734	36.92	6.1	0.00	-2.04	0.01723	0.01195	0.01513	0.01821	0.01883	0.01473	0.00544	0.01510	0.01996	0.01853	0.01288	0.01642	0.01700	0.01755	0.01372	0.00572	0.01608	0.02139
77370	2.60285	2.57558	2.26398	11.95262	11.16571	10.44389	12.38918	8.40389	5.29392	8.79919	8.65974	8.20198	4.47631	3.84819	3.36101	20.61358	16.27237	12.84444
77530	2.60081	2.57623	2.26164	11.94946	11.16465	10.44407	12.42270	8.40001	5.29495	8.79976	8.65998	8.20315	4.47504	3.84668	3.36617	20.63093	16.27402	12.84471
77690	2.60147	2.57348	2.25961	11.94737	11.16210	10.43882	12.38509	8.39892	5.29005	8.79655	8.65955	8.20058	4.47162	3.84353	3.35968	20.61941	16.26814	12.83868
77860	2.59958	2.57578	2.26284	11.94988	11.16364	10.44222	12.40138	8.40292	5.29634	8.79961	8.66090	8.20428	4.47542	3.84929	3.36238	20.62325	16.27375	12.84552
78020	2.59939	2.57648	2.26081	11.94774	11.16246	10.44145	12.38934	8.39661	5.29260	8.79844	8.65808	8.20180	4.47084	3.84475	3.35886	20.62356	16.27197	12.84265
78180	2.60175	2.57751	2.26446	11.95155	11.16555	10.44640	12.41499	8.40496	5.29659	8.80342	8.66252	8.20599	4.47470	3.84782	3.36400	20.62018	16.27937	12.84918
