WetView ver 7.1	07-20-2019	15:16:11
AC9 Absorption and Attenuation Meter
00000311		; Serial number
2	; structure version number
Reserved
0.000000	0.000000		; Depth calibration
19200			; Baud rate
0.100000			; Path length (meters)
23			; number of temperature calibration bins
				12.61517	13.44096	14.46844	15.49904	16.50682	17.50108	18.49752	19.51783	20.49177	21.49009	22.48286	23.50673	24.54012	25.54812	26.49986	27.49321	28.50960	29.48671	30.47471	31.49432	32.50437	33.48679	34.49133	; temperature bins
a650	Blue	18.61587		0.01156	0.01096	0.01010	0.00930	0.00851	0.00774	0.00661	0.00573	0.00499	0.00402	0.00285	0.00203	0.00096	0.00000	-0.00110	-0.00152	-0.00210	-0.00247	-0.00259	-0.00317	-0.00346	-0.00380	-0.00403		; offset and temperature correction info
a676	Green	18.78942		0.00964	0.00899	0.00863	0.00813	0.00730	0.00639	0.00545	0.00448	0.00385	0.00301	0.00233	0.00165	0.00046	0.00000	-0.00106	-0.00167	-0.00251	-0.00280	-0.00316	-0.00329	-0.00377	-0.00392	-0.00441		; offset and temperature correction info
a715	Brown	18.59217		0.01171	0.01109	0.01043	0.00975	0.00878	0.00789	0.00685	0.00572	0.00469	0.00356	0.00255	0.00160	0.00061	0.00000	-0.00063	-0.00113	-0.00152	-0.00183	-0.00226	-0.00293	-0.00364	-0.00404	-0.00473		; offset and temperature correction info
c510	Red	18.18396		-0.00549	-0.00480	-0.00383	-0.00272	-0.00202	-0.00118	-0.00044	-0.00038	-0.00015	-0.00021	0.00013	0.00007	-0.00007	0.00000	-0.00007	-0.00065	-0.00045	-0.00018	0.00007	0.00039	-0.00001	-0.00002	-0.00045		; offset and temperature correction info
c532	Magenta	18.26528		-0.00721	-0.00645	-0.00581	-0.00518	-0.00465	-0.00345	-0.00281	-0.00270	-0.00182	-0.00141	-0.00108	-0.00072	-0.00022	0.00000	0.00044	0.00030	0.00031	-0.00006	-0.00052	-0.00089	-0.00142	-0.00149	-0.00154		; offset and temperature correction info
c555	Black	18.37125		-0.00430	-0.00419	-0.00381	-0.00319	-0.00286	-0.00254	-0.00205	-0.00196	-0.00138	-0.00137	-0.00067	-0.00051	-0.00030	0.00000	0.00067	0.00087	0.00057	0.00027	-0.00015	-0.00089	-0.00127	-0.00137	-0.00150		; offset and temperature correction info
a412	LtBlue	15.33566		-0.06011	-0.05567	-0.05012	-0.04441	-0.03922	-0.03412	-0.02941	-0.02503	-0.02049	-0.01588	-0.01121	-0.00784	-0.00311	0.00000	0.00273	0.00611	0.00757	0.00871	0.01066	0.01299	0.01539	0.01781	0.02175		; offset and temperature correction info
a440	LtGreen	16.05925		-0.01380	-0.01214	-0.01039	-0.00858	-0.00690	-0.00532	-0.00426	-0.00322	-0.00230	-0.00158	-0.00055	0.00006	0.00001	0.00000	0.00017	0.00016	-0.00094	-0.00222	-0.00363	-0.00486	-0.00567	-0.00651	-0.00782		; offset and temperature correction info
a488	Yellow	16.82827		0.00255	0.00293	0.00331	0.00354	0.00373	0.00378	0.00363	0.00350	0.00291	0.00225	0.00215	0.00142	0.00099	0.00000	-0.00092	-0.00169	-0.00295	-0.00396	-0.00479	-0.00542	-0.00582	-0.00604	-0.00663		; offset and temperature correction info
c650	Blue	18.49287		-0.00570	-0.00516	-0.00456	-0.00403	-0.00346	-0.00232	-0.00132	-0.00122	-0.00073	-0.00066	-0.00035	-0.00016	0.00003	0.00000	0.00044	0.00078	0.00108	0.00057	0.00040	-0.00042	-0.00033	-0.00029	-0.00034		; offset and temperature correction info
c676	Green	18.50570		0.00299	0.00293	0.00287	0.00293	0.00278	0.00294	0.00317	0.00251	0.00243	0.00215	0.00139	0.00123	0.00068	0.00000	-0.00041	-0.00106	-0.00205	-0.00268	-0.00325	-0.00413	-0.00495	-0.00610	-0.00674		; offset and temperature correction info
c715	Brown	17.88888		0.00826	0.00812	0.00773	0.00790	0.00766	0.00758	0.00753	0.00650	0.00571	0.00461	0.00359	0.00222	0.00101	0.00000	-0.00146	-0.00284	-0.00385	-0.00448	-0.00463	-0.00513	-0.00623	-0.00715	-0.00838		; offset and temperature correction info
a510	Red	17.18050		0.00353	0.00364	0.00354	0.00361	0.00381	0.00381	0.00356	0.00332	0.00277	0.00229	0.00176	0.00116	0.00036	0.00000	-0.00014	-0.00069	-0.00088	-0.00147	-0.00150	-0.00129	-0.00120	-0.00134	-0.00091		; offset and temperature correction info
a532	Magenta	17.40228		0.00550	0.00548	0.00526	0.00479	0.00464	0.00422	0.00393	0.00328	0.00253	0.00212	0.00136	0.00085	0.00039	0.00000	-0.00059	-0.00146	-0.00188	-0.00262	-0.00330	-0.00393	-0.00491	-0.00540	-0.00605		; offset and temperature correction info
a555	Black	17.72308		0.00849	0.00832	0.00800	0.00760	0.00724	0.00655	0.00580	0.00495	0.00435	0.00347	0.00252	0.00153	0.00049	0.00000	-0.00050	-0.00155	-0.00214	-0.00306	-0.00350	-0.00411	-0.00470	-0.00539	-0.00570		; offset and temperature correction info
c412	LtBlue	16.72802		-0.05949	-0.05458	-0.04744	-0.04134	-0.03547	-0.03064	-0.02511	-0.02047	-0.01574	-0.01163	-0.00761	-0.00442	-0.00204	0.00000	0.00100	0.00051	-0.00043	-0.00239	-0.00475	-0.00629	-0.00827	-0.00955	-0.01337		; offset and temperature correction info
c440	LtGreen	17.42637		-0.02723	-0.02503	-0.02216	-0.01930	-0.01691	-0.01394	-0.01125	-0.00926	-0.00732	-0.00582	-0.00401	-0.00226	-0.00093	0.00000	0.00082	0.00123	0.00133	0.00097	0.00038	-0.00003	-0.00022	-0.00023	-0.00125		; offset and temperature correction info
c488	Yellow	18.03666		-0.00640	-0.00554	-0.00465	-0.00357	-0.00276	-0.00154	-0.00067	-0.00031	-0.00014	-0.00012	0.00046	0.00032	0.00020	0.00000	0.00001	-0.00024	-0.00060	-0.00084	-0.00126	-0.00180	-0.00276	-0.00304	-0.00427		; offset and temperature correction info
0.003500	0.004000	0.015000	0.020000	0.015000	0.020000	2500.000000	2000.000000	1000.000000	; maxANoise	maxCNoise	maxADifference	maxCDifference	minACounts	minCCounts	minRCounts	maxTempSdev	maxDepthSdev
0			; auxilliary capabilities
1			; acquisition binsize
0	1.52843	1.51831	1.40532	6.25318	6.14402	6.01641	3.21920	2.63705	2.09605	5.78662	5.84595	5.70767	1.94988	1.82572	1.72486	6.97743	6.66982	6.32879	32.80	6.3	0.00	-2.04	0.01737	0.01202	0.01521	0.01836	0.01897	0.01483	0.00546	0.01515	0.02011	0.01871	0.01300	0.01655	0.01710	0.01768	0.01380	0.00573	0.01614	0.02158
170	1.52356	1.51274	1.40297	6.25246	6.14378	6.01887	3.21771	2.63354	2.09578	5.78756	5.84613	5.70661	1.94793	1.82215	1.72408	6.97696	6.67044	6.32879
330	1.52271	1.51022	1.40265	6.24942	6.13947	6.01330	3.21344	2.62854	2.09088	5.78353	5.84070	5.70255	1.94573	1.81888	1.72082	6.97465	6.66972	6.32692
490	1.52056	1.51247	1.39875	6.24815	6.13833	6.01245	3.20990	2.63176	2.09153	5.78410	5.84076	5.70129	1.94556	1.82063	1.72062	6.97222	6.66680	6.32456
660	1.52231	1.51060	1.39956	6.24548	6.13602	6.00972	3.21588	2.62899	2.08943	5.77984	5.83662	5.69837	1.94757	1.82343	1.72483	6.97622	6.66653	6.32591
820	1.52422	1.51376	1.40040	6.24665	6.13710	6.01105	3.21406	2.63148	2.09422	5.78115	5.83820	5.69864	1.94769	1.82145	1.72219	6.97269	6.66336	6.32038
990	1.52237	1.51296	1.40178	6.24275	6.13408	6.00874	3.21065	2.63294	2.09414	5.78099	5.83698	5.69799	1.94697	1.82046	1.72114	6.96838	6.66048	6.31841
1150	1.52306	1.51239	1.39709	6.23856	6.12938	6.00253	3.21159	2.62650	2.08996	5.77483	5.83278	5.69354	1.94585	1.81826	1.72096	6.96830	6.65849	6.31691
1320	1.51920	1.51079	1.39950	6.23784	6.13068	6.00421	3.20512	2.62996	2.09029	5.77633	5.83385	5.69408	1.94439	1.81824	1.71942	6.96662	6.65609	6.31447
1480	1.52065	1.51196	1.39853	6.23814	6.13080	6.00471	3.20379	2.62779	2.08851	5.77598	5.83423	5.69435	1.94351	1.81812	1.72161	6.96356	6.65702	6.31566
1650	1.51838	1.50874	1.39929	6.23857	6.13137	6.00443	3.20617	2.62546	2.08724	5.77374	5.83405	5.69284	1.94347	1.81945	1.71990	6.96500	6.65889	6.31769	32.80	6.1	0.00	-2.04	0.01737	0.01202	0.01521	0.01836	0.01897	0.01483	0.00546	0.01515	0.02011	0.01871	0.01300	0.01655	0.01709	0.01768	0.01380	0.00573	0.01614	0.02158
1810	1.51874	1.51075	1.39871	6.23993	6.13280	6.00468	3.20360	2.62677	2.08859	5.77582	5.83460	5.69316	1.94097	1.81654	1.72076	6.95975	6.65393	6.31432
1980	1.51930	1.51122	1.39983	6.23909	6.13267	6.00436	3.20623	2.63356	2.09183	5.77631	5.83511	5.69368	1.94490	1.81896	1.72003	6.96386	6.65606	6.31507
2140	1.51881	1.50886	1.39662	6.23533	6.12741	5.99959	3.21000	2.62428	2.08745	5.77019	5.83033	5.68903	1.94305	1.81875	1.72100	6.96316	6.65704	6.31659
2310	1.52210	1.51228	1.40128	6.23632	6.12849	5.99999	3.20964	2.62730	2.09131	5.76954	5.83056	5.68983	1.94360	1.81835	1.71944	6.95979	6.65398	6.31217
2470	1.52055	1.50759	1.39821	6.23058	6.12550	5.99605	3.20753	2.63019	2.08996	5.76824	5.82729	5.68635	1.94129	1.81547	1.71483	6.95615	6.64824	6.30769
2640	1.51797	1.51077	1.40017	6.22972	6.12460	5.99672	3.20542	2.63001	2.08749	5.76932	5.82787	5.68720	1.94223	1.81832	1.71728	6.95693	6.65030	6.30892
2800	1.51665	1.50955	1.39925	6.22652	6.11941	5.99395	3.20792	2.62376	2.08492	5.76515	5.82290	5.68351	1.93922	1.81604	1.71771	6.95377	6.64835	6.30733
2970	1.51783	1.50716	1.39699	6.22569	6.12009	5.99565	3.20357	2.62261	2.08464	5.76619	5.82361	5.68534	1.94218	1.82025	1.71898	6.95850	6.65554	6.31176
3130	1.52062	1.51178	1.39721	6.22943	6.12312	5.99761	3.20451	2.62506	2.08927	5.76982	5.82732	5.68928	1.94333	1.81772	1.71929	6.95909	6.65234	6.30942
3300	1.51724	1.50645	1.39667	6.22574	6.11965	5.99646	3.19654	2.62728	2.08492	5.76873	5.82303	5.68523	1.93637	1.81654	1.71605	6.95648	6.64886	6.30529	32.80	6.0	0.00	-2.04	0.01737	0.01202	0.01521	0.01836	0.01897	0.01483	0.00546	0.01515	0.02011	0.01871	0.01300	0.01655	0.01709	0.01768	0.01380	0.00573	0.01614	0.02158
3460	1.51644	1.50592	1.39593	6.22400	6.11767	5.99570	3.20772	2.62402	2.08749	5.76851	5.82210	5.68668	1.94051	1.81601	1.71636	6.95542	6.65054	6.30873
3630	1.51682	1.50578	1.39540	6.22303	6.11540	5.99457	3.20437	2.62201	2.08268	5.76698	5.82097	5.68535	1.94019	1.81492	1.71648	6.95894	6.65161	6.31046
3790	1.51788	1.50717	1.39580	6.22438	6.11799	5.99563	3.20690	2.62211	2.08431	5.76849	5.82200	5.68595	1.93652	1.81327	1.71499	6.95816	6.64694	6.30699
3960	1.51557	1.50879	1.39831	6.22588	6.12044	5.99788	3.20915	2.62514	2.08446	5.76997	5.82382	5.68665	1.93974	1.81346	1.71472	6.95922	6.65024	6.30911
4120	1.51541	1.50658	1.39308	6.22379	6.11558	5.99386	3.19790	2.61595	2.07965	5.76651	5.81965	5.68264	1.93559	1.81223	1.71241	6.95937	6.64834	6.30682
4290	1.51458	1.50144	1.39271	6.22152	6.11352	5.99250	3.19592	2.61779	2.07958	5.76567	5.81763	5.68154	1.93536	1.81137	1.71355	6.95777	6.65175	6.30895
4450	1.51425	1.50496	1.39434	6.22321	6.11458	5.99391	3.19820	2.61528	2.07931	5.76619	5.81733	5.68227	1.93127	1.80877	1.70861	6.95941	6.64642	6.30435
4620	1.51285	1.50377	1.39209	6.22195	6.11317	5.99277	3.19560	2.61682	2.08178	5.76515	5.81536	5.68067	1.93685	1.80799	1.71158	6.95996	6.64838	6.30438
4780	1.51356	1.50125	1.39195	6.21765	6.10648	5.98606	3.19190	2.61553	2.07719	5.75963	5.81068	5.67572	1.93621	1.81108	1.71269	6.95882	6.64794	6.30575
4950	1.51517	1.50402	1.39376	6.21662	6.10732	5.98657	3.19728	2.61788	2.08037	5.75775	5.80961	5.67404	1.93240	1.80777	1.70903	6.95133	6.64468	6.30083	32.80	6.1	0.00	-2.04	0.01737	0.01202	0.01521	0.01836	0.01897	0.01483	0.00546	0.01515	0.02011	0.01871	0.01300	0.01655	0.01709	0.01768	0.01380	0.00573	0.01614	0.02158
5110	1.51140	1.50170	1.39242	6.21437	6.10458	5.98257	3.19832	2.61926	2.07985	5.75458	5.80751	5.67110	1.93162	1.80681	1.70956	6.95371	6.64338	6.29788
5280	1.51274	1.50049	1.38921	6.21373	6.10613	5.98328	3.19374	2.61469	2.07745	5.75542	5.80903	5.67113	1.93276	1.80734	1.71049	6.95309	6.64560	6.29949
5440	1.51320	1.50202	1.39225	6.21011	6.09962	5.97692	3.19588	2.61469	2.07617	5.74974	5.80137	5.66618	1.93353	1.80953	1.70972	6.95367	6.64399	6.29816
5610	1.51106	1.50234	1.39078	6.21077	6.10244	5.97944	3.19604	2.61093	2.07522	5.75209	5.80520	5.66821	1.92994	1.80544	1.70939	6.95555	6.64526	6.29789
5770	1.50954	1.50157	1.39302	6.20989	6.09929	5.97567	3.18913	2.61515	2.08092	5.74881	5.80070	5.66503	1.93689	1.81288	1.71436	6.95524	6.64374	6.29734
5940	1.51594	1.50626	1.39383	6.20983	6.09971	5.97690	3.19572	2.61407	2.07775	5.74853	5.80166	5.66389	1.93391	1.80918	1.71052	6.95387	6.64113	6.29270
6100	1.51400	1.50253	1.39263	6.20508	6.09485	5.97247	3.19721	2.61734	2.08001	5.74408	5.79687	5.66014	1.93224	1.80642	1.70724	6.94632	6.63577	6.28900
6270	1.51200	1.50299	1.39412	6.20364	6.09417	5.97258	3.19277	2.61339	2.07704	5.74450	5.79842	5.66096	1.93234	1.80807	1.70828	6.94546	6.63901	6.28985
6430	1.51240	1.50331	1.39200	6.19969	6.09132	5.96730	3.19491	2.61068	2.07394	5.73976	5.79539	5.65798	1.93199	1.80908	1.71035	6.94910	6.63852	6.28992
6600	1.51428	1.50656	1.39237	6.20101	6.09372	5.96991	3.19435	2.61090	2.07576	5.74044	5.79599	5.65773	1.93086	1.80571	1.70800	6.94430	6.63373	6.28502	32.80	6.1	0.00	-2.04	0.01737	0.01202	0.01521	0.01836	0.01897	0.01483	0.00546	0.01515	0.02011	0.01871	0.01300	0.01655	0.01710	0.01768	0.01380	0.00573	0.01614	0.02158
6760	1.51309	1.50186	1.39071	6.19766	6.08963	5.96687	3.19299	2.61266	2.07624	5.73655	5.79202	5.65437	1.93013	1.80693	1.70815	6.94282	6.63000	6.28005
6930	1.51273	1.50370	1.39223	6.19698	6.08873	5.96540	3.19760	2.61188	2.07711	5.73706	5.79241	5.65378	1.92993	1.80692	1.70797	6.94196	6.63018	6.27925
7090	1.51075	1.50403	1.39273	6.19374	6.08662	5.96216	3.18527	2.61003	2.07301	5.73396	5.78819	5.65173	1.92905	1.80930	1.71046	6.93774	6.62894	6.28056
7260	1.51446	1.50624	1.39458	6.19630	6.08815	5.96356	3.19591	2.61194	2.07688	5.73471	5.78989	5.65163	1.93112	1.80699	1.70811	6.93446	6.62446	6.27623
7420	1.51203	1.50307	1.39254	6.19421	6.08633	5.96135	3.20059	2.61198	2.07841	5.73336	5.78686	5.65001	1.93024	1.80637	1.70882	6.93114	6.62129	6.27293
7590	1.51242	1.50500	1.39484	6.19148	6.08498	5.96119	3.18796	2.61511	2.07854	5.73240	5.78603	5.64886	1.93298	1.80696	1.70928	6.93329	6.62090	6.27269
7750	1.51277	1.50392	1.39105	6.18898	6.08105	5.95760	3.18780	2.60968	2.07609	5.72945	5.78292	5.64694	1.93022	1.80725	1.71070	6.92853	6.62034	6.27381
7920	1.51241	1.50380	1.39505	6.19082	6.08239	5.95952	3.19318	2.61437	2.07858	5.73164	5.78338	5.64757	1.93158	1.80841	1.70959	6.92806	6.61817	6.27128
8090	1.51249	1.50427	1.39353	6.18564	6.07793	5.95562	3.19627	2.61342	2.07664	5.72759	5.77916	5.64494	1.93338	1.80935	1.71316	6.92697	6.61830	6.27086
8250	1.51647	1.50459	1.39435	6.18629	6.07905	5.95729	3.19136	2.61070	2.07414	5.72976	5.78047	5.64599	1.92974	1.80496	1.70645	6.92596	6.61726	6.27079	32.86	5.9	0.00	-2.04	0.01737	0.01202	0.01521	0.01837	0.01897	0.01483	0.00546	0.01515	0.02011	0.01871	0.01300	0.01656	0.01709	0.01767	0.01380	0.00573	0.01614	0.02158
8420	1.50898	1.50144	1.39408	6.18603	6.08054	5.96005	3.19025	2.61273	2.07696	5.73197	5.78288	5.64819	1.93307	1.80792	1.71309	6.93189	6.61923	6.27226
8580	1.51460	1.50555	1.39522	6.18449	6.07708	5.95596	3.19827	2.61648	2.07840	5.72785	5.77825	5.64425	1.93326	1.80833	1.70817	6.92573	6.61426	6.26778
8750	1.51204	1.50310	1.39346	6.17891	6.07106	5.94943	3.18883	2.60853	2.07594	5.72258	5.77282	5.63807	1.93265	1.80906	1.71418	6.92191	6.61340	6.26652
8910	1.51731	1.50854	1.39713	6.17654	6.06866	5.94684	3.19460	2.61621	2.07924	5.72085	5.76972	5.63598	1.93388	1.81330	1.70891	6.91002	6.60439	6.25713
9080	1.51856	1.51109	1.39984	6.17211	6.06680	5.94693	3.19545	2.61969	2.08653	5.72213	5.76912	5.63481	1.94004	1.81464	1.71534	6.91645	6.60709	6.25935
9240	1.51884	1.50998	1.39847	6.16881	6.06107	5.94294	3.19428	2.61712	2.08174	5.71781	5.76615	5.63298	1.93594	1.81118	1.71362	6.91154	6.60222	6.25384
9400	1.51749	1.50960	1.39725	6.16478	6.06082	5.94178	3.19538	2.61768	2.08172	5.71831	5.76526	5.63188	1.93810	1.81291	1.71524	6.91135	6.60167	6.25315
9570	1.51879	1.51027	1.40052	6.16760	6.06226	5.94195	3.19678	2.61949	2.08228	5.71921	5.76374	5.63205	1.93686	1.81627	1.71490	6.91010	6.59865	6.25115
9730	1.51990	1.51103	1.40138	6.16640	6.06208	5.94173	3.20311	2.62156	2.08489	5.71828	5.76339	5.63144	1.94006	1.81808	1.71646	6.90757	6.59733	6.25039
9900	1.52034	1.50912	1.39903	6.16577	6.06033	5.93871	3.19491	2.61703	2.08196	5.71387	5.76218	5.62828	1.93866	1.81599	1.71550	6.91183	6.59826	6.25038	32.86	6.1	0.00	-2.04	0.01737	0.01202	0.01521	0.01837	0.01897	0.01483	0.00546	0.01515	0.02011	0.01871	0.01300	0.01656	0.01709	0.01767	0.01380	0.00573	0.01615	0.02158
10070	1.52255	1.51311	1.40138	6.16513	6.05935	5.93629	3.19958	2.61803	2.08392	5.71321	5.76084	5.62691	1.93817	1.81587	1.71544	6.90591	6.59398	6.24767
10230	1.52192	1.51691	1.40439	6.16769	6.06186	5.94017	3.20423	2.62389	2.08804	5.71593	5.76251	5.62910	1.94194	1.81832	1.71876	6.90704	6.59848	6.25233
10390	1.52153	1.51061	1.40149	6.16527	6.05902	5.93751	3.19520	2.61829	2.08227	5.71206	5.75955	5.62586	1.93720	1.80944	1.71329	6.90397	6.59416	6.24806
10560	1.51586	1.50751	1.39812	6.16253	6.05622	5.93414	3.19208	2.61426	2.07803	5.70881	5.75635	5.62368	1.93672	1.81393	1.71304	6.90307	6.59550	6.24904
10720	1.51996	1.50690	1.39951	6.16308	6.05542	5.93361	3.19046	2.61579	2.07979	5.70770	5.75636	5.62116	1.93571	1.81529	1.71392	6.90121	6.59251	6.24687
10890	1.51795	1.50980	1.39957	6.16008	6.05385	5.93126	3.19728	2.61721	2.07869	5.70657	5.75422	5.62051	1.93522	1.81209	1.71496	6.89708	6.58941	6.24348
11050	1.52004	1.50903	1.39982	6.15788	6.05111	5.93109	3.19497	2.61824	2.08045	5.70559	5.75285	5.62024	1.93689	1.81474	1.71541	6.90194	6.59340	6.24708
11220	1.51955	1.50884	1.39757	6.15893	6.05180	5.93066	3.19289	2.61440	2.07798	5.70361	5.75216	5.61792	1.93659	1.81444	1.71508	6.89969	6.59478	6.24685
11380	1.52152	1.51168	1.40079	6.15944	6.05255	5.93250	3.20332	2.61595	2.07785	5.70473	5.75138	5.61714	1.93462	1.81175	1.71265	6.89981	6.59064	6.24415
11550	1.51604	1.50418	1.39405	6.15411	6.04788	5.92796	3.19465	2.60870	2.07636	5.70085	5.74925	5.61485	1.93239	1.81188	1.71219	6.89752	6.58964	6.24313	32.80	6.2	0.00	-2.04	0.01737	0.01202	0.01520	0.01837	0.01898	0.01483	0.00546	0.01514	0.02010	0.01872	0.01300	0.01656	0.01709	0.01767	0.01380	0.00573	0.01615	0.02158
11710	1.51470	1.50655	1.39491	6.15256	6.04608	5.92502	3.18601	2.60599	2.07265	5.69916	5.74597	5.61288	1.93340	1.81409	1.71415	6.90043	6.59235	6.24588
11880	1.51906	1.50659	1.39602	6.15558	6.04876	5.92885	3.18955	2.60820	2.07492	5.70083	5.74778	5.61477	1.93011	1.81097	1.70866	6.89748	6.58885	6.24198
12040	1.51662	1.50568	1.39593	6.15134	6.04542	5.92564	3.18640	2.60660	2.07229	5.69862	5.74643	5.61209	1.92746	1.80757	1.70800	6.89312	6.58334	6.23714
12210	1.51514	1.50542	1.39646	6.15088	6.04559	5.92558	3.18971	2.60824	2.07421	5.69875	5.74732	5.61382	1.92889	1.80905	1.71073	6.89406	6.58567	6.23727
12370	1.51521	1.50493	1.39300	6.14822	6.04095	5.92012	3.18329	2.60256	2.06961	5.69431	5.74215	5.60916	1.92897	1.80904	1.71033	6.89456	6.58382	6.23760
12540	1.51478	1.50597	1.39699	6.14808	6.04172	5.92181	3.18591	2.60471	2.07160	5.69632	5.74418	5.61037	1.92877	1.80734	1.71070	6.88869	6.58146	6.23438
12700	1.51382	1.50892	1.39724	6.14905	6.04185	5.92291	3.18527	2.61055	2.07576	5.69598	5.74593	5.61143	1.93091	1.80839	1.70806	6.89184	6.58390	6.23529
12870	1.51445	1.50305	1.39459	6.14626	6.03677	5.91678	3.18416	2.60385	2.06787	5.69076	5.73944	5.60498	1.92809	1.80500	1.70541	6.88469	6.57662	6.22829
13030	1.51165	1.50260	1.39384	6.13911	6.03177	5.91480	3.18001	2.60112	2.06898	5.68966	5.73830	5.60448	1.92412	1.80449	1.70575	6.88345	6.57592	6.22860
13200	1.51164	1.50159	1.39047	6.14058	6.03263	5.91544	3.17662	2.59641	2.06579	5.68984	5.73802	5.60523	1.92506	1.80390	1.70456	6.88555	6.57595	6.22821	32.80	6.1	0.00	-2.04	0.01737	0.01202	0.01520	0.01837	0.01898	0.01484	0.00546	0.01514	0.02010	0.01872	0.01300	0.01656	0.01709	0.01767	0.01380	0.00573	0.01615	0.02159
13360	1.51161	1.50120	1.39019	6.14032	6.03214	5.91441	3.17973	2.59918	2.06772	5.68897	5.73839	5.60350	1.92320	1.80135	1.70308	6.88182	6.57229	6.22579
13530	1.50910	1.50202	1.39453	6.13757	6.03132	5.91326	3.17710	2.60311	2.06795	5.69010	5.73680	5.60289	1.92467	1.80500	1.70678	6.88245	6.57272	6.22622
13690	1.51196	1.50173	1.39129	6.13695	6.02878	5.91030	3.17402	2.59702	2.06432	5.68614	5.73255	5.59917	1.92535	1.80498	1.70520	6.88342	6.57454	6.22624
13860	1.51141	1.50377	1.39126	6.13831	6.03028	5.91090	3.18002	2.60015	2.06476	5.68742	5.73350	5.60087	1.92548	1.80069	1.70075	6.88136	6.57080	6.22341
14020	1.50879	1.49969	1.39085	6.13639	6.03021	5.91198	3.18177	2.60110	2.06799	5.68803	5.73421	5.60175	1.92440	1.80132	1.70339	6.87981	6.57210	6.22393
14190	1.51061	1.50067	1.38916	6.13668	6.02740	5.90867	3.17516	2.59614	2.06021	5.68345	5.72935	5.59764	1.92176	1.80018	1.70310	6.87534	6.56619	6.21974
14350	1.50880	1.50026	1.38994	6.13243	6.02417	5.90338	3.16978	2.59273	2.06355	5.68179	5.72816	5.59537	1.91938	1.79768	1.70172	6.86941	6.56294	6.21605
14520	1.50742	1.50182	1.39194	6.13354	6.02831	5.90783	3.17652	2.60008	2.06545	5.68591	5.73162	5.59876	1.92424	1.80178	1.70390	6.87461	6.56694	6.21921
14680	1.50840	1.49948	1.38963	6.13283	6.02435	5.90334	3.17266	2.59470	2.06047	5.68092	5.72678	5.59440	1.91872	1.79857	1.70057	6.87119	6.56201	6.21508
14850	1.50761	1.49916	1.38724	6.13005	6.02356	5.90106	3.16619	2.59380	2.06147	5.67952	5.72582	5.59347	1.92110	1.79819	1.69883	6.86998	6.56215	6.21466	32.80	6.1	0.00	-2.04	0.01737	0.01202	0.01520	0.01837	0.01898	0.01484	0.00546	0.01514	0.02010	0.01872	0.01300	0.01656	0.01709	0.01767	0.01380	0.00573	0.01615	0.02159
15010	1.50563	1.49778	1.38688	6.13077	6.02431	5.90313	3.16742	2.59320	2.06028	5.68212	5.72750	5.59477	1.91905	1.79793	1.69792	6.87029	6.56054	6.21341
15170	1.50637	1.49640	1.38772	6.13088	6.02420	5.90144	3.17367	2.59200	2.05914	5.68029	5.72593	5.59389	1.91825	1.79628	1.69545	6.87080	6.56131	6.21286
15340	1.50289	1.49466	1.38524	6.12759	6.02199	5.89963	3.16871	2.58627	2.05571	5.67941	5.72381	5.59325	1.91478	1.79472	1.69755	6.87301	6.56239	6.21517
15500	1.50512	1.49459	1.38494	6.13018	6.02366	5.90178	3.16305	2.58353	2.05649	5.67978	5.72554	5.59343	1.91409	1.79220	1.69215	6.87072	6.56085	6.21375
15670	1.50063	1.49360	1.38592	6.13318	6.02675	5.90435	3.17137	2.59045	2.05751	5.68290	5.72862	5.59551	1.91527	1.79504	1.69445	6.87111	6.56239	6.21595
15840	1.50235	1.48949	1.38214	6.13015	6.02271	5.90123	3.16217	2.58398	2.05284	5.68070	5.72447	5.59393	1.91369	1.79107	1.69293	6.87204	6.55903	6.21436
16000	1.50052	1.49197	1.38438	6.13036	6.02389	5.90317	3.15965	2.58380	2.05540	5.68121	5.72512	5.59406	1.91230	1.79099	1.69432	6.87227	6.56161	6.21544
16170	1.50248	1.49328	1.38347	6.13176	6.02591	5.90408	3.16279	2.58593	2.05383	5.68275	5.72667	5.59601	1.91534	1.79414	1.69699	6.87483	6.56674	6.22135
16330	1.50574	1.49606	1.38679	6.13708	6.03044	5.90912	3.16722	2.58769	2.05779	5.68752	5.73093	5.59980	1.91681	1.79166	1.69313	6.87498	6.56555	6.21969
16500	1.50264	1.49205	1.38437	6.13299	6.02734	5.90662	3.15237	2.58497	2.05298	5.68459	5.72927	5.59836	1.91217	1.78984	1.69182	6.87366	6.56082	6.21586	32.80	6.0	0.00	-2.04	0.01737	0.01202	0.01521	0.01837	0.01898	0.01484	0.00546	0.01514	0.02010	0.01872	0.01300	0.01656	0.01709	0.01767	0.01380	0.00573	0.01615	0.02159
16660	1.50030	1.49163	1.38416	6.13050	6.02665	5.90721	3.16541	2.58585	2.05352	5.68471	5.72993	5.59947	1.91191	1.78893	1.69154	6.87223	6.56336	6.21773
16830	1.50051	1.49023	1.38140	6.13164	6.02577	5.90450	3.15405	2.58325	2.05033	5.68279	5.72905	5.59704	1.91216	1.79170	1.69231	6.87467	6.56507	6.22078
16990	1.50242	1.49283	1.38315	6.13404	6.02877	5.90907	3.16558	2.58492	2.05363	5.68640	5.73034	5.59979	1.90807	1.78979	1.68953	6.87770	6.56331	6.21756
17150	1.50097	1.49294	1.38223	6.13393	6.03061	5.90989	3.15609	2.58410	2.05491	5.68918	5.73295	5.60189	1.91289	1.79165	1.69091	6.87999	6.56803	6.22139
17320	1.50238	1.49190	1.38304	6.13387	6.02769	5.90859	3.15654	2.58007	2.05360	5.68695	5.73020	5.60072	1.91065	1.79027	1.69316	6.88026	6.57010	6.22453
17480	1.50310	1.48946	1.38299	6.13594	6.03007	5.91076	3.15188	2.58265	2.05223	5.68882	5.73264	5.60170	1.90978	1.78776	1.69195	6.87735	6.56659	6.21906
17650	1.50061	1.49373	1.38532	6.13494	6.03004	5.91227	3.16188	2.58559	2.05562	5.68956	5.73204	5.60223	1.91510	1.78970	1.69300	6.88065	6.56885	6.22190
17810	1.50027	1.48955	1.38314	6.13136	6.02520	5.90644	3.15564	2.58287	2.04980	5.68539	5.72784	5.59913	1.91248	1.78895	1.69249	6.88185	6.56821	6.22110
17980	1.49996	1.49109	1.38161	6.13140	6.02536	5.90624	3.15557	2.58153	2.05146	5.68500	5.72775	5.59778	1.90907	1.78595	1.68740	6.87618	6.56378	6.21685
18140	1.49936	1.48789	1.38059	6.12742	6.02265	5.90282	3.15279	2.57751	2.04868	5.68286	5.72468	5.59533	1.91207	1.79182	1.69169	6.88143	6.56887	6.22224	32.80	6.1	0.00	-2.04	0.01737	0.01202	0.01521	0.01837	0.01898	0.01484	0.00546	0.01515	0.02011	0.01872	0.01300	0.01656	0.01709	0.01767	0.01380	0.00573	0.01615	0.02158
18300	1.50117	1.49187	1.38247	6.13378	6.02844	5.90888	3.16506	2.58555	2.05240	5.68758	5.73007	5.60024	1.91186	1.78923	1.69079	6.87643	6.56561	6.21867
18470	1.50143	1.49208	1.38446	6.13397	6.02864	5.91079	3.16765	2.58721	2.05511	5.69123	5.73224	5.60219	1.91366	1.79124	1.69401	6.87848	6.56953	6.22173
18630	1.50122	1.49082	1.38143	6.13183	6.02609	5.90819	3.15648	2.57990	2.04966	5.68745	5.72839	5.59899	1.91132	1.79012	1.69315	6.87763	6.56977	6.22209
18800	1.50375	1.48897	1.38116	6.13192	6.02538	5.90667	3.15755	2.58067	2.05009	5.68684	5.72816	5.59872	1.91033	1.78834	1.68957	6.87495	6.56715	6.22009
18960	1.49902	1.48929	1.38116	6.13105	6.02630	5.90703	3.16039	2.58253	2.05010	5.68776	5.72939	5.59949	1.90910	1.78845	1.68903	6.87701	6.56562	6.21755
19130	1.49903	1.48993	1.38053	6.12862	6.02313	5.90484	3.15085	2.58020	2.04725	5.68500	5.72629	5.59730	1.90873	1.78608	1.68868	6.87526	6.56486	6.21605
19290	1.49729	1.48915	1.38173	6.12786	6.02362	5.90261	3.15237	2.58018	2.04731	5.68328	5.72596	5.59657	1.90437	1.78421	1.68605	6.87340	6.56318	6.21479
19450	1.49748	1.48945	1.38233	6.12723	6.02510	5.90632	3.16162	2.58383	2.05112	5.68600	5.72850	5.59945	1.90801	1.78573	1.69287	6.87658	6.56638	6.21673
19620	1.49911	1.48944	1.38057	6.12805	6.02306	5.90232	3.15260	2.57849	2.04868	5.68244	5.72521	5.59588	1.90910	1.78916	1.69090	6.87658	6.56554	6.21801
19780	1.50243	1.49010	1.38226	6.13138	6.02625	5.90483	3.15505	2.58159	2.05156	5.68390	5.72620	5.59646	1.90834	1.78764	1.69114	6.87603	6.56289	6.21395	32.80	6.0	0.00	-2.04	0.01737	0.01202	0.01521	0.01837	0.01898	0.01484	0.00546	0.01515	0.02011	0.01872	0.01300	0.01656	0.01709	0.01767	0.01380	0.00573	0.01615	0.02159
19950	1.49922	1.49016	1.38342	6.12972	6.02428	5.90402	3.16009	2.58203	2.05048	5.68401	5.72683	5.59778	1.90986	1.78490	1.69078	6.87250	6.56227	6.21362
20110	1.49732	1.48727	1.37957	6.12684	6.02194	5.89997	3.15715	2.58109	2.04742	5.68136	5.72507	5.59491	1.90771	1.78537	1.69009	6.87098	6.56128	6.21389
20280	1.49813	1.48916	1.38160	6.12995	6.02448	5.90165	3.16052	2.57931	2.04913	5.68192	5.72754	5.59621	1.90784	1.78472	1.68777	6.87323	6.56206	6.21296
20440	1.49873	1.48946	1.38328	6.12828	6.02411	5.90159	3.16226	2.58285	2.05016	5.68110	5.72673	5.59521	1.90876	1.78732	1.68957	6.86835	6.56015	6.21215
20610	1.49789	1.49026	1.38094	6.12665	6.02114	5.89972	3.15712	2.57916	2.04903	5.68075	5.72429	5.59362	1.90566	1.78911	1.68981	6.86877	6.56077	6.21280
20770	1.49857	1.49276	1.38521	6.12737	6.02193	5.90088	3.16103	2.58137	2.05343	5.68136	5.72482	5.59471	1.90824	1.78745	1.69189	6.86932	6.55969	6.21192
20940	1.50015	1.49149	1.38462	6.12998	6.02535	5.90303	3.16058	2.58681	2.05079	5.68347	5.72692	5.59609	1.90806	1.79095	1.69208	6.87296	6.56117	6.21419
21100	1.50100	1.49164	1.38281	6.12809	6.02178	5.90084	3.15353	2.58216	2.05051	5.68095	5.72379	5.59261	1.90720	1.78519	1.68935	6.86815	6.55726	6.21091
21270	1.49664	1.49015	1.38207	6.12491	6.01943	5.89962	3.15602	2.58147	2.04893	5.68084	5.72254	5.59261	1.90740	1.78844	1.68934	6.86792	6.55971	6.21218
21430	1.49900	1.48964	1.38145	6.12424	6.01965	5.90044	3.15877	2.58110	2.04996	5.68248	5.72220	5.59392	1.90697	1.78721	1.68827	6.86842	6.55834	6.21040	32.80	6.0	0.00	-2.04	0.01737	0.01202	0.01521	0.01837	0.01898	0.01483	0.00546	0.01515	0.02011	0.01872	0.01300	0.01656	0.01709	0.01767	0.01380	0.00573	0.01615	0.02158
21600	1.49890	1.49056	1.38246	6.12673	6.02032	5.90135	3.15589	2.58070	2.05141	5.68206	5.72317	5.59408	1.90688	1.78887	1.69082	6.87098	6.56053	6.21335
21760	1.49791	1.48898	1.38124	6.12394	6.01848	5.89830	3.15220	2.57872	2.04766	5.67890	5.72001	5.59131	1.90601	1.78850	1.69210	6.86908	6.55890	6.21085
21930	1.49824	1.48963	1.38035	6.12329	6.01861	5.90074	3.16019	2.58102	2.05116	5.68126	5.72253	5.59277	1.90702	1.78637	1.68921	6.87110	6.55920	6.21192
22090	1.49696	1.48836	1.38153	6.12199	6.01727	5.89678	3.15602	2.57970	2.04825	5.67750	5.71838	5.58944	1.90551	1.78778	1.68950	6.86873	6.56054	6.21199
22260	1.50085	1.48986	1.38120	6.12336	6.01835	5.90008	3.15618	2.57804	2.04833	5.68011	5.71933	5.59201	1.90658	1.78578	1.69029	6.87470	6.56189	6.21320
22420	1.49755	1.48972	1.38227	6.12424	6.01933	5.90136	3.15556	2.57758	2.04742	5.68158	5.72211	5.59314	1.90100	1.78288	1.68540	6.87098	6.56052	6.21217
22590	1.49692	1.48718	1.38154	6.12426	6.01802	5.90044	3.15984	2.57783	2.04763	5.68127	5.72081	5.59232	1.90512	1.78522	1.68461	6.87222	6.56145	6.21230
22750	1.49876	1.48944	1.37826	6.12081	6.01545	5.89757	3.14748	2.57403	2.04398	5.67875	5.71855	5.59017	1.90496	1.78625	1.68930	6.87474	6.56561	6.21808
22920	1.49934	1.48900	1.38032	6.12439	6.01837	5.90167	3.15304	2.58102	2.04660	5.68104	5.72038	5.59137	1.90592	1.78417	1.68762	6.87164	6.56174	6.21427
23080	1.49811	1.48663	1.37895	6.12163	6.01806	5.89968	3.15204	2.57584	2.04662	5.68130	5.72038	5.59192	1.90011	1.78164	1.68355	6.86917	6.56062	6.21144	32.80	6.0	0.00	-2.04	0.01737	0.01202	0.01521	0.01837	0.01898	0.01483	0.00546	0.01515	0.02011	0.01872	0.01300	0.01656	0.01709	0.01767	0.01380	0.00573	0.01615	0.02158
23250	1.49588	1.48759	1.38077	6.12385	6.01924	5.90216	3.15673	2.58324	2.04764	5.68351	5.72227	5.59602	1.90305	1.78267	1.68614	6.87503	6.56318	6.21485
23410	1.49549	1.48565	1.37862	6.12263	6.01630	5.89895	3.15553	2.57500	2.04231	5.67902	5.71871	5.59001	1.90264	1.78489	1.68837	6.87623	6.56362	6.21499
23580	1.49763	1.48844	1.37886	6.12347	6.01691	5.89725	3.15071	2.57634	2.04669	5.67707	5.71703	5.58873	1.90143	1.78228	1.68408	6.86680	6.55814	6.20780
23740	1.49476	1.48777	1.37934	6.11896	6.01337	5.89467	3.15362	2.57701	2.04586	5.67520	5.71606	5.58697	1.90079	1.78173	1.68524	6.86549	6.55579	6.20661
23910	1.49423	1.48714	1.37862	6.11884	6.01407	5.89411	3.14105	2.57995	2.04646	5.67475	5.71575	5.58650	1.90250	1.78066	1.68605	6.87002	6.55835	6.20803
24070	1.49427	1.48823	1.37913	6.11920	6.01406	5.89464	3.14835	2.57493	2.04416	5.67469	5.71607	5.58685	1.90117	1.78226	1.68323	6.86615	6.55799	6.20931
24240	1.49560	1.48593	1.38068	6.12178	6.01578	5.89551	3.15172	2.57523	2.04484	5.67535	5.71662	5.58745	1.90356	1.78232	1.68649	6.86960	6.55916	6.21008
24400	1.49580	1.48910	1.38120	6.12358	6.01870	5.89723	3.15294	2.57806	2.04577	5.67756	5.71852	5.58960	1.90159	1.78028	1.68289	6.86719	6.55850	6.20770
24570	1.49502	1.48893	1.37893	6.12068	6.01777	5.89625	3.15010	2.57686	2.04587	5.67772	5.72015	5.59044	1.89935	1.78088	1.68471	6.87379	6.56065	6.21097
24730	1.49452	1.48656	1.38000	6.12373	6.01723	5.89415	3.14587	2.57438	2.04127	5.67450	5.71681	5.58694	1.89905	1.78081	1.68604	6.87149	6.55944	6.20879	32.86	6.1	0.00	-2.04	0.01737	0.01202	0.01521	0.01837	0.01898	0.01483	0.00546	0.01515	0.02011	0.01872	0.01300	0.01656	0.01709	0.01767	0.01380	0.00573	0.01615	0.02158
24900	1.49754	1.48669	1.38008	6.12403	6.01761	5.89629	3.15802	2.57728	2.04436	5.67582	5.71741	5.58770	1.90140	1.77930	1.68260	6.86370	6.55369	6.20422
25060	1.49310	1.48662	1.37753	6.12006	6.01591	5.89498	3.15136	2.57460	2.04223	5.67536	5.71955	5.58945	1.89997	1.77999	1.68329	6.86459	6.55642	6.20454
25220	1.49428	1.48424	1.37883	6.11953	6.01369	5.89201	3.14752	2.57154	2.04088	5.67315	5.71617	5.58531	1.90107	1.78045	1.68301	6.86432	6.55415	6.20456
25390	1.49446	1.48735	1.37836	6.12133	6.01673	5.89356	3.14871	2.57355	2.04192	5.67428	5.71651	5.58669	1.90000	1.77955	1.68324	6.86312	6.55022	6.20352
25550	1.49388	1.48592	1.37864	6.12130	6.01862	5.89589	3.14289	2.57189	2.04371	5.67664	5.71978	5.59020	1.89956	1.77999	1.68409	6.86149	6.55124	6.20400
25720	1.49351	1.48418	1.37919	6.11941	6.01544	5.89109	3.14264	2.57000	2.03991	5.67441	5.71874	5.58634	1.89920	1.78207	1.68559	6.86308	6.55377	6.20650
25880	1.49561	1.48563	1.37892	6.12250	6.01744	5.89444	3.15126	2.57332	2.04113	5.67544	5.71897	5.58847	1.89946	1.77882	1.68464	6.86200	6.55103	6.20483
26050	1.49357	1.48630	1.37879	6.12135	6.01780	5.89366	3.14309	2.57206	2.03973	5.67601	5.71799	5.58731	1.89632	1.77676	1.68046	6.85816	6.55054	6.20401
26220	1.49373	1.48539	1.37854	6.12004	6.01819	5.89397	3.14519	2.57201	2.04154	5.67572	5.71707	5.58752	1.89908	1.78093	1.68243	6.86405	6.55149	6.20526
26380	1.49525	1.48283	1.37673	6.11975	6.01450	5.89076	3.13840	2.56962	2.03865	5.67167	5.71535	5.58401	1.89862	1.77709	1.68386	6.86483	6.55572	6.20839	32.80	6.1	0.00	-2.04	0.01737	0.01202	0.01521	0.01837	0.01898	0.01483	0.00546	0.01515	0.02011	0.01872	0.01300	0.01656	0.01709	0.01767	0.01380	0.00573	0.01615	0.02158
26550	1.49588	1.48690	1.37790	6.12185	6.01709	5.89219	3.14205	2.57019	2.04059	5.67317	5.71505	5.58669	1.89684	1.77786	1.68006	6.86495	6.55530	6.20711
26710	1.49312	1.48336	1.37714	6.12270	6.01918	5.89408	3.14593	2.56882	2.04074	5.67406	5.71711	5.58523	1.89640	1.77510	1.68071	6.86332	6.55410	6.20520
26880	1.49137	1.48437	1.37885	6.12196	6.01788	5.89395	3.14864	2.57057	2.04020	5.67451	5.71798	5.58656	1.89812	1.77653	1.68089	6.86328	6.55756	6.20665
27040	1.49050	1.48250	1.37728	6.11844	6.01292	5.89007	3.13843	2.56510	2.03653	5.66994	5.71278	5.58274	1.89630	1.77411	1.68039	6.86491	6.55624	6.20747
27210	1.49144	1.48251	1.37766	6.11964	6.01391	5.89242	3.14269	2.56716	2.03967	5.66980	5.71350	5.58222	1.89738	1.77666	1.68007	6.86758	6.55671	6.20597
27370	1.49051	1.48508	1.37492	6.11921	6.01304	5.89074	3.13698	2.56615	2.03875	5.66892	5.71215	5.58149	1.89778	1.77660	1.68054	6.86809	6.55754	6.20742
27540	1.49383	1.48252	1.37793	6.11880	6.01301	5.89265	3.13885	2.56874	2.03671	5.66977	5.71395	5.58331	1.89744	1.77513	1.67925	6.86809	6.55696	6.20491
27700	1.49043	1.48394	1.37796	6.11605	6.01216	5.89391	3.14612	2.57275	2.04363	5.67201	5.71640	5.58423	1.89885	1.77764	1.67975	6.86941	6.55663	6.20699
27870	1.49087	1.48445	1.37639	6.11511	6.00960	5.88866	3.13856	2.56549	2.03684	5.66655	5.71025	5.57916	1.89568	1.77205	1.67914	6.86038	6.55078	6.20106
28030	1.48704	1.48170	1.37365	6.11082	6.00627	5.88753	3.14481	2.56398	2.03601	5.66578	5.70972	5.57820	1.89588	1.77369	1.67508	6.86323	6.55199	6.20204	32.80	6.1	0.00	-2.04	0.01737	0.01202	0.01521	0.01837	0.01898	0.01484	0.00546	0.01515	0.02011	0.01872	0.01301	0.01656	0.01709	0.01767	0.01380	0.00573	0.01615	0.02158
28200	1.49030	1.48027	1.37542	6.11174	6.00788	5.88975	3.13357	2.56563	2.03734	5.66799	5.71136	5.57984	1.89587	1.77289	1.67896	6.86265	6.55084	6.20035
28360	1.49001	1.48193	1.37499	6.11199	6.00828	5.89101	3.14361	2.57071	2.03783	5.66853	5.71052	5.58173	1.89676	1.77374	1.67787	6.86211	6.55283	6.20161
28530	1.49099	1.48072	1.37375	6.11023	6.00597	5.88711	3.13718	2.56222	2.03586	5.66635	5.70889	5.57878	1.89664	1.77617	1.68004	6.86289	6.55438	6.20510
28690	1.49236	1.48173	1.37616	6.11404	6.01005	5.89165	3.13731	2.56663	2.03850	5.66995	5.71178	5.58146	1.89322	1.77314	1.67770	6.85990	6.54992	6.19901
28860	1.48978	1.48376	1.37687	6.11254	6.00966	5.89231	3.14465	2.57023	2.03968	5.67035	5.71335	5.58291	1.89738	1.77627	1.67762	6.86223	6.55260	6.20298
29020	1.48822	1.48192	1.37398	6.11127	6.00684	5.88863	3.13722	2.56398	2.03580	5.66693	5.70981	5.57796	1.89381	1.77160	1.67394	6.85429	6.54655	6.19792
29190	1.48879	1.48079	1.37270	6.10646	6.00272	5.88542	3.13696	2.56546	2.03559	5.66408	5.70774	5.57634	1.89406	1.77092	1.67771	6.85127	6.54471	6.19583
29350	1.48865	1.48155	1.37265	6.10473	6.00334	5.88437	3.13948	2.56812	2.03526	5.66381	5.70549	5.57500	1.89270	1.77167	1.67623	6.84852	6.54084	6.19320
29520	1.48774	1.48219	1.37510	6.10464	6.00279	5.88503	3.13589	2.56543	2.03554	5.66389	5.70791	5.57527	1.89279	1.77281	1.67714	6.84914	6.54119	6.19445
29680	1.48724	1.48031	1.37352	6.10201	5.99893	5.88175	3.13013	2.56107	2.03354	5.65899	5.70207	5.57215	1.89552	1.77348	1.67666	6.84370	6.53920	6.19151	32.80	6.0	0.00	-2.04	0.01737	0.01202	0.01521	0.01837	0.01898	0.01484	0.00546	0.01515	0.02011	0.01872	0.01301	0.01656	0.01709	0.01767	0.01380	0.00573	0.01615	0.02158
29850	1.48803	1.48300	1.37560	6.10239	5.99821	5.88114	3.14010	2.56385	2.03699	5.65816	5.70095	5.57029	1.89533	1.77164	1.67770	6.84111	6.53561	6.18811
30010	1.48605	1.47999	1.37257	6.09951	5.99503	5.87910	3.13481	2.56090	2.03323	5.65524	5.69932	5.56744	1.89260	1.77285	1.67776	6.84200	6.53490	6.18862
30180	1.49089	1.48244	1.37385	6.09994	5.99512	5.87762	3.13710	2.56351	2.03192	5.65551	5.69816	5.56770	1.89123	1.77256	1.67355	6.83945	6.53141	6.18423
30340	1.48770	1.48159	1.37331	6.09670	5.99267	5.87547	3.13636	2.56072	2.03347	5.65263	5.69637	5.56433	1.89102	1.77022	1.67294	6.83775	6.52920	6.18137
30510	1.48781	1.48172	1.37323	6.09609	5.99140	5.87455	3.14068	2.56281	2.03277	5.65146	5.69547	5.56262	1.89324	1.77140	1.67557	6.83782	6.52675	6.18069
30670	1.48563	1.48145	1.37148	6.09319	5.98825	5.86940	3.13213	2.55753	2.03256	5.64739	5.69044	5.55892	1.89424	1.77429	1.67958	6.83349	6.52651	6.18117
30840	1.48821	1.48218	1.37384	6.09378	5.98970	5.87147	3.13461	2.56028	2.03420	5.64856	5.69295	5.56087	1.89268	1.76993	1.67475	6.83284	6.52299	6.17775
31000	1.48564	1.48144	1.37069	6.09054	5.98636	5.87027	3.13455	2.56101	2.03134	5.64781	5.69077	5.56009	1.89140	1.76961	1.67359	6.82789	6.51915	6.17472
31170	1.48519	1.48210	1.37155	6.09098	5.98632	5.86958	3.13762	2.56186	2.03361	5.64768	5.69011	5.55982	1.89169	1.77169	1.67396	6.82901	6.52128	6.17545
31330	1.48355	1.47798	1.37020	6.08594	5.98050	5.86459	3.12964	2.55456	2.02756	5.64241	5.68393	5.55376	1.88946	1.77078	1.67365	6.82903	6.52238	6.17721	32.80	6.1	0.00	-2.04	0.01737	0.01202	0.01521	0.01837	0.01898	0.01484	0.00546	0.01515	0.02011	0.01872	0.01301	0.01656	0.01709	0.01767	0.01380	0.00573	0.01615	0.02159
31500	1.48452	1.48024	1.37276	6.08929	5.98277	5.86547	3.11958	2.55487	2.02852	5.64386	5.68529	5.55479	1.88918	1.76865	1.67208	6.82548	6.51424	6.16990
31660	1.48457	1.47728	1.36915	6.08280	5.97672	5.86040	3.11939	2.55160	2.02526	5.64087	5.68085	5.55119	1.88624	1.76508	1.66760	6.81966	6.51048	6.16589
31830	1.48263	1.47683	1.37046	6.08108	5.97601	5.85875	3.12877	2.55389	2.02770	5.63932	5.67886	5.55125	1.88731	1.76404	1.66746	6.82074	6.51102	6.16617
31990	1.47980	1.47652	1.36722	6.07878	5.97318	5.85681	3.12062	2.55223	2.02443	5.63759	5.67699	5.54749	1.88617	1.76344	1.66780	6.81811	6.50973	6.16434
32160	1.48083	1.47744	1.37073	6.07736	5.97275	5.85570	3.12332	2.55174	2.02811	5.63778	5.67816	5.54746	1.88771	1.76491	1.67001	6.82101	6.51284	6.16731
32320	1.48324	1.47726	1.36911	6.07985	5.97507	5.85739	3.12042	2.55326	2.02829	5.63821	5.67952	5.54885	1.88825	1.76578	1.66634	6.82004	6.51154	6.16629
32490	1.48053	1.47734	1.36853	6.07840	5.97489	5.85664	3.12377	2.55522	2.02798	5.63796	5.67914	5.54863	1.88717	1.76319	1.66795	6.82571	6.51248	6.16674
32650	1.48194	1.47441	1.36744	6.07859	5.97269	5.85290	3.11997	2.54771	2.02352	5.63351	5.67638	5.54566	1.88507	1.76437	1.66873	6.82066	6.51204	6.16620
32820	1.48263	1.47550	1.36786	6.08012	5.97485	5.85499	3.11601	2.54847	2.02351	5.63610	5.67946	5.54766	1.88402	1.76169	1.66677	6.82459	6.51142	6.16464
32980	1.47814	1.47352	1.36851	6.07883	5.97496	5.85650	3.12343	2.55286	2.02296	5.63658	5.67924	5.54936	1.88243	1.76245	1.66384	6.82392	6.51176	6.16548	32.80	6.2	0.00	-2.04	0.01737	0.01202	0.01521	0.01837	0.01898	0.01484	0.00546	0.01515	0.02010	0.01872	0.01301	0.01656	0.01709	0.01767	0.01380	0.00573	0.01615	0.02159
33150	1.47948	1.47194	1.36694	6.07694	5.97088	5.85084	3.11331	2.54637	2.01830	5.63143	5.67336	5.54278	1.88220	1.76224	1.66626	6.82496	6.51207	6.16474
33310	1.48129	1.47428	1.36744	6.07641	5.97092	5.85091	3.10838	2.54792	2.01946	5.63124	5.67260	5.54333	1.88035	1.76034	1.66329	6.81782	6.50848	6.16058
33470	1.48032	1.47507	1.36828	6.07632	5.97259	5.85208	3.12063	2.55027	2.02104	5.63198	5.67407	5.54281	1.88280	1.75981	1.66554	6.82180	6.50967	6.16137
33640	1.47772	1.47250	1.36282	6.07491	5.96837	5.84677	3.11592	2.54374	2.01837	5.62832	5.67072	5.53954	1.88063	1.76079	1.66760	6.82126	6.51065	6.16310
33800	1.47982	1.47322	1.36509	6.07715	5.97014	5.85008	3.11911	2.54622	2.02024	5.63046	5.67129	5.54280	1.88038	1.76035	1.66350	6.81910	6.50703	6.15967
33970	1.47968	1.47461	1.36731	6.07695	5.97090	5.85036	3.11963	2.54868	2.02356	5.63102	5.67152	5.54040	1.88334	1.76302	1.66875	6.82079	6.50667	6.15923
34130	1.47893	1.47394	1.36658	6.07303	5.96578	5.84485	3.11876	2.54624	2.01903	5.62655	5.66657	5.53692	1.88184	1.76160	1.66975	6.81809	6.50754	6.16121
34300	1.48227	1.47398	1.36690	6.07502	5.96727	5.84706	3.11492	2.54500	2.01777	5.62852	5.66860	5.53812	1.87987	1.75945	1.66492	6.81667	6.50358	6.15757
34460	1.47986	1.47501	1.36855	6.07156	5.96679	5.84690	3.11666	2.54765	2.02242	5.62701	5.66701	5.53626	1.88075	1.76154	1.66323	6.81493	6.50358	6.15603
34630	1.47765	1.47181	1.36504	6.06866	5.96238	5.84205	3.10731	2.54180	2.01736	5.62170	5.66317	5.53301	1.87877	1.75974	1.66287	6.81513	6.50128	6.15457	32.80	6.1	0.00	-2.04	0.01737	0.01202	0.01521	0.01837	0.01898	0.01484	0.00546	0.01515	0.02010	0.01872	0.01301	0.01656	0.01709	0.01767	0.01380	0.00573	0.01615	0.02159
34790	1.47789	1.46989	1.36457	6.06807	5.96200	5.84117	3.11571	2.54369	2.01615	5.62180	5.66347	5.53312	1.87915	1.75613	1.65975	6.81498	6.49956	6.15315
34950	1.47819	1.47048	1.36369	6.06458	5.95966	5.83690	3.11633	2.53907	2.01341	5.61783	5.66110	5.53019	1.87787	1.75780	1.66307	6.81428	6.50123	6.15399
35120	1.47765	1.47457	1.36473	6.06662	5.96144	5.83856	3.11855	2.54325	2.01615	5.61983	5.66210	5.53058	1.87924	1.76022	1.66251	6.81498	6.50221	6.15228
35290	1.47834	1.47264	1.36593	6.06517	5.95933	5.83719	3.11452	2.54449	2.01520	5.61645	5.66096	5.52807	1.88014	1.76039	1.66358	6.81374	6.50151	6.15218
35450	1.47977	1.47147	1.36524	6.06505	5.95995	5.83606	3.12032	2.54726	2.01902	5.61545	5.66109	5.52739	1.87877	1.75767	1.66180	6.81293	6.49638	6.14657
35620	1.47791	1.47157	1.36602	6.06000	5.95789	5.83409	3.11733	2.54740	2.01972	5.61516	5.66061	5.52744	1.88206	1.75969	1.66391	6.81205	6.49787	6.14718
35780	1.47752	1.47136	1.36493	6.05902	5.95365	5.83090	3.11188	2.54093	2.01648	5.61086	5.65423	5.52376	1.87641	1.75541	1.65880	6.80931	6.49593	6.14356
35940	1.47548	1.47075	1.36344	6.05697	5.95280	5.82931	3.11475	2.53933	2.01355	5.60881	5.65538	5.52231	1.87523	1.75503	1.65958	6.80862	6.49391	6.14291
36110	1.47527	1.47218	1.36349	6.05760	5.95402	5.83069	3.12235	2.53899	2.01412	5.61118	5.65674	5.52363	1.87611	1.75454	1.65924	6.80395	6.49150	6.14153
36270	1.47678	1.46983	1.36461	6.05652	5.95494	5.83000	3.11064	2.54038	2.01623	5.60980	5.65680	5.52405	1.87551	1.75524	1.66042	6.80801	6.49087	6.14017	32.86	6.1	0.00	-2.04	0.01737	0.01202	0.01521	0.01837	0.01898	0.01484	0.00546	0.01515	0.02010	0.01872	0.01301	0.01656	0.01709	0.01767	0.01380	0.00573	0.01615	0.02159
36440	1.47516	1.46871	1.36277	6.05434	5.95158	5.82604	3.10677	2.53873	2.01450	5.60741	5.65497	5.52126	1.87762	1.75728	1.66105	6.80582	6.49025	6.14209
36600	1.47716	1.47186	1.36333	6.05719	5.95350	5.82697	3.11093	2.53951	2.01517	5.60798	5.65383	5.52081	1.87497	1.75359	1.65944	6.79731	6.48457	6.13586
36770	1.47748	1.47062	1.36526	6.05677	5.95382	5.82908	3.11573	2.54489	2.01621	5.61014	5.65688	5.52289	1.87637	1.75610	1.66227	6.80050	6.48791	6.14094
36930	1.47753	1.46863	1.36359	6.05785	5.95264	5.82703	3.11508	2.54011	2.01407	5.60755	5.65414	5.52102	1.87463	1.75512	1.65967	6.79615	6.48638	6.13857
37100	1.47440	1.46825	1.36144	6.05487	5.95036	5.82531	3.11135	2.53683	2.00926	5.60526	5.65137	5.51899	1.87509	1.75639	1.66068	6.79388	6.48194	6.13560
37260	1.47626	1.46829	1.36430	6.05325	5.94832	5.82504	3.10587	2.53895	2.01365	5.60273	5.64932	5.51746	1.87505	1.75346	1.66069	6.78884	6.47748	6.13112
37430	1.47733	1.46942	1.36479	6.05139	5.94818	5.82443	3.11437	2.54134	2.01506	5.60424	5.64906	5.51736	1.87566	1.75673	1.66030	6.78992	6.47769	6.13176
37590	1.47507	1.46837	1.36082	6.04844	5.94256	5.81931	3.10262	2.53575	2.01100	5.59913	5.64480	5.51393	1.87120	1.75328	1.65642	6.78461	6.47629	6.13001
37760	1.47329	1.46860	1.36218	6.04695	5.94168	5.81928	3.10745	2.53744	2.01209	5.59872	5.64369	5.51271	1.87414	1.75279	1.65821	6.78415	6.47482	6.12946
37930	1.47268	1.46900	1.35953	6.04629	5.94076	5.81872	3.10590	2.53771	2.01090	5.59945	5.64250	5.51195	1.87440	1.75484	1.65971	6.78367	6.47690	6.13091	32.80	6.1	0.00	-2.04	0.01737	0.01202	0.01521	0.01837	0.01898	0.01484	0.00546	0.01515	0.02010	0.01872	0.01301	0.01657	0.01709	0.01767	0.01380	0.00573	0.01615	0.02159
38090	1.47792	1.46983	1.36319	6.04770	5.94244	5.82141	3.11727	2.53891	2.01404	5.60144	5.64435	5.51370	1.87334	1.75317	1.66014	6.78109	6.47358	6.12790
38260	1.47414	1.46804	1.36472	6.04233	5.93951	5.81951	3.11717	2.54346	2.01707	5.60079	5.64318	5.51347	1.87421	1.75551	1.65947	6.78259	6.47479	6.12883
38420	1.47361	1.46762	1.36267	6.04188	5.93655	5.81512	3.10812	2.53365	2.01232	5.59633	5.63793	5.50833	1.87201	1.75043	1.65707	6.78029	6.46828	6.12459
38580	1.47166	1.46512	1.36138	6.03833	5.93304	5.81225	3.11012	2.53492	2.00971	5.59448	5.63517	5.50499	1.87244	1.75140	1.65730	6.77906	6.46900	6.12201
38750	1.47322	1.46664	1.35943	6.03713	5.93304	5.81128	3.10889	2.53739	2.01040	5.59515	5.63720	5.50626	1.87172	1.75091	1.65711	6.77775	6.46630	6.11996
38910	1.47225	1.46913	1.36324	6.03631	5.93250	5.81180	3.11472	2.54163	2.01319	5.59544	5.63555	5.50482	1.87519	1.75101	1.65767	6.77829	6.46639	6.12061
39080	1.47066	1.46616	1.35888	6.03386	5.92894	5.80827	3.11086	2.53263	2.00957	5.59147	5.63049	5.50176	1.87256	1.75369	1.65872	6.77783	6.46792	6.12128
39250	1.47496	1.46880	1.36223	6.03728	5.93195	5.81116	3.10986	2.53719	2.01432	5.59417	5.63457	5.50492	1.87426	1.75329	1.65721	6.77575	6.46504	6.11857
39410	1.47165	1.46674	1.36153	6.03366	5.93020	5.80976	3.10670	2.53800	2.01160	5.59418	5.63325	5.50452	1.87035	1.74918	1.65479	6.77437	6.46355	6.11673
39580	1.47068	1.46753	1.36231	6.03326	5.92978	5.80933	3.10262	2.53746	2.01247	5.59412	5.63275	5.50459	1.87113	1.75145	1.65569	6.77287	6.46339	6.11710	32.80	6.2	0.00	-2.04	0.01737	0.01202	0.01520	0.01837	0.01898	0.01484	0.00546	0.01514	0.02010	0.01872	0.01301	0.01657	0.01709	0.01767	0.01380	0.00573	0.01615	0.02159
39740	1.46941	1.46630	1.36078	6.02967	5.92599	5.80508	3.10220	2.53087	2.00963	5.59029	5.62988	5.50068	1.87230	1.75290	1.65653	6.77652	6.46728	6.11943
39910	1.47292	1.46812	1.36402	6.03331	5.92915	5.80737	3.10899	2.53858	2.01294	5.59167	5.63223	5.50252	1.87032	1.75179	1.65608	6.77391	6.46048	6.11370
40070	1.47075	1.46728	1.36073	6.02784	5.92305	5.80383	3.10963	2.53511	2.00871	5.58898	5.62720	5.49915	1.86938	1.74839	1.65278	6.76673	6.45576	6.11001
40240	1.47219	1.46546	1.35988	6.02866	5.92478	5.80673	3.10664	2.53769	2.01457	5.59085	5.62915	5.50245	1.87211	1.74963	1.65614	6.77375	6.46077	6.11400
40400	1.46977	1.46204	1.35781	6.02662	5.92068	5.80301	3.10278	2.53078	2.00885	5.58877	5.62512	5.49801	1.86920	1.75044	1.65611	6.76750	6.45816	6.11189
40570	1.46959	1.46295	1.35879	6.02672	5.92162	5.80344	3.09660	2.53467	2.00907	5.58860	5.62516	5.49790	1.87222	1.75191	1.65634	6.76834	6.46146	6.11564
40730	1.47423	1.46609	1.36135	6.02903	5.92336	5.80646	3.11198	2.53502	2.01324	5.59213	5.62767	5.50016	1.87076	1.74876	1.65478	6.76838	6.46010	6.11399
40890	1.47095	1.46653	1.36055	6.02580	5.92211	5.80623	3.11292	2.53698	2.01419	5.59173	5.62777	5.50045	1.87306	1.74996	1.65745	6.77479	6.46185	6.11624
41060	1.47183	1.46350	1.35988	6.02646	5.92049	5.80447	3.10461	2.53389	2.00965	5.58891	5.62521	5.49751	1.87316	1.75319	1.65426	6.77279	6.46475	6.11741
41220	1.47381	1.46517	1.36167	6.02906	5.92370	5.80690	3.11004	2.53613	2.01193	5.59203	5.62770	5.50065	1.87102	1.75017	1.65653	6.77035	6.46247	6.11631	32.86	6.0	0.00	-2.04	0.01737	0.01202	0.01520	0.01838	0.01898	0.01484	0.00546	0.01514	0.02010	0.01872	0.01301	0.01657	0.01709	0.01767	0.01380	0.00573	0.01615	0.02159
41390	1.47080	1.46309	1.36034	6.02630	5.92211	5.80668	3.11358	2.53659	2.01047	5.59083	5.62732	5.49931	1.87076	1.74853	1.65455	6.77404	6.46067	6.11459
41550	1.46962	1.46186	1.35748	6.02274	5.91751	5.80215	3.09482	2.53292	2.00651	5.58759	5.62439	5.49599	1.86741	1.74919	1.65178	6.76521	6.45756	6.10989
41710	1.46998	1.46528	1.35768	6.02404	5.91917	5.80469	3.10328	2.53607	2.01125	5.58926	5.62680	5.49810	1.87167	1.74958	1.65511	6.77066	6.45959	6.11216
41880	1.46831	1.46061	1.35802	6.01936	5.91311	5.79908	3.09701	2.53120	2.00627	5.58336	5.62070	5.49295	1.86897	1.74725	1.65365	6.76467	6.45409	6.10777
42040	1.46955	1.46358	1.35860	6.01757	5.91247	5.79674	3.10608	2.53407	2.00884	5.58238	5.61985	5.49126	1.86790	1.74842	1.65264	6.76260	6.45283	6.10506
42210	1.46783	1.46152	1.35706	6.01567	5.91029	5.79403	3.09848	2.53074	2.00588	5.58019	5.61689	5.48884	1.86957	1.75357	1.65747	6.76410	6.45463	6.10723
42370	1.47162	1.46560	1.36213	6.01802	5.91237	5.79641	3.10518	2.53506	2.00935	5.58138	5.61939	5.49051	1.86714	1.74766	1.65348	6.75938	6.44680	6.10026
42540	1.46765	1.46117	1.35937	6.01276	5.90896	5.79082	3.10589	2.53198	2.00716	5.57851	5.61521	5.48821	1.86732	1.74627	1.65136	6.75371	6.44394	6.09766
42700	1.46797	1.46220	1.35634	6.01130	5.90719	5.79048	3.10408	2.53114	2.00703	5.57690	5.61477	5.48583	1.86594	1.74636	1.65285	6.75298	6.44399	6.09719
42870	1.46586	1.46035	1.35664	6.01030	5.90618	5.78765	3.10169	2.53147	2.00414	5.57602	5.61314	5.48504	1.86647	1.74996	1.65585	6.75376	6.44428	6.09760	32.80	6.0	0.00	-2.04	0.01737	0.01202	0.01520	0.01838	0.01898	0.01484	0.00546	0.01514	0.02010	0.01872	0.01301	0.01657	0.01709	0.01767	0.01380	0.00573	0.01615	0.02159
43030	1.46820	1.46158	1.35737	6.01265	5.90852	5.79064	3.10845	2.53429	2.00731	5.57864	5.61656	5.48809	1.86559	1.74755	1.65310	6.75203	6.44323	6.09624
43200	1.46836	1.46475	1.35926	6.01404	5.91038	5.79178	3.10906	2.53541	2.00951	5.58010	5.61730	5.48866	1.86957	1.74898	1.65343	6.75705	6.44513	6.09885
43360	1.46762	1.46132	1.35591	6.01344	5.90738	5.78886	3.10423	2.52862	2.00611	5.57596	5.61340	5.48571	1.86593	1.74678	1.64998	6.74904	6.44118	6.09495
43530	1.46565	1.46231	1.35505	6.01049	5.90728	5.78910	3.10513	2.53259	2.00690	5.57656	5.61330	5.48576	1.86658	1.74784	1.65199	6.75150	6.44069	6.09495
43690	1.46694	1.46202	1.35757	6.00892	5.90529	5.78717	3.10430	2.53128	2.00553	5.57438	5.61160	5.48416	1.86803	1.74967	1.65530	6.75468	6.44176	6.09543
43860	1.46736	1.46368	1.35790	6.00976	5.90560	5.78829	3.10700	2.53462	2.00787	5.57580	5.61306	5.48625	1.86618	1.74764	1.65072	6.75058	6.43960	6.09381
44020	1.46480	1.46414	1.35892	6.00691	5.90463	5.78765	3.10806	2.53720	2.00976	5.57566	5.61161	5.48422	1.86690	1.74638	1.65332	6.75134	6.43902	6.09346
44190	1.46653	1.46194	1.35649	6.00625	5.90253	5.78346	3.09982	2.52851	2.00523	5.57008	5.60590	5.47964	1.86726	1.75123	1.65439	6.74973	6.44096	6.09475
44350	1.46820	1.46371	1.36045	6.00965	5.90494	5.78522	3.11257	2.53600	2.00701	5.57169	5.60876	5.48060	1.86804	1.74749	1.65259	6.74498	6.43486	6.08869
44520	1.46775	1.46316	1.35802	6.00714	5.90312	5.78413	3.11085	2.53576	2.00874	5.57051	5.60861	5.48023	1.86679	1.74883	1.65149	6.74436	6.43613	6.08906	32.80	6.2	0.00	-2.04	0.01737	0.01202	0.01520	0.01838	0.01898	0.01484	0.00546	0.01514	0.02010	0.01872	0.01301	0.01657	0.01709	0.01767	0.01380	0.00573	0.01615	0.02159
44680	1.46509	1.45962	1.35488	6.00278	5.89741	5.77967	3.10264	2.52682	2.00282	5.56660	5.60311	5.47542	1.86519	1.74611	1.65268	6.74065	6.43628	6.08816
44840	1.46542	1.46301	1.35540	6.00243	5.89788	5.77836	3.10087	2.53033	2.00345	5.56531	5.60196	5.47538	1.86430	1.74178	1.64898	6.74026	6.42759	6.08334
45010	1.46472	1.46089	1.35504	6.00097	5.89851	5.77940	3.10502	2.53342	2.00589	5.56678	5.60259	5.47585	1.86500	1.74694	1.65034	6.73889	6.42980	6.08420
45170	1.46478	1.46018	1.35452	5.99828	5.89434	5.77582	3.10084	2.52864	2.00252	5.56425	5.60078	5.47296	1.86460	1.74749	1.65243	6.73835	6.43142	6.08547
45340	1.46466	1.45944	1.35502	6.00035	5.89460	5.77623	3.10306	2.53142	2.00583	5.56517	5.60162	5.47483	1.86460	1.74282	1.64875	6.73724	6.42808	6.08351
45500	1.46439	1.45905	1.35726	5.99970	5.89551	5.77777	3.10148	2.53199	2.00734	5.56370	5.60131	5.47530	1.86666	1.74448	1.65181	6.73743	6.42922	6.08508
45670	1.46239	1.45976	1.35272	5.99719	5.89296	5.77465	3.10196	2.52696	2.00227	5.56109	5.59879	5.47180	1.86482	1.74642	1.65381	6.74045	6.43001	6.08589
45830	1.46546	1.46118	1.35523	5.99843	5.89519	5.77684	3.10409	2.53267	2.00356	5.56234	5.59978	5.47200	1.86420	1.74390	1.64671	6.73678	6.42592	6.08041
46000	1.46281	1.45897	1.35457	5.99868	5.89534	5.77663	3.10682	2.53326	2.00631	5.56381	5.59971	5.47355	1.86710	1.74308	1.64942	6.73919	6.42824	6.08211
46160	1.46383	1.45830	1.35228	5.99601	5.89170	5.77336	3.10233	2.52798	2.00026	5.55871	5.59575	5.46829	1.86246	1.74362	1.64545	6.73625	6.42416	6.07744	32.86	6.1	0.00	-2.04	0.01737	0.01202	0.01520	0.01838	0.01898	0.01484	0.00546	0.01514	0.02010	0.01872	0.01301	0.01657	0.01709	0.01767	0.01380	0.00573	0.01615	0.02159
46320	1.46098	1.45623	1.35063	5.99207	5.88831	5.76765	3.09455	2.52797	1.99912	5.55507	5.59239	5.46499	1.86399	1.74358	1.64869	6.73530	6.42488	6.07962
46490	1.46578	1.45956	1.35225	5.99596	5.89259	5.77192	3.10082	2.52989	2.00192	5.55818	5.59622	5.46786	1.86374	1.74302	1.64713	6.73262	6.42313	6.07585
46650	1.46041	1.45700	1.35409	5.99191	5.89161	5.77110	3.10459	2.52865	2.00301	5.55817	5.59740	5.46768	1.86227	1.74138	1.64677	6.73644	6.42320	6.07701
46820	1.46294	1.45586	1.34974	5.99117	5.88907	5.76759	3.10420	2.52928	1.99939	5.55432	5.59334	5.46401	1.86016	1.74130	1.64711	6.73629	6.42463	6.07815
46980	1.46197	1.45668	1.35268	5.99463	5.89194	5.76846	3.10217	2.52695	2.00173	5.55377	5.59224	5.46513	1.86175	1.74046	1.64436	6.73136	6.42116	6.07355
47150	1.46310	1.45675	1.35303	5.99341	5.89110	5.76801	3.09793	2.52971	2.00308	5.55437	5.59298	5.46455	1.86180	1.74118	1.64611	6.73235	6.41969	6.07260
47310	1.46212	1.45576	1.35097	5.98918	5.88783	5.76247	3.09732	2.52581	2.00084	5.54997	5.58920	5.46063	1.86221	1.74314	1.64936	6.73101	6.41900	6.07220
47480	1.46300	1.45685	1.35147	5.98972	5.88930	5.76283	3.10198	2.52736	2.00196	5.55008	5.59064	5.46129	1.86169	1.74233	1.64654	6.72872	6.41623	6.06940
47640	1.46556	1.45752	1.35321	5.98914	5.88755	5.76212	3.10378	2.53383	2.00362	5.54903	5.59025	5.46073	1.86368	1.74249	1.64857	6.72960	6.41435	6.06948
47810	1.46318	1.45567	1.35169	5.98718	5.88410	5.75848	3.10229	2.52727	2.00161	5.54623	5.58675	5.45683	1.86264	1.74349	1.65043	6.72910	6.41998	6.07448	32.80	6.1	0.00	-2.04	0.01737	0.01202	0.01520	0.01838	0.01898	0.01484	0.00546	0.01514	0.02010	0.01872	0.01301	0.01657	0.01709	0.01767	0.01380	0.00573	0.01615	0.02159
47970	1.46575	1.45849	1.35463	5.99203	5.88888	5.76308	3.10448	2.53211	2.00476	5.54949	5.58990	5.45905	1.86230	1.74045	1.64936	6.72940	6.41490	6.06949
48140	1.46605	1.46118	1.35602	5.99128	5.88953	5.76464	3.11250	2.53719	2.00711	5.55225	5.59212	5.46138	1.86547	1.74695	1.65026	6.73281	6.42023	6.07216
48300	1.46628	1.45752	1.35243	5.98916	5.88542	5.76280	3.10332	2.53203	2.00421	5.54938	5.58885	5.45907	1.86265	1.74274	1.64768	6.72768	6.41312	6.06839
48460	1.46450	1.45745	1.35366	5.98554	5.88183	5.76006	3.10419	2.53239	2.00298	5.54675	5.58654	5.45695	1.86493	1.74190	1.64834	6.72275	6.41101	6.06609
48630	1.46523	1.46162	1.35692	5.98769	5.88536	5.76371	3.11014	2.53227	2.00836	5.55010	5.58826	5.45880	1.86788	1.74479	1.65201	6.72822	6.41669	6.07079
48790	1.46410	1.45734	1.35124	5.98701	5.88222	5.76017	3.10403	2.52907	2.00288	5.54631	5.58588	5.45515	1.86543	1.74592	1.65010	6.72753	6.41419	6.07020
48960	1.46417	1.45723	1.35208	5.98454	5.87984	5.75881	3.10017	2.53059	2.00250	5.54521	5.58338	5.45575	1.86405	1.74264	1.64853	6.72421	6.41439	6.06963
49120	1.46289	1.45739	1.35233	5.98377	5.87993	5.75922	3.10795	2.53108	2.00483	5.54642	5.58442	5.45689	1.86439	1.74240	1.64763	6.72593	6.41450	6.06802
49290	1.46336	1.45539	1.35307	5.98035	5.87793	5.75791	3.10078	2.52925	2.00269	5.54384	5.58177	5.45272	1.86313	1.74388	1.64795	6.72104	6.41159	6.06503
49450	1.46509	1.45719	1.35270	5.97761	5.87525	5.75702	3.10633	2.53019	2.00408	5.54355	5.57951	5.45153	1.86267	1.74094	1.64814	6.72196	6.40969	6.06394	32.80	6.0	0.00	-2.04	0.01737	0.01202	0.01520	0.01838	0.01898	0.01484	0.00546	0.01514	0.02010	0.01872	0.01301	0.01657	0.01709	0.01767	0.01380	0.00573	0.01615	0.02159
49610	1.46271	1.45793	1.35493	5.97469	5.87430	5.75641	3.11210	2.53541	2.00788	5.54436	5.58076	5.45412	1.86650	1.74729	1.65347	6.72407	6.41341	6.06539
49780	1.46584	1.46035	1.35354	5.97450	5.87146	5.75217	3.10443	2.52871	2.00303	5.53963	5.57465	5.44845	1.86451	1.74706	1.65295	6.72410	6.41301	6.06571
49940	1.46715	1.46050	1.35606	5.97675	5.87382	5.75349	3.10698	2.53334	2.00521	5.54069	5.57510	5.44942	1.86675	1.74728	1.65218	6.72334	6.40931	6.06186
50110	1.46702	1.46023	1.35601	5.97401	5.87145	5.75238	3.10698	2.53250	2.00673	5.53996	5.57523	5.44912	1.86806	1.74678	1.65226	6.72154	6.40868	6.06189
50270	1.46701	1.45792	1.35290	5.97000	5.86722	5.74876	3.10315	2.52891	2.00390	5.53730	5.57138	5.44588	1.86512	1.74673	1.64955	6.72013	6.40794	6.06014
50430	1.46527	1.45989	1.35589	5.96738	5.86541	5.74616	3.10614	2.53136	2.00358	5.53616	5.56974	5.44478	1.86613	1.74661	1.65079	6.71475	6.40681	6.05748
50600	1.46574	1.46041	1.35380	5.96683	5.86367	5.74512	3.10189	2.52713	2.00278	5.53324	5.56809	5.44163	1.86613	1.74946	1.65490	6.72025	6.40903	6.06154
50760	1.46576	1.46354	1.35652	5.97121	5.86846	5.74873	3.10785	2.53389	2.00658	5.53807	5.57140	5.44598	1.86737	1.74466	1.64855	6.71715	6.40384	6.05565
50930	1.46509	1.46006	1.35386	5.96576	5.86507	5.74460	3.09941	2.52858	2.00199	5.53561	5.56786	5.44355	1.86636	1.74663	1.64915	6.71032	6.40221	6.05463
51090	1.46704	1.46079	1.35692	5.96670	5.86543	5.74617	3.10062	2.53086	2.00575	5.53611	5.56952	5.44202	1.86604	1.74938	1.64885	6.71053	6.40072	6.05341	32.80	6.1	0.00	-2.04	0.01737	0.01202	0.01520	0.01838	0.01898	0.01484	0.00546	0.01514	0.02010	0.01872	0.01301	0.01657	0.01709	0.01767	0.01380	0.00573	0.01615	0.02159
51260	1.46596	1.46085	1.35512	5.96469	5.86395	5.74414	3.10004	2.53212	2.00521	5.53457	5.56677	5.44049	1.86518	1.74560	1.65108	6.71336	6.40208	6.05319
51420	1.46412	1.46055	1.35524	5.96440	5.86371	5.74463	3.09171	2.53045	2.00475	5.53390	5.56762	5.44138	1.86572	1.74511	1.65170	6.71462	6.40135	6.05374
51590	1.46680	1.46055	1.35571	5.96775	5.86651	5.74739	3.10042	2.53172	2.00764	5.53687	5.56781	5.44351	1.86502	1.74764	1.64926	6.71206	6.40259	6.05415
51750	1.46421	1.45908	1.35335	5.96493	5.86341	5.74279	3.09467	2.52700	2.00276	5.53194	5.56456	5.43949	1.86261	1.74353	1.64789	6.70916	6.39824	6.05066
51920	1.46048	1.45554	1.35171	5.96306	5.86147	5.74158	3.10213	2.52748	2.00258	5.53052	5.56378	5.43764	1.86552	1.74341	1.64907	6.71370	6.40005	6.05025
52090	1.46538	1.45882	1.35282	5.96228	5.85988	5.73744	3.09550	2.52453	2.00122	5.52813	5.56032	5.43338	1.86584	1.74658	1.65026	6.71206	6.39927	6.04976
52250	1.46648	1.46083	1.35542	5.96266	5.85967	5.73801	3.10097	2.52857	2.00508	5.52877	5.56074	5.43496	1.86592	1.74483	1.64976	6.71057	6.39642	6.04756
52420	1.46393	1.45891	1.35339	5.95977	5.85887	5.73825	3.10322	2.52757	2.00275	5.52852	5.56035	5.43443	1.86373	1.74376	1.64952	6.70874	6.39467	6.04714
52580	1.46249	1.45961	1.35402	5.95891	5.85905	5.73865	3.10470	2.52544	2.00414	5.52931	5.56062	5.43429	1.86737	1.74369	1.65126	6.71095	6.39403	6.04586
52750	1.46258	1.45766	1.35227	5.95732	5.85739	5.73518	3.08948	2.52316	2.00031	5.52629	5.55730	5.43185	1.86554	1.74599	1.65168	6.71092	6.39695	6.04819	32.80	6.0	0.00	-2.04	0.01737	0.01202	0.01520	0.01838	0.01898	0.01484	0.00546	0.01514	0.02010	0.01872	0.01301	0.01657	0.01709	0.01767	0.01380	0.00573	0.01615	0.02159
52910	1.46374	1.46147	1.35634	5.95748	5.85798	5.73705	3.09961	2.52588	2.00337	5.52884	5.55863	5.43384	1.86571	1.74527	1.65179	6.70623	6.39491	6.04552
53080	1.46301	1.45769	1.35399	5.95587	5.85670	5.73580	3.10173	2.52682	2.00303	5.52728	5.55781	5.43185	1.86382	1.74293	1.65062	6.70406	6.39203	6.04215
53240	1.46405	1.45921	1.35449	5.95614	5.85736	5.73651	3.10443	2.52814	2.00382	5.52761	5.55771	5.43232	1.86499	1.74567	1.64912	6.70551	6.39187	6.04305
53410	1.46208	1.45780	1.35209	5.95269	5.85232	5.73215	3.09423	2.52588	2.00248	5.52424	5.55412	5.42840	1.86665	1.74949	1.65261	6.70585	6.39439	6.04596
53570	1.46430	1.45918	1.35615	5.95362	5.85431	5.73301	3.08948	2.52669	2.00366	5.52653	5.55585	5.42969	1.86492	1.74484	1.65101	6.70192	6.39099	6.04057
53740	1.46135	1.45886	1.35255	5.95032	5.85058	5.73143	3.10086	2.52546	2.00427	5.52339	5.55192	5.42618	1.86250	1.74322	1.64764	6.69880	6.38841	6.03819
53900	1.46214	1.45921	1.35615	5.95093	5.85123	5.73234	3.09414	2.52754	2.00576	5.52581	5.55416	5.42913	1.86554	1.74460	1.65065	6.70238	6.39046	6.03980
54070	1.46112	1.45988	1.35409	5.94892	5.84815	5.72938	3.08732	2.52481	2.00174	5.52173	5.55170	5.42500	1.86459	1.74373	1.65071	6.70360	6.39077	6.03975
54230	1.46213	1.45920	1.35639	5.94969	5.84897	5.72940	3.09681	2.52364	2.00315	5.52357	5.55127	5.42692	1.86131	1.74254	1.64642	6.69868	6.38710	6.03629
54400	1.45968	1.46115	1.35510	5.95053	5.85107	5.73339	3.09595	2.52680	2.00464	5.52475	5.55257	5.42874	1.86569	1.74545	1.65117	6.70130	6.38863	6.03930	32.80	6.1	0.00	-2.04	0.01737	0.01202	0.01520	0.01838	0.01898	0.01484	0.00546	0.01514	0.02010	0.01872	0.01301	0.01657	0.01709	0.01767	0.01380	0.00573	0.01615	0.02159
54560	1.45999	1.45947	1.35178	5.94876	5.84809	5.72953	3.08544	2.52260	2.00005	5.52236	5.54914	5.42514	1.86220	1.74367	1.64969	6.69726	6.38495	6.03455
54730	1.46008	1.45722	1.35277	5.94799	5.84534	5.72757	3.08046	2.52102	1.99898	5.52124	5.54844	5.42470	1.86355	1.74495	1.65091	6.69989	6.38818	6.03695
54890	1.46385	1.46208	1.35445	5.95006	5.84870	5.72995	3.09045	2.52533	2.00381	5.52314	5.55191	5.42688	1.86496	1.74441	1.64869	6.69886	6.38447	6.03503
55050	1.46061	1.46131	1.35567	5.94625	5.84615	5.72850	3.08920	2.52640	2.00470	5.52225	5.55047	5.42540	1.86514	1.74292	1.65019	6.69893	6.38310	6.03339
55220	1.45833	1.45759	1.35195	5.94488	5.84286	5.72431	3.09106	2.51924	1.99667	5.51869	5.54499	5.42173	1.86177	1.74077	1.64612	6.69234	6.38136	6.03222
55380	1.46011	1.45669	1.35208	5.94507	5.84393	5.72657	3.08933	2.51994	1.99804	5.52051	5.54574	5.42266	1.86035	1.74037	1.64666	6.69299	6.37984	6.03119
55550	1.45895	1.45598	1.35230	5.94315	5.84330	5.72656	3.08676	2.52331	1.99738	5.52221	5.54770	5.42365	1.86202	1.74138	1.64732	6.68873	6.38138	6.03153
55710	1.45735	1.45509	1.35343	5.94137	5.84090	5.72514	3.09113	2.51902	1.99837	5.52046	5.54638	5.42442	1.85976	1.73844	1.64459	6.68876	6.37882	6.03050
55880	1.45931	1.45873	1.35302	5.94386	5.84401	5.73033	3.09213	2.52415	2.00046	5.52453	5.54986	5.42810	1.86240	1.74155	1.64620	6.69509	6.38494	6.03762
56040	1.45731	1.45435	1.35067	5.94352	5.84189	5.72702	3.08860	2.51599	1.99464	5.52057	5.54606	5.42468	1.86050	1.74320	1.64943	6.69444	6.38676	6.03872	32.86	6.1	0.00	-2.04	0.01737	0.01202	0.01520	0.01838	0.01898	0.01484	0.00546	0.01514	0.02010	0.01872	0.01301	0.01657	0.01709	0.01767	0.01380	0.00573	0.01615	0.02159
56200	1.45973	1.45633	1.35264	5.94529	5.84365	5.72988	3.09304	2.51812	1.99811	5.52161	5.54751	5.42531	1.85873	1.73826	1.64400	6.69235	6.38436	6.03609
56370	1.45789	1.45459	1.35278	5.94673	5.84475	5.73132	3.08921	2.51852	2.00002	5.52261	5.54788	5.42618	1.86096	1.73948	1.64562	6.68983	6.38282	6.03468
56530	1.45641	1.45501	1.35002	5.94096	5.84000	5.72489	3.08484	2.51755	1.99499	5.51854	5.54484	5.42200	1.85682	1.73848	1.64350	6.68713	6.38161	6.03333
56700	1.45652	1.45271	1.35201	5.94080	5.83932	5.72710	3.08259	2.51832	1.99406	5.51892	5.54474	5.42274	1.85711	1.73723	1.64396	6.69044	6.37718	6.03094
56860	1.45674	1.44844	1.34749	5.93683	5.83607	5.72115	3.08259	2.51194	1.99156	5.51410	5.54169	5.41843	1.85845	1.74031	1.64526	6.68861	6.38044	6.03340
57020	1.45725	1.45622	1.35094	5.93968	5.83864	5.72528	3.08658	2.51703	1.99585	5.51563	5.54234	5.42008	1.85567	1.73671	1.64312	6.68374	6.37635	6.02884
57190	1.45668	1.45516	1.35443	5.94126	5.84036	5.72708	3.09407	2.52038	1.99707	5.51955	5.54496	5.42231	1.85956	1.74076	1.64823	6.68812	6.37976	6.03152
57350	1.45788	1.45452	1.35093	5.93800	5.83734	5.72355	3.09317	2.51592	1.99419	5.51667	5.54371	5.41931	1.85829	1.73990	1.64466	6.68892	6.37884	6.03012
57520	1.45897	1.45518	1.35180	5.93790	5.83726	5.72244	3.08433	2.51669	1.99273	5.51566	5.54399	5.42031	1.85743	1.73888	1.64395	6.68743	6.37904	6.03009
57680	1.45798	1.45399	1.35012	5.93792	5.83764	5.72400	3.09149	2.51946	1.99831	5.51737	5.54411	5.42139	1.85749	1.73627	1.64193	6.68655	6.37816	6.02842	32.86	6.2	0.00	-2.04	0.01737	0.01202	0.01520	0.01838	0.01898	0.01484	0.00546	0.01514	0.02010	0.01873	0.01301	0.01657	0.01709	0.01767	0.01380	0.00573	0.01615	0.02159
57840	1.45630	1.45129	1.35042	5.93599	5.83393	5.71896	3.08250	2.51563	1.99062	5.51114	5.53902	5.41672	1.85669	1.73831	1.64497	6.68693	6.37865	6.03018
58010	1.45912	1.45487	1.35358	5.94034	5.83866	5.72270	3.09256	2.51858	1.99494	5.51374	5.54153	5.41816	1.85928	1.73851	1.64412	6.68179	6.37557	6.02604
58170	1.45592	1.45198	1.34801	5.93484	5.83344	5.71709	3.08240	2.51229	1.99347	5.50934	5.53774	5.41476	1.85640	1.73644	1.64431	6.68597	6.37594	6.02541
58330	1.45913	1.45544	1.35286	5.93684	5.83601	5.71777	3.08854	2.51647	1.99266	5.51129	5.54031	5.41627	1.85748	1.73424	1.64265	6.68365	6.37310	6.02422
58500	1.45575	1.44980	1.34847	5.93316	5.83285	5.71533	3.07742	2.51430	1.99004	5.50725	5.53733	5.41319	1.85582	1.73772	1.64540	6.68518	6.37580	6.02520
58660	1.45885	1.45353	1.35212	5.93586	5.83462	5.71789	3.08629	2.51917	1.99466	5.50864	5.53799	5.41462	1.85569	1.73630	1.64246	6.68118	6.37041	6.02123
58820	1.45346	1.45241	1.34917	5.93009	5.82986	5.71184	3.08510	2.51269	1.99095	5.50539	5.53564	5.41202	1.85674	1.73738	1.64419	6.68419	6.37283	6.02451
58990	1.45814	1.45304	1.34959	5.93366	5.83367	5.71550	3.08523	2.51380	1.99404	5.50669	5.53568	5.41196	1.85583	1.73564	1.64312	6.67612	6.36641	6.01748
59150	1.45394	1.45051	1.34911	5.92720	5.82792	5.70775	3.08137	2.50737	1.98865	5.50228	5.53053	5.40843	1.85562	1.73901	1.64819	6.67646	6.36864	6.02069
59320	1.45901	1.45753	1.35170	5.93139	5.83140	5.71251	3.08328	2.51651	1.99372	5.50593	5.53303	5.41099	1.85556	1.73561	1.64250	6.67074	6.36232	6.01494	32.80	6.0	0.00	-2.04	0.01737	0.01202	0.01520	0.01838	0.01898	0.01484	0.00546	0.01514	0.02010	0.01873	0.01301	0.01657	0.01709	0.01767	0.01380	0.00573	0.01615	0.02159
59480	1.45653	1.45330	1.35256	5.92810	5.83039	5.71276	3.08922	2.51846	1.99501	5.50517	5.53489	5.41094	1.85524	1.73793	1.64542	6.67184	6.36284	6.01536
59650	1.45574	1.45152	1.35080	5.92524	5.82531	5.70818	3.07978	2.51353	1.99287	5.50223	5.53075	5.40740	1.85463	1.73889	1.64126	6.66933	6.36326	6.01510
59810	1.45652	1.45198	1.35057	5.92498	5.82668	5.70819	3.08241	2.51412	1.99226	5.50123	5.53035	5.40789	1.85570	1.73456	1.64032	6.66789	6.35678	6.01144
59970	1.45480	1.45230	1.35093	5.92392	5.82518	5.70803	3.07878	2.51317	1.99283	5.50159	5.53214	5.40820	1.85549	1.73565	1.64467	6.66797	6.35926	6.01286
60140	1.45498	1.45522	1.35210	5.92468	5.82503	5.70871	3.08215	2.51217	1.99085	5.50183	5.53224	5.40766	1.85610	1.73624	1.64193	6.66683	6.35820	6.01246
60300	1.45501	1.45403	1.35182	5.92441	5.82556	5.70743	3.08919	2.51184	1.99306	5.50010	5.53046	5.40678	1.85419	1.73478	1.64040	6.66295	6.35544	6.00896
60470	1.45757	1.45345	1.35085	5.92313	5.82443	5.70685	3.08241	2.51542	1.99288	5.50011	5.53030	5.40603	1.85772	1.73513	1.64134	6.66246	6.35515	6.00926
60630	1.45549	1.45229	1.35102	5.92042	5.82196	5.70308	3.08331	2.51233	1.99272	5.49734	5.52918	5.40360	1.85655	1.73742	1.64367	6.66364	6.35493	6.00955
60800	1.45756	1.45362	1.35083	5.92130	5.82171	5.70352	3.08321	2.51656	1.99416	5.49731	5.52753	5.40406	1.85874	1.73884	1.64380	6.66356	6.35720	6.01093
60960	1.45755	1.45387	1.35119	5.92425	5.82511	5.70527	3.08023	2.51342	1.99482	5.49712	5.52847	5.40405	1.85835	1.73830	1.64124	6.66009	6.35260	6.00743	32.80	6.1	0.00	-2.04	0.01736	0.01202	0.01520	0.01838	0.01898	0.01484	0.00546	0.01514	0.02010	0.01873	0.01301	0.01657	0.01709	0.01767	0.01380	0.00573	0.01615	0.02159
61130	1.45513	1.45227	1.34886	5.91990	5.82048	5.70005	3.07667	2.50941	1.99209	5.49472	5.52512	5.40170	1.85374	1.73343	1.64087	6.65917	6.35108	6.00614
61290	1.45428	1.45034	1.34715	5.92005	5.82050	5.70055	3.07461	2.50758	1.99031	5.49506	5.52579	5.40069	1.85445	1.73537	1.64303	6.65978	6.35469	6.00997
61460	1.45710	1.45310	1.34892	5.92397	5.82575	5.70550	3.07622	2.51437	1.99434	5.49920	5.53017	5.40586	1.85509	1.73493	1.64238	6.66339	6.35395	6.00861
61620	1.45401	1.44940	1.34695	5.92034	5.82059	5.70105	3.08142	2.50832	1.98757	5.49574	5.52553	5.40186	1.85109	1.73141	1.63834	6.65325	6.34905	6.00485
61790	1.45224	1.45277	1.35012	5.91930	5.82122	5.70247	3.07413	2.51166	1.99059	5.49710	5.52665	5.40403	1.85350	1.73134	1.64078	6.65785	6.35149	6.00561
61950	1.45278	1.45102	1.34837	5.91959	5.82084	5.70175	3.07875	2.50574	1.98924	5.49657	5.52590	5.40323	1.85202	1.73298	1.63818	6.65724	6.35092	6.00591
62120	1.45285	1.45132	1.34735	5.91932	5.81883	5.70151	3.07709	2.50651	1.98765	5.49564	5.52675	5.40300	1.85226	1.73207	1.63862	6.65967	6.34956	6.00492
62280	1.45433	1.45051	1.34857	5.92055	5.82048	5.70165	3.07824	2.51004	1.98937	5.49676	5.52678	5.40407	1.85130	1.73227	1.63879	6.65974	6.35032	6.00513
62450	1.45422	1.45050	1.34702	5.91748	5.81782	5.69796	3.07558	2.50827	1.98724	5.49229	5.52267	5.40022	1.85323	1.73473	1.64245	6.65796	6.35223	6.00717
62610	1.45496	1.45097	1.35111	5.91973	5.81976	5.70088	3.07836	2.50956	1.98976	5.49412	5.52551	5.40093	1.85220	1.73488	1.64201	6.66093	6.35097	6.00699	32.86	6.1	0.00	-2.04	0.01736	0.01202	0.01520	0.01838	0.01898	0.01484	0.00546	0.01514	0.02010	0.01873	0.01302	0.01657	0.01709	0.01767	0.01380	0.00573	0.01615	0.02159
62780	1.45426	1.45085	1.34995	5.92004	5.82007	5.70186	3.07637	2.51056	1.98847	5.49469	5.52629	5.40209	1.85034	1.73295	1.64031	6.65740	6.34889	6.00466
62940	1.45516	1.45289	1.35019	5.91968	5.82088	5.70245	3.08630	2.51222	1.99375	5.49639	5.52748	5.40332	1.85420	1.73588	1.64076	6.66063	6.35194	6.00667
63110	1.45545	1.45126	1.34743	5.91807	5.81842	5.70056	3.07326	2.50655	1.98671	5.49381	5.52518	5.40082	1.85330	1.73552	1.64203	6.66219	6.35449	6.00898
63270	1.45815	1.45159	1.34969	5.92034	5.81986	5.70252	3.07656	2.51112	1.99080	5.49615	5.52683	5.40191	1.85214	1.73371	1.64118	6.65820	6.35114	6.00615
63440	1.45437	1.45309	1.34805	5.91814	5.81880	5.69953	3.07534	2.50964	1.98762	5.49309	5.52375	5.39974	1.85383	1.73533	1.64395	6.65801	6.35420	6.00799
63600	1.45663	1.45395	1.35099	5.91956	5.81996	5.70062	3.07897	2.50818	1.99169	5.49357	5.52475	5.40029	1.85487	1.73165	1.64171	6.65604	6.34870	6.00368
63770	1.45506	1.45259	1.35011	5.91487	5.81540	5.69779	3.07355	2.50748	1.99086	5.49193	5.52240	5.39893	1.85293	1.73270	1.64029	6.65479	6.34569	6.00198
63930	1.45570	1.45468	1.34925	5.91503	5.81610	5.69606	3.08427	2.50663	1.98986	5.49285	5.52274	5.39975	1.85250	1.73329	1.64036	6.65604	6.34768	6.00416
64100	1.45622	1.45110	1.34872	5.91469	5.81456	5.69579	3.07120	2.50758	1.98745	5.49150	5.52195	5.39839	1.85333	1.73462	1.64041	6.65923	6.35006	6.00503
64260	1.45497	1.45285	1.34986	5.91641	5.81641	5.69811	3.08115	2.50550	1.98935	5.49232	5.52101	5.39892	1.85113	1.73033	1.63873	6.65371	6.34513	6.00018	32.80	5.9	0.00	-2.04	0.01736	0.01202	0.01520	0.01838	0.01898	0.01484	0.00546	0.01514	0.02010	0.01873	0.01301	0.01657	0.01709	0.01766	0.01380	0.00573	0.01615	0.02159
64430	1.45481	1.45108	1.35002	5.91464	5.81636	5.69845	3.07669	2.50924	1.99093	5.49273	5.52182	5.39892	1.85067	1.73399	1.63991	6.65204	6.34584	6.00092
64590	1.45309	1.45109	1.34862	5.91018	5.81230	5.69342	3.06693	2.50644	1.98721	5.48915	5.51663	5.39483	1.85087	1.73399	1.64038	6.65386	6.34507	6.00032
64760	1.45545	1.45100	1.34879	5.91048	5.81083	5.69428	3.07913	2.50782	1.98815	5.48967	5.51705	5.39558	1.85053	1.73000	1.63702	6.64935	6.34118	5.99455
64920	1.45281	1.45065	1.34903	5.90669	5.80918	5.69251	3.07585	2.50626	1.98658	5.48882	5.51561	5.39436	1.85060	1.73057	1.63685	6.65056	6.34010	5.99399
65080	1.45095	1.44782	1.34564	5.90458	5.80584	5.68790	3.06870	2.50254	1.98343	5.48576	5.51117	5.39150	1.85061	1.72933	1.63848	6.65044	6.34112	5.99502
65250	1.45272	1.44972	1.34694	5.90682	5.80958	5.69173	3.06918	2.50463	1.98621	5.48930	5.51422	5.39296	1.84903	1.73095	1.63652	6.65018	6.33994	5.99400
65410	1.45252	1.44831	1.34542	5.90500	5.80512	5.68763	3.07515	2.50451	1.98412	5.48679	5.51211	5.39228	1.85129	1.73585	1.64112	6.65378	6.34517	5.99819
65580	1.45484	1.45107	1.35028	5.90863	5.80999	5.69252	3.07540	2.50739	1.98742	5.49145	5.51766	5.39710	1.85066	1.73177	1.63796	6.65450	6.34178	5.99618
65740	1.45285	1.45049	1.34797	5.90780	5.80957	5.69048	3.07341	2.50330	1.98699	5.49054	5.51581	5.39531	1.85000	1.72944	1.63692	6.64946	6.33858	5.99362
65910	1.45160	1.45175	1.34738	5.90736	5.80969	5.69055	3.07148	2.50682	1.98803	5.49080	5.51664	5.39500	1.84995	1.72935	1.63587	6.64962	6.34092	5.99416	32.80	6.1	0.00	-2.04	0.01736	0.01202	0.01520	0.01838	0.01898	0.01484	0.00546	0.01514	0.02010	0.01873	0.01302	0.01657	0.01709	0.01767	0.01380	0.00573	0.01615	0.02159
66070	1.45262	1.45003	1.34769	5.90618	5.80874	5.68977	3.06836	2.50227	1.98568	5.49039	5.51553	5.39378	1.85084	1.73085	1.63758	6.65174	6.34177	5.99460
66240	1.45156	1.45032	1.34781	5.90619	5.80789	5.69003	3.07263	2.50327	1.98841	5.49164	5.51573	5.39605	1.85150	1.73094	1.63977	6.65299	6.34467	5.99727
66400	1.45296	1.45272	1.34778	5.90873	5.81073	5.69268	3.06981	2.50362	1.98735	5.49233	5.51769	5.39694	1.85080	1.72982	1.63760	6.65186	6.34302	5.99683
66570	1.45135	1.44871	1.34527	5.90619	5.80828	5.68876	3.06545	2.50055	1.98263	5.48986	5.51517	5.39493	1.84846	1.72897	1.63403	6.64746	6.34145	5.99444
66730	1.44969	1.44826	1.34583	5.90486	5.80853	5.69196	3.06647	2.50201	1.98363	5.49064	5.51504	5.39480	1.84882	1.72823	1.63739	6.65353	6.34149	5.99396
66900	1.45077	1.44921	1.34477	5.90644	5.80927	5.69072	3.06682	2.50150	1.98359	5.49167	5.51797	5.39609	1.84789	1.72904	1.63637	6.65254	6.34218	5.99592
67060	1.44941	1.44732	1.34528	5.90706	5.80977	5.69156	3.06625	2.50236	1.98353	5.49185	5.51745	5.39558	1.84406	1.72377	1.63388	6.65011	6.34148	5.99347
67230	1.45176	1.45043	1.34656	5.90706	5.81006	5.69209	3.07497	2.50520	1.98605	5.49199	5.51797	5.39681	1.85083	1.72712	1.63618	6.65318	6.34540	5.99682
67390	1.45096	1.44763	1.34336	5.90635	5.80773	5.68942	3.06692	2.50051	1.98318	5.48800	5.51277	5.39243	1.84977	1.72851	1.63511	6.65516	6.34508	5.99760
67560	1.45231	1.45003	1.34754	5.90838	5.80929	5.69111	3.06994	2.50312	1.98500	5.49108	5.51555	5.39518	1.84824	1.72666	1.63475	6.65318	6.34170	5.99284	32.86	6.1	0.00	-2.04	0.01736	0.01202	0.01520	0.01838	0.01898	0.01484	0.00546	0.01514	0.02010	0.01873	0.01301	0.01657	0.01709	0.01767	0.01380	0.00573	0.01615	0.02159
67720	1.44758	1.44717	1.34535	5.90440	5.80555	5.68888	3.06984	2.50201	1.98429	5.48969	5.51434	5.39531	1.84599	1.72389	1.63349	6.65375	6.34249	5.99395
67890	1.44642	1.44760	1.34681	5.90719	5.80909	5.69288	3.07078	2.50219	1.98474	5.49234	5.51493	5.39548	1.84720	1.72619	1.63391	6.65454	6.34527	5.99714
68050	1.44750	1.44610	1.34403	5.90583	5.80722	5.69001	3.06564	2.49732	1.98018	5.49061	5.51303	5.39489	1.84736	1.72667	1.63681	6.65610	6.34643	5.99881
68220	1.45113	1.44640	1.34643	5.90949	5.81135	5.69489	3.06285	2.50094	1.98254	5.49594	5.51838	5.39899	1.84837	1.72685	1.63421	6.66031	6.34780	5.99986
68380	1.44856	1.44682	1.34502	5.91056	5.81192	5.69250	3.06084	2.49873	1.98450	5.49455	5.51757	5.39815	1.84467	1.72778	1.63164	6.65363	6.34571	5.99765
68550	1.44952	1.44855	1.34636	5.91053	5.81286	5.69298	3.06138	2.50352	1.98494	5.49349	5.51600	5.39532	1.84806	1.72689	1.63487	6.65420	6.34329	5.99621
68710	1.44862	1.44712	1.34405	5.90664	5.80912	5.68876	3.06401	2.49880	1.98347	5.49015	5.51239	5.39197	1.84688	1.72557	1.63708	6.65128	6.33979	5.99395
68880	1.44811	1.44870	1.34681	5.90701	5.80884	5.68890	3.06940	2.50049	1.98404	5.49037	5.51272	5.39326	1.84830	1.72514	1.63648	6.65303	6.34203	5.99407
69050	1.44858	1.45045	1.34512	5.90696	5.80960	5.68965	3.06590	2.50073	1.98335	5.49069	5.51420	5.39491	1.84964	1.72784	1.63656	6.65568	6.34735	6.00023
69210	1.45080	1.45232	1.34836	5.91354	5.81578	5.69374	3.06721	2.50443	1.98584	5.49316	5.51771	5.39632	1.84828	1.72606	1.63487	6.65664	6.34459	5.99579	32.80	6.1	0.00	-2.04	0.01737	0.01202	0.01520	0.01838	0.01898	0.01484	0.00546	0.01514	0.02010	0.01873	0.01302	0.01657	0.01709	0.01767	0.01380	0.00573	0.01615	0.02159
69380	1.44922	1.44735	1.34406	5.90975	5.81229	5.69125	3.06378	2.49999	1.98346	5.49238	5.51705	5.39547	1.84539	1.72546	1.63253	6.65349	6.34254	5.99424
69540	1.44780	1.44507	1.34301	5.91002	5.81404	5.69313	3.06346	2.50145	1.98352	5.49426	5.51934	5.39760	1.84645	1.72554	1.63262	6.65675	6.34582	5.99652
69710	1.44700	1.44456	1.34459	5.91111	5.81294	5.69071	3.06487	2.49588	1.98002	5.49209	5.51755	5.39548	1.84720	1.72623	1.63577	6.65812	6.34836	5.99986
69870	1.45061	1.44783	1.34445	5.91518	5.81868	5.69542	3.06112	2.49994	1.98513	5.49507	5.52107	5.39831	1.84509	1.72396	1.63278	6.65402	6.34460	5.99680
70040	1.44974	1.45074	1.34565	5.91780	5.82273	5.69875	3.06612	2.50665	1.98701	5.49935	5.52602	5.40314	1.84856	1.72882	1.63591	6.66271	6.34902	6.00065
70200	1.44975	1.44811	1.34635	5.91532	5.81837	5.69548	3.06083	2.50112	1.98378	5.49460	5.52305	5.39897	1.84702	1.72308	1.63575	6.65899	6.34550	5.99837
70370	1.44823	1.44409	1.34387	5.91175	5.81596	5.69193	3.06336	2.50177	1.98225	5.49177	5.51946	5.39593	1.84769	1.72693	1.63607	6.65512	6.34764	5.99939
70530	1.44863	1.44802	1.34463	5.91363	5.81787	5.69457	3.06731	2.50149	1.98394	5.49279	5.52130	5.39747	1.84911	1.72614	1.63713	6.65277	6.34338	5.99603
70700	1.44993	1.44796	1.34687	5.91258	5.81692	5.69467	3.07369	2.50553	1.98827	5.49395	5.52117	5.39941	1.85028	1.72850	1.63683	6.65561	6.34520	5.99705
70860	1.44971	1.44789	1.34225	5.90948	5.81280	5.69161	3.05949	2.50428	1.98480	5.49018	5.51754	5.39535	1.85133	1.73131	1.64113	6.65893	6.34878	6.00115	32.86	6.1	0.00	-2.04	0.01736	0.01202	0.01520	0.01838	0.01898	0.01484	0.00546	0.01514	0.02010	0.01873	0.01301	0.01657	0.01708	0.01766	0.01380	0.00573	0.01615	0.02159
71030	1.45309	1.44894	1.34851	5.91360	5.81628	5.69500	3.07168	2.50855	1.98976	5.49339	5.51975	5.39902	1.85172	1.73020	1.64132	6.65544	6.34670	5.99958
71190	1.45381	1.45249	1.34965	5.91295	5.81571	5.69518	3.07669	2.51045	1.99100	5.49490	5.51913	5.39878	1.85258	1.73240	1.64077	6.65472	6.34576	5.99820
71360	1.45556	1.45363	1.35291	5.91360	5.81995	5.69871	3.08240	2.51340	1.99598	5.49830	5.52232	5.40200	1.85637	1.73261	1.64235	6.65771	6.34824	6.00024
71520	1.45431	1.45465	1.35047	5.91317	5.81787	5.69790	3.07267	2.51234	1.99341	5.49699	5.52197	5.40085	1.85434	1.73152	1.64050	6.65510	6.34645	5.99925
71690	1.45463	1.45492	1.35129	5.91082	5.81633	5.69576	3.07527	2.51107	1.99241	5.49627	5.52051	5.39833	1.85587	1.73301	1.64337	6.65396	6.34750	5.99993
71850	1.45625	1.45321	1.35210	5.91176	5.81488	5.69421	3.07929	2.51159	1.99112	5.49447	5.51818	5.39658	1.85568	1.73339	1.64337	6.65658	6.34726	5.99872
72020	1.45499	1.45518	1.35266	5.91247	5.81534	5.69543	3.07319	2.51279	1.99339	5.49589	5.51982	5.39874	1.85551	1.73287	1.64204	6.65373	6.34504	5.99753
72180	1.45393	1.45676	1.35404	5.90929	5.81680	5.69983	3.07974	2.51486	1.99798	5.50063	5.52344	5.40312	1.85872	1.73825	1.64477	6.66318	6.35010	6.00259
72350	1.45618	1.45587	1.35319	5.91390	5.81689	5.69776	3.07974	2.51434	1.99253	5.49862	5.52232	5.40237	1.89521	1.67424	1.37568	6.66124	6.34985	6.00200
72510	1.12255	0.64074	0.30650	5.91168	5.81531	5.69686	-2.26443	-3.08766	-4.53987	5.49649	5.52116	5.39968	-5.65796	-5.09821	-7.24978	6.66051	6.35067	6.00270	32.80	6.1	0.00	-2.04	0.01736	0.01202	0.01520	0.01838	0.01898	0.01484	0.00546	0.01514	0.02010	0.01873	0.01302	0.01657	0.01708	0.01766	0.01380	0.00573	0.01615	0.02159
72680	-3.91259	-7.42002	-5.26590	5.91187	5.81524	5.69871	-16.67024	-6.78550	-3.18339	5.49652	5.52196	5.40082	-4.23807	-3.67833	-5.82990	6.65823	6.34805	6.00064
