WetView ver 7.1	07-17-2018	16:10:52
AC9 Absorption and Attenuation Meter
00000266		; Serial number
2	; structure version number
Reserved
0.000000	0.000000		; Depth calibration
19200			; Baud rate
0.100000			; Path length (meters)
31			; number of temperature calibration bins
				12.59339	13.44920	14.48425	15.49668	16.50852	17.49564	18.50545	19.52458	20.50176	21.48889	22.47318	23.48707	24.50962	25.49370	26.49784	27.51372	28.50746	29.47237	30.47938	31.50214	32.50470	33.49235	34.50337	35.50914	36.50618	37.52058	38.51018	39.51308	40.49994	41.49866	42.47204	; temperature bins
a650	Blue	20.34952		-0.00383	-0.00415	-0.00430	-0.00391	-0.00363	-0.00317	-0.00269	-0.00237	-0.00179	-0.00130	-0.00099	-0.00071	-0.00015	0.00000	0.00004	-0.00001	0.00015	0.00036	0.00058	0.00101	0.00161	0.00132	0.00160	0.00169	0.00242	0.00273	0.00336	0.00365	0.00427	0.00566	0.00670		; offset and temperature correction info
a676	Green	20.51193		-0.00398	-0.00384	-0.00360	-0.00306	-0.00302	-0.00255	-0.00235	-0.00212	-0.00163	-0.00136	-0.00118	-0.00089	-0.00029	0.00000	0.00068	0.00082	0.00099	0.00137	0.00145	0.00212	0.00260	0.00252	0.00321	0.00354	0.00457	0.00535	0.00617	0.00648	0.00742	0.00887	0.01002		; offset and temperature correction info
a715	Brown	20.23230		-0.00421	-0.00394	-0.00391	-0.00291	-0.00264	-0.00192	-0.00204	-0.00179	-0.00188	-0.00239	-0.00180	-0.00187	-0.00099	0.00000	0.00084	0.00162	0.00188	0.00224	0.00321	0.00381	0.00466	0.00528	0.00588	0.00696	0.00859	0.01041	0.01148	0.01282	0.01333	0.01456	0.01617		; offset and temperature correction info
c510	Red	20.40042		-0.00261	-0.00247	-0.00258	-0.00225	-0.00203	-0.00197	-0.00199	-0.00203	-0.00154	-0.00103	-0.00069	-0.00019	-0.00007	0.00000	0.00011	-0.00021	-0.00042	-0.00056	-0.00040	0.00011	0.00036	0.00050	0.00077	0.00079	0.00050	0.00042	0.00043	0.00092	0.00147	0.00200	0.00232		; offset and temperature correction info
c532	Magenta	20.40760		-0.00248	-0.00265	-0.00278	-0.00279	-0.00296	-0.00292	-0.00238	-0.00206	-0.00129	-0.00096	-0.00092	-0.00052	-0.00009	0.00000	0.00007	-0.00049	-0.00136	-0.00107	-0.00079	-0.00065	-0.00074	-0.00105	-0.00152	-0.00192	-0.00236	-0.00269	-0.00252	-0.00233	-0.00172	-0.00128	-0.00067		; offset and temperature correction info
c555	Black	20.50654		-0.00053	-0.00063	-0.00106	-0.00094	-0.00068	-0.00055	-0.00053	-0.00039	-0.00028	-0.00025	-0.00011	-0.00035	-0.00007	0.00000	-0.00037	-0.00055	-0.00036	-0.00014	0.00019	0.00044	0.00032	0.00040	0.00050	0.00028	0.00014	0.00013	0.00030	0.00073	0.00117	0.00176	0.00241		; offset and temperature correction info
a412	LtBlue	17.15231		-0.01972	-0.01823	-0.01612	-0.01381	-0.01272	-0.01080	-0.00959	-0.00866	-0.00710	-0.00532	-0.00354	-0.00148	-0.00028	0.00000	0.00176	0.00297	0.00394	0.00440	0.00453	0.00487	0.00804	0.00856	0.01065	0.01248	0.01388	0.01439	0.01659	0.01881	0.02256	0.02450	0.02719		; offset and temperature correction info
a440	LtGreen	18.00171		-0.00729	-0.00642	-0.00581	-0.00502	-0.00426	-0.00349	-0.00244	-0.00218	-0.00179	-0.00101	-0.00046	-0.00006	0.00036	0.00000	0.00040	0.00045	0.00030	-0.00015	-0.00024	-0.00035	0.00012	-0.00013	-0.00033	-0.00089	-0.00142	-0.00189	-0.00231	-0.00205	-0.00140	-0.00140	-0.00146		; offset and temperature correction info
a488	Yellow	18.86491		-0.00113	-0.00102	-0.00106	-0.00064	-0.00027	-0.00020	-0.00030	-0.00037	-0.00047	-0.00059	-0.00052	-0.00012	0.00008	0.00000	0.00025	0.00012	-0.00013	-0.00043	-0.00065	-0.00076	-0.00025	0.00010	0.00090	0.00111	0.00113	0.00104	0.00073	0.00068	0.00120	0.00186	0.00258		; offset and temperature correction info
c650	Blue	20.46075		-0.00145	-0.00097	-0.00092	-0.00139	-0.00185	-0.00196	-0.00237	-0.00266	-0.00238	-0.00163	-0.00083	-0.00041	-0.00010	0.00000	0.00005	-0.00001	0.00015	0.00034	0.00029	0.00065	0.00101	0.00164	0.00126	0.00156	0.00175	0.00270	0.00287	0.00371	0.00407	0.00473	0.00534		; offset and temperature correction info
c676	Green	20.10118		-0.00170	-0.00144	-0.00149	-0.00177	-0.00188	-0.00194	-0.00198	-0.00196	-0.00177	-0.00156	-0.00140	-0.00091	-0.00033	0.00000	0.00050	0.00092	0.00110	0.00141	0.00167	0.00199	0.00216	0.00265	0.00269	0.00289	0.00315	0.00374	0.00367	0.00408	0.00486	0.00561	0.00646		; offset and temperature correction info
c715	Brown	19.91219		-0.01201	-0.01097	-0.00859	-0.00680	-0.00651	-0.00592	-0.00535	-0.00440	-0.00387	-0.00303	-0.00222	-0.00153	-0.00028	0.00000	0.00093	0.00149	0.00247	0.00322	0.00330	0.00427	0.00373	0.00464	0.00536	0.00551	0.00643	0.00733	0.00779	0.00884	0.00899	0.01021	0.01120		; offset and temperature correction info
a510	Red	19.21192		0.00201	0.00193	0.00158	0.00098	0.00089	0.00049	0.00011	-0.00016	-0.00016	-0.00005	0.00028	0.00025	0.00006	0.00000	0.00035	-0.00022	-0.00023	-0.00080	-0.00144	-0.00154	-0.00153	-0.00204	-0.00220	-0.00219	-0.00190	-0.00128	-0.00069	-0.00018	0.00068	0.00152	0.00241		; offset and temperature correction info
a532	Magenta	19.41084		-0.00097	-0.00072	-0.00060	-0.00081	-0.00062	-0.00071	-0.00040	0.00020	0.00028	0.00043	0.00000	-0.00035	0.00007	0.00000	-0.00011	-0.00059	-0.00080	-0.00098	-0.00137	-0.00162	-0.00163	-0.00130	-0.00073	-0.00018	0.00090	0.00185	0.00175	0.00247	0.00291	0.00327	0.00349		; offset and temperature correction info
a555	Black	19.69776		0.00171	0.00183	0.00183	0.00186	0.00191	0.00170	0.00115	0.00131	0.00097	0.00073	0.00060	0.00013	0.00015	0.00000	0.00014	-0.00029	-0.00066	-0.00082	-0.00116	-0.00139	-0.00134	-0.00167	-0.00119	-0.00093	-0.00048	0.00053	0.00111	0.00095	0.00178	0.00206	0.00273		; offset and temperature correction info
c412	LtBlue	19.91180		-0.02051	-0.01853	-0.01589	-0.01311	-0.01059	-0.00877	-0.00705	-0.00581	-0.00413	-0.00231	-0.00098	-0.00066	-0.00011	0.00000	-0.00013	-0.00085	-0.00170	-0.00170	-0.00302	-0.00330	-0.00429	-0.00551	-0.00626	-0.00775	-0.00978	-0.01181	-0.01113	-0.01108	-0.01116	-0.01192	-0.01291		; offset and temperature correction info
c440	LtGreen	20.06241		-0.01064	-0.00992	-0.00892	-0.00766	-0.00639	-0.00531	-0.00478	-0.00384	-0.00287	-0.00187	-0.00102	-0.00063	-0.00023	0.00000	-0.00007	-0.00053	-0.00090	-0.00119	-0.00169	-0.00197	-0.00226	-0.00257	-0.00260	-0.00289	-0.00394	-0.00470	-0.00481	-0.00493	-0.00520	-0.00580	-0.00620		; offset and temperature correction info
c488	Yellow	20.35984		-0.01125	-0.01082	-0.00966	-0.00833	-0.00726	-0.00661	-0.00579	-0.00500	-0.00389	-0.00278	-0.00167	-0.00113	-0.00041	0.00000	0.00055	0.00121	0.00187	0.00226	0.00222	0.00251	0.00281	0.00359	0.00414	0.00427	0.00401	0.00404	0.00486	0.00563	0.00638	0.00684	0.00718		; offset and temperature correction info
0.003500	0.004000	0.015000	0.020000	0.015000	0.020000	2500.000000	2000.000000	1000.000000	; maxANoise	maxCNoise	maxADifference	maxCDifference	minACounts	minCCounts	minRCounts	maxTempSdev	maxDepthSdev
0			; auxilliary capabilities
1			; acquisition binsize
0	0.70767	0.74155	0.54047	4.54458	4.19423	3.84150	6.07151	3.95405	2.17254	3.02735	2.90366	2.66895	1.77021	1.42466	1.16735	8.59489	6.66452	5.04634	20.70	6.2	0.00	7.16	0.01283	0.01295	0.01705	0.00784	0.00585	0.00641	0.00472	0.01274	0.01700	0.00683	0.00696	0.00915	0.01499	0.01105	0.01205	0.00219	0.00620	0.00874
170	0.72160	0.74284	0.55000	4.56491	4.20126	3.80326	6.07668	3.95137	2.17234	3.01975	2.85480	2.70478	1.72708	1.40184	1.16519	8.63981	6.65245	5.04723
330	0.73546	0.75634	0.55697	4.57284	4.26229	3.90093	6.07456	3.96340	2.18812	3.11988	2.94048	2.71585	1.76739	1.46687	1.21234	8.62925	6.69732	5.02287
500	0.76726	0.77861	0.55432	4.53711	4.22895	3.84270	6.09146	3.94843	2.24801	3.07274	2.92809	2.72575	1.77133	1.43965	1.19538	8.64563	6.78868	5.08378
660	0.73207	0.76405	0.55917	4.53751	4.15922	3.83193	6.08603	3.95600	2.16826	3.02051	2.89731	2.66526	1.73559	1.42275	1.16237	8.57430	6.69811	5.04525
820	0.72309	0.73586	0.55298	4.50878	4.15324	3.84720	6.05590	3.92606	2.18464	3.01959	2.88841	2.64934	1.80093	1.44339	1.19015	8.62608	6.74311	5.05183
990	0.79272	0.77921	0.55329	4.52423	4.19407	3.83534	6.07989	3.94951	2.20662	3.06447	2.89795	2.73050	1.75226	1.43294	1.20079	8.64801	6.74352	5.09775
1150	0.72577	0.74919	0.55179	4.50595	4.20561	3.92816	6.05377	3.94422	2.19116	3.04033	2.91892	2.72393	1.74736	1.41872	1.16436	8.61825	6.72406	4.99124
1320	0.73497	0.76076	0.54376	4.56708	4.20118	3.92939	6.05432	3.93489	2.18815	3.03627	2.94427	2.77835	1.72780	1.41526	1.16603	8.68786	6.75539	5.15561
1480	0.73763	0.75940	0.55722	4.64708	4.26996	3.88614	6.07593	3.95369	2.19017	3.06705	2.94395	2.75884	1.74734	1.42624	1.17617	8.69618	6.75519	5.03752
1650	0.73811	0.75501	0.55990	4.55990	4.20469	3.90319	6.07426	3.92988	2.14839	3.07058	2.91133	2.73628	1.74880	1.43005	1.17923	8.71300	6.70525	5.03359	20.70	6.2	0.00	6.24	0.01283	0.01295	0.01705	0.00784	0.00585	0.00641	0.00472	0.01273	0.01700	0.00683	0.00696	0.00915	0.01499	0.01105	0.01206	0.00219	0.00620	0.00874
1810	0.74748	0.76968	0.56374	4.56864	4.24195	3.92920	6.07451	3.97935	2.18368	3.06625	2.91889	2.74679	1.76371	1.41963	1.17212	8.66368	6.78288	5.10161
1980	0.73396	0.79069	0.57001	4.58241	4.19381	3.91039	6.09154	3.99250	2.16841	3.04720	2.91910	2.71638	1.79672	1.44749	1.20547	8.72464	6.73820	5.04840
2140	0.73869	0.78571	0.54794	4.55496	4.22557	3.88714	6.09099	3.97247	2.21197	3.14410	2.95004	2.73588	1.78034	1.42965	1.18865	8.62885	6.79197	5.15555
2310	0.72383	0.78112	0.56653	4.61537	4.22718	3.86772	6.12915	3.96844	2.17072	3.06432	2.90375	2.70008	1.76031	1.44839	1.18024	8.67685	6.74332	5.12243
2470	0.73848	0.76666	0.54840	4.57781	4.19736	3.85507	6.05785	3.93143	2.16861	3.02856	2.93326	2.73643	1.74909	1.40716	1.18866	8.55561	6.71827	5.01965
2630	0.72603	0.75270	0.54757	4.55038	4.23468	3.83373	6.06276	3.93552	2.17402	3.06837	2.93926	2.73291	1.76088	1.41632	1.17355	8.68384	6.73485	5.05519
2800	0.72753	0.74332	0.55450	4.56455	4.20671	3.84093	6.05889	3.96319	2.17582	3.01536	2.90004	2.70704	1.73635	1.41040	1.16613	8.61055	6.69374	5.03446
2960	0.73290	0.78181	0.54838	4.54721	4.22056	3.86500	6.08456	3.94316	2.20387	3.01156	2.88974	2.70086	1.75005	1.44167	1.20005	8.61688	6.64543	5.01501
3130	0.73329	0.76913	0.54910	4.54005	4.17616	3.85018	6.05003	3.93812	2.16501	3.01592	2.87686	2.69610	1.74585	1.40087	1.16000	8.63131	6.67702	4.96900
3290	0.72247	0.74681	0.53565	4.52878	4.16584	3.82075	6.06911	3.95346	2.15183	2.99152	2.86321	2.65115	1.75295	1.42291	1.18245	8.60463	6.69367	4.99426	20.83	6.1	0.00	7.13	0.01283	0.01295	0.01705	0.00784	0.00585	0.00641	0.00472	0.01273	0.01700	0.00683	0.00696	0.00915	0.01499	0.01105	0.01205	0.00219	0.00620	0.00874
3460	0.72139	0.73973	0.53512	4.50469	4.13687	3.80461	6.04161	3.92130	2.17245	3.03105	2.93296	2.67396	1.76838	1.41820	1.17881	8.59217	6.76579	5.01180
3620	0.71334	0.76131	0.54428	4.55109	4.17820	3.86833	6.09197	3.97589	2.18200	3.03489	2.85690	2.67214	1.73246	1.42249	1.21480	8.60261	6.69973	4.99868
3790	0.84428	0.77964	0.55243	4.58112	4.16821	3.81922	6.09766	3.94074	2.16095	3.06122	2.93639	2.75572	1.75398	1.44190	1.19125	8.62202	6.71942	5.09938
3950	0.72499	0.75751	0.55848	4.57615	4.23778	3.92607	6.10455	3.93729	2.20214	3.07553	2.94565	2.77877	1.82069	1.44917	1.20438	8.70246	6.78128	5.09607
4120	0.78903	0.85838	0.57541	4.66410	4.29743	3.94690	6.15490	4.11350	2.20938	3.07585	2.95462	2.81078	1.78284	1.46978	1.21929	8.68200	6.71370	5.02495
4280	0.76114	0.76971	0.57237	4.61141	4.20463	3.85259	6.08951	3.97748	2.19994	3.22305	2.86805	2.73389	1.76661	1.45668	1.19488	8.66150	6.65173	5.01977
4440	0.77478	0.76872	0.55609	4.58922	4.13397	3.82789	6.08158	3.95850	2.19039	3.03087	2.89372	2.76386	1.77065	1.43207	1.16498	8.65964	6.70789	5.04471
4610	0.74809	0.75829	0.53928	4.57195	4.25465	3.90032	6.10807	3.94720	2.19143	3.03992	2.86095	2.66384	1.75849	1.41123	1.17161	8.66397	6.70041	5.04423
4770	0.73122	0.74486	0.53852	4.62437	4.21837	3.86428	6.05113	3.95204	2.17692	3.01042	2.82513	2.68707	1.73326	1.40999	1.16477	8.59147	6.70440	5.00324
4940	0.72857	0.74956	0.53714	4.53233	4.17031	3.84856	6.06054	3.95072	2.15447	3.01415	2.86288	2.69928	1.72837	1.40071	1.16175	8.62970	6.78170	5.10171	20.77	5.9	0.00	7.10	0.01283	0.01295	0.01705	0.00784	0.00585	0.00640	0.00472	0.01273	0.01700	0.00683	0.00696	0.00915	0.01499	0.01105	0.01205	0.00219	0.00620	0.00874
5100	0.71591	0.74956	0.56924	4.58988	4.18353	3.82981	6.09531	3.94699	2.20310	2.99109	2.95021	2.66795	1.73959	1.41993	1.19225	8.62354	6.75028	5.02238
5270	0.73227	0.75833	0.57105	4.54274	4.21325	3.87819	6.09310	3.95643	2.18130	3.04860	2.88709	2.70432	1.77574	1.42672	1.21029	8.60385	6.67103	4.99709
5430	0.75308	0.78101	0.56686	4.56045	4.17365	3.83211	6.10723	3.94179	2.17398	3.08257	2.95818	2.71212	1.78376	1.45175	1.17461	8.74609	6.74199	5.13935
5590	0.73137	0.77228	0.56218	4.61087	4.25823	3.96622	6.09435	3.96506	2.19440	3.05794	2.92983	2.72659	1.74324	1.40858	1.17872	8.68206	6.71001	5.05266
5760	0.74454	0.76032	0.56458	4.59350	4.25732	3.88243	6.12028	3.95490	2.18959	3.10264	2.95620	2.74489	1.75591	1.41585	1.17210	8.72428	6.80089	5.13009
5920	0.74258	0.77902	0.57254	4.62540	4.23856	3.89838	6.10928	3.95607	2.18142	3.09104	2.94827	2.75095	1.76290	1.42470	1.18575	8.63049	6.73360	5.04319
6090	0.73925	0.75634	0.55887	4.57923	4.26992	3.86053	6.11333	3.94198	2.19141	3.08422	2.96418	2.70774	1.74046	1.43030	1.17863	8.67507	6.76791	5.05155
6250	0.74048	0.77362	0.55037	4.55634	4.23459	3.85725	6.08809	3.96388	2.18068	3.07540	2.95568	2.76709	1.74440	1.41756	1.18568	8.64689	6.70576	5.07150
6410	0.72286	0.75029	0.55965	4.58863	4.22808	3.87503	6.07624	3.94566	2.16583	3.10630	3.01179	2.72765	1.74094	1.42598	1.18660	8.69960	6.70829	5.08152
6580	0.72727	0.74612	0.55500	4.63699	4.29328	3.91386	6.11073	3.96657	2.17531	3.09000	2.92391	2.72501	1.75623	1.43198	1.19532	8.68320	6.78083	5.07926	20.70	6.1	0.00	7.23	0.01283	0.01295	0.01705	0.00784	0.00585	0.00640	0.00472	0.01273	0.01700	0.00683	0.00696	0.00915	0.01499	0.01105	0.01205	0.00219	0.00620	0.00874
6740	0.74944	0.76819	0.56880	4.60171	4.27240	3.93010	6.13197	3.96704	2.20310	3.11576	2.98683	2.76593	1.76622	1.44025	1.20127	8.62062	6.73576	5.05453
6910	0.75528	0.79809	0.56688	4.69087	4.30454	3.91967	6.11408	3.97862	2.19756	3.10392	2.92750	2.73783	1.78916	1.43187	1.19704	8.64246	6.76165	5.17208
7070	0.75229	0.78845	0.59402	4.59005	4.28488	3.88251	6.12287	3.96247	2.19958	3.13009	2.96631	2.79012	1.75811	1.42884	1.17717	8.64855	6.71821	5.07887
7240	0.74342	0.76991	0.55246	4.59941	4.25274	3.85968	6.10161	3.96319	2.17258	3.09109	2.98094	2.72265	1.81127	1.44133	1.26626	8.71228	6.75352	5.07237
7400	0.76182	0.77319	0.55155	4.58354	4.20311	3.85206	6.11475	3.97482	2.18369	3.05114	2.92359	2.73211	1.74269	1.43571	1.17627	8.65870	6.71457	5.05623
7570	0.72822	0.76331	0.56780	4.57067	4.26333	3.84665	6.10366	3.96802	2.21431	3.09098	2.97076	2.75693	1.76667	1.42184	1.17993	8.69720	6.80390	5.16101
7740	0.72620	0.77009	0.55749	4.58819	4.26028	3.88195	6.09255	3.97997	2.18686	3.06734	2.91710	2.71431	1.76890	1.45948	1.20481	8.69046	6.74649	5.09622
7900	0.74024	0.74728	0.54247	4.61824	4.21602	3.83547	6.11178	3.93494	2.16971	3.05724	2.96526	2.75961	1.73793	1.41462	1.16425	8.67745	6.75180	5.07682
8070	0.71422	0.76819	0.56251	4.59108	4.26321	3.89442	6.04642	3.97428	2.20075	3.03557	2.90560	2.72641	1.73632	1.42088	1.18413	8.64326	6.73584	5.12089
8230	0.73430	0.77435	0.55486	4.58925	4.23827	3.87076	6.10283	3.97259	2.19371	3.11600	2.95649	2.77494	1.74773	1.41925	1.16770	8.67910	6.79822	5.10660	20.83	6.0	0.00	7.30	0.01283	0.01295	0.01705	0.00784	0.00584	0.00640	0.00472	0.01273	0.01700	0.00683	0.00696	0.00915	0.01499	0.01105	0.01205	0.00219	0.00620	0.00874
8400	0.73009	0.76216	0.56134	4.61012	4.24671	4.00102	6.14347	4.01659	2.20548	3.13307	2.97847	2.74393	1.75072	1.44207	1.16924	8.71964	6.75469	5.07260
8560	0.75241	0.76065	0.54719	4.58902	4.32732	3.96256	6.09175	3.95561	2.18283	3.10271	2.91072	2.70050	1.77458	1.41929	1.17356	8.70987	6.81875	5.10062
8730	0.72949	0.81038	0.60459	4.61622	4.27558	4.00884	6.07956	3.96376	2.20422	3.06675	2.92850	2.72910	1.85527	1.47239	1.19371	8.68636	6.75962	5.06839
8890	0.74318	0.77650	0.55551	4.56617	4.25103	3.91468	6.11479	3.97072	2.22324	3.08967	2.92198	2.72971	1.78058	1.44037	1.20733	8.71306	6.84761	5.09737
9050	0.74440	0.78451	0.56755	4.62909	4.24829	3.91868	6.09062	3.96238	2.20678	3.10356	2.98860	2.79618	1.76882	1.43890	1.21070	8.73396	6.76669	5.10320
9220	0.73843	0.76095	0.56889	4.59179	4.23831	3.95436	6.11078	3.99960	2.19971	3.10711	2.92499	2.72339	1.83516	1.43543	1.19418	8.71351	6.76852	5.10139
9380	0.73368	0.77257	0.55548	4.59564	4.24576	3.88762	6.07481	3.96727	2.19387	3.05834	2.92201	2.75620	1.77160	1.41569	1.20662	8.63758	6.69831	5.05553
9550	0.73604	0.74536	0.55002	4.60002	4.21314	3.91218	6.09626	3.94496	2.18341	3.07008	3.00255	2.71696	1.74220	1.45164	1.17249	8.69053	6.68917	5.03243
9710	0.73672	0.76865	0.56110	4.51978	4.28070	3.85359	6.07285	3.96226	2.20320	3.03442	2.89178	2.71475	1.73415	1.42144	1.15823	8.56274	6.72844	5.01528
9880	0.72523	0.76214	0.52548	4.55341	4.22894	3.85119	6.08766	3.93037	2.17598	2.98965	2.89669	2.72354	1.75973	1.42366	1.17471	8.60669	6.69792	5.07294	20.83	6.1	0.00	7.26	0.01283	0.01295	0.01705	0.00783	0.00584	0.00640	0.00472	0.01273	0.01700	0.00683	0.00696	0.00914	0.01499	0.01105	0.01205	0.00219	0.00620	0.00874
10040	0.73203	0.75021	0.54709	4.62590	4.23811	3.87535	6.07806	3.95038	2.19491	3.02538	2.86303	2.70147	1.75401	1.43773	1.18866	8.59070	6.74273	5.02459
10210	0.72644	0.74707	0.55179	4.57086	4.17325	3.85230	6.06293	3.93694	2.16709	3.00393	2.91123	2.66442	1.72831	1.43575	1.17003	8.57431	6.63927	4.96144
10370	0.72751	0.74353	0.54380	4.55876	4.15980	3.89187	6.05693	3.96635	2.15137	3.04260	2.87572	2.73572	1.73956	1.41134	1.17890	8.57133	6.69477	4.99033
10540	0.72560	0.74300	0.53821	4.53876	4.17598	3.82925	6.08774	3.93928	2.17879	3.00652	2.93563	2.70610	1.72422	1.42783	1.16875	8.59834	6.70874	5.02793
10700	0.74328	0.76559	0.55759	4.56400	4.20493	3.83933	6.08845	3.96734	2.18391	3.07397	2.89836	2.66594	1.75054	1.44422	1.19058	8.59220	6.69479	5.04428
10870	0.76512	0.75646	0.58261	4.52936	4.17797	3.88749	6.11345	3.96508	2.16004	3.07618	3.01801	2.83238	1.76608	1.45275	1.19780	8.68460	6.73079	4.99685
11030	0.76260	0.77594	0.56559	4.54300	4.17290	3.86200	6.07660	3.94589	2.18402	3.06197	2.89902	2.71503	1.74790	1.41426	1.18105	8.62190	6.72448	5.11754
11200	0.73781	0.76454	0.55384	4.53543	4.19187	3.83938	6.06780	3.93395	2.18108	3.04078	2.87776	2.67034	1.73064	1.41950	1.18845	8.64676	6.70656	5.04494
11360	0.74669	0.74786	0.56101	4.60817	4.19170	3.85738	6.11123	3.95101	2.20857	3.04768	2.88789	2.73201	1.74562	1.44598	1.19582	8.62208	6.69578	4.99798
11530	0.73636	0.77217	0.56602	4.58183	4.21970	3.88539	6.06325	3.96088	2.18255	3.04259	2.92996	2.71515	1.73524	1.46704	1.18383	8.61536	6.70547	5.01825	20.83	6.1	0.00	6.47	0.01283	0.01295	0.01705	0.00784	0.00585	0.00640	0.00472	0.01273	0.01700	0.00683	0.00696	0.00915	0.01499	0.01105	0.01205	0.00219	0.00620	0.00874
11690	0.73033	0.73994	0.53298	4.57838	4.27968	3.92738	6.07667	3.93006	2.18956	3.04498	2.93585	2.72133	1.74721	1.42372	1.18439	8.65289	6.71182	5.06488
11860	0.74869	0.79160	0.58801	4.65797	4.27734	3.90444	6.10052	3.99715	2.24804	3.07602	2.95928	2.74411	1.76682	1.43418	1.21086	8.63366	6.74057	5.05960
12020	0.76559	0.76110	0.57985	4.60854	4.24024	3.87965	6.11181	3.95465	2.20167	3.03769	2.89836	2.72211	1.76578	1.44795	1.20724	8.60710	6.66285	5.04019
12190	0.74000	0.76704	0.55913	4.60138	4.20870	3.87226	6.13071	3.95025	2.17778	3.08064	2.96543	2.72376	1.74386	1.41625	1.17894	8.58902	6.73299	4.99302
12350	0.71641	0.72829	0.53402	4.52073	4.18807	3.82877	6.02949	3.92509	2.15815	3.01221	2.85599	2.67764	1.72791	1.40361	1.17595	8.59358	6.67635	5.02394
12520	0.71488	0.75099	0.53540	4.55881	4.15655	3.84707	6.03439	3.91062	2.16820	3.02395	2.88659	2.72296	1.72236	1.40070	1.16259	8.62706	6.71367	5.03023
12680	0.70657	0.73488	0.54382	4.57032	4.22813	3.84357	6.08331	3.90483	2.14854	3.04714	2.92336	2.70300	1.75607	1.43089	1.17160	8.63710	6.70767	5.05827
12850	0.73597	0.75283	0.55930	4.65409	4.18147	3.87939	6.11621	3.95173	2.19769	3.10650	2.95149	2.71981	1.75994	1.43923	1.21427	8.66048	6.69885	5.33472
13010	0.74695	0.75675	0.55499	4.85664	4.31238	3.98155	6.12237	3.98918	2.17661	3.14166	3.00822	2.79357	1.76608	1.43658	1.19980	8.78034	6.88055	5.14610
13170	0.76933	0.79266	0.58937	4.69501	4.31308	3.98432	6.08067	3.97232	2.21771	3.14693	3.00096	2.80020	1.85675	1.46220	1.23629	8.76698	6.82967	5.19240	20.77	6.2	0.00	7.19	0.01283	0.01295	0.01705	0.00784	0.00585	0.00640	0.00472	0.01273	0.01700	0.00683	0.00696	0.00914	0.01499	0.01105	0.01205	0.00219	0.00620	0.00874
13340	0.79250	0.80368	0.62952	4.68828	4.34910	4.07021	6.12450	4.04397	2.19365	3.14019	3.07447	2.84896	1.77145	1.42875	1.19540	8.81924	6.95594	5.26146
13500	0.77329	0.79452	0.57916	4.73209	4.40125	4.01067	6.18549	4.08108	2.33182	3.20222	3.05711	2.81765	1.81155	1.45548	1.19317	8.78502	6.90072	5.20328
13670	0.76466	0.75896	0.58810	4.80992	4.44342	4.08079	6.18609	4.02435	2.23150	3.24089	3.09298	2.91598	1.79337	1.51445	1.21997	8.85601	6.96416	5.32526
13830	0.77307	0.79593	0.58228	4.83821	4.45774	4.12185	6.16124	4.01943	2.24999	3.33909	3.15392	2.97933	1.84530	1.49503	1.23448	9.04466	7.06398	5.41799
14000	0.79605	0.79454	0.61966	4.84969	4.58675	4.15070	6.17698	4.07785	2.27692	3.35919	3.19486	3.01514	1.83375	1.49487	1.23525	8.97442	7.03022	5.37275
14160	0.80925	0.82854	0.61155	4.87629	4.60176	4.22087	6.18562	4.05478	2.26255	3.39315	3.27280	3.05949	1.87045	1.50451	1.24673	9.07628	7.17044	5.35445
14330	0.77831	0.79590	0.60772	4.84575	4.50954	4.16272	6.18039	4.03433	2.24023	3.37248	3.22764	3.01557	1.81223	1.50919	1.23059	9.01689	7.10009	5.56302
14490	0.80908	0.80683	0.57829	4.86668	4.59534	4.15052	6.17626	4.04803	2.24452	3.31945	3.15642	2.96779	1.81673	1.48002	1.24525	8.97178	7.04548	5.28176
14660	0.77998	0.82422	0.59584	4.81003	4.53213	4.10926	6.19207	4.04312	2.25354	3.26687	3.15153	2.93273	1.79757	1.46083	1.21891	8.93195	6.93987	5.27988
14820	0.77071	0.80831	0.60135	4.81797	4.47888	4.20746	6.13931	4.19313	2.27415	3.25416	3.09228	2.87640	2.04297	1.47418	1.28657	8.90954	6.92430	5.27563	20.83	6.1	0.00	7.22	0.01283	0.01295	0.01704	0.00784	0.00585	0.00640	0.00472	0.01273	0.01700	0.00683	0.00696	0.00914	0.01499	0.01105	0.01205	0.00219	0.00620	0.00874
14980	0.80718	0.80629	0.57882	4.76555	4.42885	4.00889	6.14641	4.07363	2.26934	3.19225	3.15429	2.85600	1.80207	1.48776	1.22314	8.77725	6.85625	5.15111
15150	0.76848	0.80435	0.57426	4.71837	4.32879	3.99416	6.18297	3.98768	2.23398	3.18606	3.09671	2.83906	1.78087	1.46541	1.19790	8.84007	6.90693	5.15889
15310	0.76628	0.78691	0.59458	4.67710	4.31000	3.91930	6.10270	3.98609	2.22719	3.16845	3.04490	2.86294	1.80209	1.46788	1.22388	8.83639	6.96679	5.23000
15480	0.77276	0.78703	0.57836	4.72127	4.33408	3.96760	6.10747	4.01872	2.24764	3.17581	3.05277	2.85173	1.78587	1.48673	1.24047	8.79325	6.82654	5.10360
15640	0.78230	0.83691	0.58707	4.68689	4.36874	3.98110	6.16541	4.00049	2.23481	3.14958	3.05925	2.85811	1.79191	1.44942	1.24007	8.73633	6.82314	5.15839
15800	0.74536	0.78511	0.57395	4.69318	4.28049	3.92157	6.06764	3.98065	2.22820	3.07590	2.96230	2.72983	1.76220	1.43418	1.18126	8.61825	6.75025	5.06079
15970	0.73577	0.75825	0.55046	4.61899	4.21519	4.06957	6.09117	3.95249	2.20662	3.08517	3.04543	2.77929	1.74553	1.42132	1.18672	8.62291	6.81096	5.09907
16130	0.73612	0.75197	0.56578	4.56667	4.19827	3.85534	6.02937	3.92257	2.17249	3.27803	2.93027	2.71687	1.71888	1.40023	1.15799	8.81664	6.94324	5.17166
16300	0.71655	0.75000	0.54864	4.74301	4.37469	3.97859	6.08824	3.93344	2.18389	3.01825	2.95168	2.71952	1.74305	1.41395	1.16731	8.68725	6.75180	5.02691
16460	0.72726	0.75491	0.56193	4.57264	4.20362	3.88970	6.14171	3.97863	2.18172	3.08974	2.95370	2.76078	1.75099	1.41414	1.17419	8.67889	6.80451	5.10009	20.83	6.2	0.00	7.15	0.01283	0.01295	0.01704	0.00784	0.00585	0.00640	0.00472	0.01273	0.01699	0.00683	0.00696	0.00914	0.01499	0.01105	0.01205	0.00219	0.00620	0.00874
16630	0.73482	0.79140	0.58970	4.61834	4.31520	3.89847	6.17046	4.00214	2.28804	3.12911	3.01904	2.86099	1.73113	1.42351	1.21427	8.73870	6.82791	5.14689
16790	0.73663	0.76076	0.55368	4.65153	4.35494	4.00985	6.08136	3.95214	2.17258	3.17542	2.99585	2.75407	1.75336	1.42826	1.18568	8.65926	6.79029	5.10402
16950	0.73747	0.76719	0.53898	4.63155	4.29251	3.91360	6.11027	3.95669	2.17629	3.14941	3.02867	2.75090	1.78589	1.43068	1.18804	8.68207	6.78736	5.13771
17120	0.74478	0.77164	0.55324	4.62417	4.26165	3.90333	6.07056	3.94486	2.20263	3.11718	2.97187	2.78764	1.77346	1.42738	1.19557	8.66925	7.07047	5.13537
17280	0.75303	0.77643	0.59602	4.67420	4.30325	3.91491	6.06343	3.97432	2.20576	3.18717	2.95622	2.76848	1.76920	1.43976	1.17271	8.67641	6.86566	5.12811
17450	0.75614	0.78270	0.56069	4.63814	4.29641	3.98321	6.10254	3.96499	2.22798	3.26112	3.13440	2.73897	1.79655	1.46395	1.22295	8.74538	6.77514	5.10484
17610	0.77662	0.78012	0.62465	4.60160	4.23625	3.90689	6.13768	3.95720	2.24391	3.14351	2.94227	2.79093	1.84033	1.47130	1.21795	8.70263	6.78825	5.08846
17780	0.78645	0.78385	0.59392	4.53986	4.25544	3.94581	6.10040	3.96361	2.19681	3.14118	2.95660	2.76906	1.79513	1.47034	1.21298	8.67473	6.76977	5.10838
17940	0.76678	0.79134	0.58273	4.63056	4.33504	3.92033	6.13713	3.99685	2.22948	3.09488	2.94413	2.71089	1.78589	1.44229	1.21152	8.66854	6.74144	5.00477
18110	0.73565	0.77078	0.55543	4.54116	4.24177	3.89869	6.11245	3.98916	2.19886	3.02142	2.90274	2.70305	1.74154	1.43448	1.17016	8.64477	6.78145	5.05554	20.90	6.2	0.00	7.11	0.01283	0.01295	0.01704	0.00784	0.00585	0.00640	0.00472	0.01273	0.01699	0.00683	0.00695	0.00914	0.01499	0.01105	0.01205	0.00219	0.00620	0.00874
18270	0.74458	0.76617	0.56968	4.53571	4.29503	3.86711	6.10906	3.97598	2.20822	3.35947	2.92341	2.74044	1.76468	1.42641	1.17177	9.03995	6.77372	5.10302
18430	0.75420	0.76034	0.53853	4.60751	4.27839	3.95342	6.08599	3.95334	2.19655	3.13465	2.95311	2.75258	1.81515	1.42000	1.18412	8.69845	6.90953	5.34491
18600	0.75391	0.77309	0.56598	4.70630	4.40555	4.09211	6.16151	4.00623	2.25416	3.23346	3.12774	2.90885	1.82626	1.45530	1.24144	8.94970	6.97931	5.33148
18760	0.76505	0.78664	0.58354	4.77802	4.47573	4.09669	6.19720	4.05441	2.26726	3.30748	3.18742	2.93588	1.81701	1.47208	1.24636	9.01237	7.09065	5.40379
18930	0.81426	0.81958	0.58369	4.91468	4.55301	4.25402	6.19176	4.04042	2.28002	3.44874	3.22449	2.99800	1.91643	1.60524	1.29591	9.09442	7.15587	5.48553
19090	0.79722	0.82463	0.57612	4.93750	4.54479	4.26162	6.23518	4.10120	2.26558	3.39383	3.32524	3.04821	1.84425	1.51226	1.25242	9.29900	7.25022	5.51743
19260	0.80475	0.84338	0.59191	4.95447	4.59536	4.26911	6.23247	4.09981	2.25916	3.37201	3.21490	2.98122	1.81432	1.48337	1.23799	9.11159	7.12002	5.43233
19420	0.80089	0.80535	0.60165	4.90292	4.49340	4.18514	6.19344	4.07991	2.29542	3.29577	3.15840	2.91635	1.81047	1.47727	1.22008	8.98723	7.08842	5.28018
19590	0.84569	0.78955	0.59945	4.82781	4.46747	4.08987	6.16529	4.23934	2.25639	3.23859	3.09574	2.94825	1.83588	1.47005	1.19760	8.89493	7.05014	5.26829
19750	0.95497	0.77337	0.58423	4.99098	4.55501	4.22308	6.16723	4.02177	2.23717	3.21408	3.02865	2.93146	1.79878	1.48430	1.21811	8.82583	6.86670	5.19564	20.90	5.9	0.00	7.19	0.01283	0.01295	0.01704	0.00784	0.00585	0.00640	0.00472	0.01273	0.01699	0.00683	0.00695	0.00914	0.01499	0.01105	0.01205	0.00219	0.00620	0.00874
19920	0.77340	0.77197	0.56300	4.71742	4.34718	4.01624	6.14113	3.95588	2.18949	3.13865	3.03160	2.81523	1.80881	1.43141	1.18693	8.77447	6.79166	5.10578
20080	0.72521	0.74330	0.54864	4.65716	4.26757	3.93660	6.07052	3.96270	2.16834	3.07850	2.94606	2.78071	1.74617	1.42552	1.19436	8.71501	6.94898	5.10563
20250	0.74887	0.76119	0.53542	4.63330	4.20334	3.90457	6.07268	3.96085	2.17267	3.11687	2.90191	2.70909	1.78329	1.45768	1.18110	8.61156	6.70601	5.07598
20410	0.74077	0.75655	0.54410	4.55133	4.18611	3.85550	6.08282	3.95311	2.14091	2.99604	2.86986	2.67919	1.71139	1.40263	1.15116	8.55455	6.62770	4.93504
20580	0.71719	0.74163	0.54274	4.50762	4.14895	3.83617	6.06610	3.94063	2.14854	3.12805	2.88705	2.68078	1.73809	1.42620	1.18743	8.62089	6.67082	5.03312
20740	0.74055	0.75533	0.55844	4.69212	4.17396	3.82556	6.06731	3.98046	2.16295	3.02198	2.96604	2.74677	1.73766	1.41425	1.17821	8.58275	6.70998	5.03155
20910	0.77440	0.76634	0.55362	4.53381	4.21096	3.82075	6.05119	3.92265	2.14336	3.02534	2.88741	2.73562	1.73761	1.42449	1.17697	8.61843	6.70268	4.98223
21070	0.76232	0.77250	0.55510	4.55068	4.19930	3.78497	6.06735	3.94950	2.16553	2.96866	2.88491	2.71946	1.72628	1.43308	1.18210	8.56698	6.65047	4.98340
21240	0.71439	0.75184	0.55303	4.50082	4.15176	3.87411	6.10990	3.92742	2.14675	3.05922	2.90799	2.69746	1.74440	1.41819	1.17505	8.57863	6.72022	4.97386
21400	0.72662	0.75696	0.54743	4.49188	4.20741	3.82356	6.05423	3.93158	2.22436	3.03620	2.94603	2.85396	1.75015	1.42417	1.18549	8.73510	6.73750	4.94799	20.96	6.0	0.00	7.12	0.01283	0.01295	0.01704	0.00783	0.00585	0.00640	0.00472	0.01273	0.01699	0.00683	0.00696	0.00914	0.01499	0.01105	0.01205	0.00219	0.00620	0.00874
21570	0.73393	0.75757	0.53896	4.51559	4.15390	3.79858	6.17014	3.94086	2.16195	3.01042	2.90844	2.70703	1.72306	1.40663	1.17181	8.61674	6.67521	5.04215
21730	0.72381	0.75581	0.54349	4.56566	4.16902	3.82143	6.08207	3.98873	2.16601	3.09568	2.94700	2.69811	1.72770	1.45610	1.18220	8.58906	6.66353	5.07800
21900	0.76387	0.75406	0.57615	4.50528	4.16261	3.78580	6.03589	3.94157	2.17436	3.03810	2.87521	2.68732	1.75566	1.41438	1.17300	8.62290	6.77993	5.08522
22060	0.72317	0.75453	0.57206	4.51125	4.20253	3.85747	6.17132	4.07055	2.15916	3.13701	2.88784	2.73085	1.74055	1.40577	1.16530	8.64812	6.72633	5.04329
22230	0.72934	0.75880	0.54866	4.59798	4.17616	3.86173	6.07602	3.92847	2.17169	3.04614	2.91933	2.85774	1.74299	1.44992	1.19053	8.65200	6.68857	5.20307
22390	0.72356	0.74735	0.55626	4.55702	4.18523	3.80245	6.08244	3.93884	2.16907	3.01573	2.92493	2.71655	1.74439	1.42105	1.16607	8.61217	6.70996	5.01168
22560	0.73054	0.73663	0.54857	4.51521	4.19435	3.87354	6.04973	3.92821	2.17375	3.03891	2.90296	3.03542	1.72957	1.41494	1.18751	8.62695	6.72377	4.97145
22720	0.72419	0.75285	0.54462	4.52211	4.16145	3.86168	6.04936	3.96171	2.18334	3.03698	2.88241	2.75204	1.75311	1.41417	1.17962	8.59652	6.63335	5.00853
22890	0.74030	0.75207	0.59611	4.53679	4.17616	3.87499	6.04453	3.90720	2.15310	3.02289	2.85201	2.66625	1.72155	1.43913	1.19193	8.52537	6.61781	5.03699
23050	0.72783	0.74185	0.53726	4.50853	4.16958	3.79704	6.05133	3.92546	2.15883	3.04334	2.85650	2.69180	1.71921	1.38676	1.16373	8.52859	6.69444	5.01320	20.90	5.9	0.00	7.12	0.01283	0.01295	0.01704	0.00783	0.00585	0.00640	0.00472	0.01273	0.01699	0.00683	0.00696	0.00914	0.01499	0.01105	0.01205	0.00219	0.00620	0.00874
23220	0.71493	0.76185	0.54985	4.46314	4.15420	3.80035	6.04135	3.93802	2.15076	2.99058	2.85776	2.66394	1.72067	1.40658	1.16907	8.54805	6.63506	5.01871
23380	0.72146	0.73878	0.54798	4.57588	4.16950	3.79417	6.06557	3.91458	2.18737	3.00427	2.88844	2.71520	1.75384	1.41577	1.19695	8.54272	6.64320	4.99831
23540	0.74494	0.74928	0.56858	4.56026	4.16852	3.83059	6.06612	3.91649	2.16952	3.04765	2.83643	2.68155	1.78359	1.42450	1.17990	8.58148	6.62997	4.97559
23710	0.75571	0.76088	0.55304	4.49744	4.14784	3.83565	6.04351	4.00366	2.15531	2.96284	2.83888	2.69599	1.79786	1.42388	1.16602	8.57728	6.66263	4.99134
23870	0.74266	0.74744	0.56170	4.46600	4.12214	3.79835	6.06395	3.94173	2.16708	2.97023	2.86622	2.65955	1.73774	1.41278	1.15530	8.58061	6.66716	4.95556
24040	0.72455	0.73566	0.54868	4.54075	4.16438	3.78041	6.04746	3.96394	2.16239	2.96122	2.83914	2.66915	1.72704	1.39383	1.15498	8.55942	6.65443	4.99485
24200	0.71821	0.73680	0.55837	4.54985	4.22624	3.79518	6.05075	3.91878	2.16006	3.03295	2.88682	2.70811	1.74154	1.41137	1.17133	8.59947	6.67305	5.04502
24370	0.72905	0.74834	0.56167	4.52348	4.16886	3.89097	6.04626	3.96733	2.18240	3.13595	2.92138	2.74287	1.76196	1.43302	1.19583	8.65062	6.70009	5.03485
24530	0.72270	0.74944	0.55709	4.67435	4.27928	3.85660	6.11202	3.96958	2.16101	3.01939	2.93242	2.72961	1.77410	1.42958	1.17236	8.62937	6.73727	5.07549
24700	0.74512	0.78214	0.58262	4.60619	4.24385	3.90514	6.10031	3.97069	2.21453	3.07380	2.91374	2.78564	1.82700	1.42075	1.19687	8.66320	6.77602	5.07425	20.96	6.0	0.00	7.15	0.01283	0.01295	0.01704	0.00783	0.00585	0.00640	0.00472	0.01273	0.01699	0.00683	0.00696	0.00914	0.01499	0.01105	0.01205	0.00219	0.00620	0.00874
24860	0.75950	0.76791	0.57071	4.62928	4.23082	3.91862	6.09374	3.96389	2.18621	3.08063	2.96155	2.77070	1.75387	1.43120	1.19073	8.65047	6.75291	5.05562
25030	0.74072	0.75828	0.54697	4.60690	4.22915	3.87509	6.08455	3.93140	2.17112	3.04784	2.93635	2.79092	1.75801	1.43548	1.16958	8.67691	6.78506	5.06078
25190	0.74222	0.77110	0.55086	4.63148	4.23200	3.89079	6.09863	3.94394	2.17553	3.03184	2.90472	2.71787	1.75814	1.44294	1.17616	8.69480	6.74509	5.08896
25360	0.73585	0.74478	0.53541	4.61700	4.24612	3.94064	6.09366	3.96534	2.18649	3.11066	2.97696	2.78768	1.77504	1.44574	1.19230	8.68151	6.79916	5.09910
25520	0.74108	0.75229	0.56237	4.63285	4.32311	3.89573	6.10604	3.96073	2.20376	3.10994	2.94405	2.72669	1.75773	1.44655	1.19179	8.68124	6.76867	5.11436
25680	0.72850	0.75275	0.54823	4.61895	4.24729	3.90293	6.07245	3.95855	2.18649	3.07667	3.01328	2.76768	1.79685	1.45272	1.19395	8.68877	6.77172	5.08770
25850	0.75214	0.76011	0.56598	4.60274	4.22405	3.84829	6.08752	3.97999	2.19239	3.05999	2.94041	2.72765	1.74658	1.42529	1.18218	8.62429	6.66163	5.01993
26010	0.75651	0.75240	0.55990	4.59138	4.21959	3.82714	6.06349	3.95235	2.16416	3.07417	2.90240	2.74394	1.76123	1.42299	1.16952	8.60810	6.70425	5.03974
26170	0.71834	0.75774	0.54415	4.61303	4.23588	3.90678	6.06074	3.94537	2.15702	3.08462	2.92284	2.71159	1.72655	1.42480	1.18062	8.53968	6.69987	5.04719
26340	0.70931	0.74328	0.55244	4.50663	4.15711	3.76599	6.00616	3.91554	2.15934	3.00482	2.82017	2.61921	1.71315	1.39702	1.15259	8.51076	6.60547	4.95183	20.96	6.1	0.00	7.28	0.01283	0.01295	0.01704	0.00783	0.00585	0.00640	0.00472	0.01273	0.01699	0.00683	0.00696	0.00914	0.01499	0.01105	0.01205	0.00219	0.00620	0.00874
26500	0.71812	0.73214	0.53495	4.49608	4.12451	3.75546	6.02473	3.90000	2.15574	2.99719	2.83363	2.65608	1.71164	1.37920	1.15867	8.51546	6.69039	4.93161
26670	0.73749	0.73237	0.54150	4.50742	4.16560	3.76219	6.06845	3.91221	2.14360	2.95446	2.84959	2.63565	1.73374	1.40376	1.17431	8.48191	6.59641	4.96965
26830	0.73420	0.76947	0.54440	4.51034	4.18824	3.82155	6.05370	3.91213	2.17641	3.03022	2.85449	2.65016	1.74490	1.39837	1.15145	8.57651	6.62400	4.97445
27000	0.72106	0.73682	0.55840	4.50560	4.13950	3.80739	6.05129	3.90515	2.17389	3.03466	2.84746	2.67244	1.74585	1.39557	1.16166	8.55988	6.69165	4.95355
27160	0.71657	0.74463	0.53994	4.54856	4.18470	3.80964	6.03096	3.93191	2.18025	2.95944	2.82052	2.66823	1.73135	1.42683	1.17636	8.53001	6.62052	4.95713
27330	0.72732	0.74658	0.55100	4.44703	4.15211	3.83078	6.02996	3.92383	2.16427	3.01890	2.86776	2.69364	1.73059	1.39728	1.15119	8.56854	6.66848	4.98876
27490	0.73900	0.73027	0.53374	4.51685	4.12895	3.79842	6.01515	3.91540	2.15857	2.93235	2.83100	2.65360	1.72592	1.41250	1.15712	8.54991	6.63381	4.98691
27660	0.70635	0.73713	0.54163	4.53862	4.18045	3.83734	6.01179	3.91021	2.16361	3.00122	2.80923	2.67990	1.73563	1.41224	1.14739	8.52347	6.60564	4.96717
27820	0.71437	0.75292	0.54883	4.48625	4.12709	3.74761	6.03420	3.94416	2.13877	2.98409	2.87504	2.64512	1.75054	1.41011	1.15031	8.49319	6.63657	4.94364
27980	0.72662	0.75632	0.53029	4.49420	4.19322	3.82623	6.01478	3.88687	2.15729	3.01178	2.81903	2.65573	1.73708	1.40740	1.14911	8.49820	6.59539	4.95977	20.90	6.1	0.00	7.12	0.01283	0.01295	0.01704	0.00783	0.00585	0.00640	0.00472	0.01273	0.01699	0.00683	0.00696	0.00914	0.01499	0.01105	0.01205	0.00219	0.00620	0.00874
28150	0.71392	0.75633	0.53042	4.45870	4.10855	3.79240	6.03171	3.92740	2.16628	3.00310	2.81430	2.70128	1.71647	1.38666	1.15649	8.78255	6.74031	5.01116
28310	0.73090	0.75779	0.55311	4.64791	4.21950	3.84271	6.02851	3.93000	2.18675	2.99938	2.85716	2.68526	1.75231	1.42895	1.16732	8.59124	6.66002	4.93468
28480	0.71202	0.76406	0.53936	4.49445	4.14838	3.83473	6.06587	3.92746	2.15111	3.01029	2.88741	2.66445	1.73654	1.41707	1.16566	8.61224	6.63075	4.96774
28640	0.73134	0.75738	0.55076	4.53346	4.16506	3.82927	6.09153	3.94868	2.18673	2.97439	2.89919	2.70626	1.77711	1.41972	1.15996	8.62623	6.69935	4.99585
28810	0.75525	0.74269	0.53910	4.50610	4.18986	3.83032	6.06512	3.99069	2.15794	3.07529	2.88222	2.66670	1.73665	1.39830	1.18395	8.57511	6.67019	5.03663
28970	0.72800	0.75461	0.53959	4.54628	4.19707	3.80056	6.05458	3.93384	2.21753	3.25017	3.06454	2.97313	1.75912	1.40579	1.17136	8.72457	6.73171	5.00265
29140	0.73168	0.74384	0.56158	4.55637	4.17929	3.87284	6.05903	3.93559	2.17276	3.10359	2.97401	2.77746	1.73949	1.44812	1.16187	8.64219	6.72741	5.06006
29300	0.74188	0.76271	0.56678	4.53307	4.27736	3.82937	6.03615	3.93596	2.17213	3.07765	2.91661	2.66164	1.71247	1.42143	1.15706	8.62298	6.64702	5.04933
29470	0.73706	0.74924	0.52958	4.47913	4.14457	3.78040	6.05237	3.96629	2.19389	2.98722	2.89004	2.70885	1.75830	1.40799	1.17469	8.60899	6.68552	4.97545
29630	0.72269	0.74472	0.54703	4.50531	4.16583	3.84167	6.05046	3.90352	2.15277	3.00365	2.86297	2.67935	1.73681	1.40262	1.15640	8.74114	6.61002	4.97213	20.90	6.1	0.00	7.07	0.01283	0.01295	0.01704	0.00783	0.00584	0.00640	0.00472	0.01273	0.01699	0.00683	0.00696	0.00914	0.01499	0.01105	0.01205	0.00219	0.00620	0.00874
29800	0.72296	0.73724	0.54066	4.63507	4.38013	3.83221	6.06353	3.91591	2.16918	3.02664	2.90116	2.71269	1.72410	1.40084	1.17347	8.62318	6.74629	5.15008
29960	0.72570	0.74264	0.54375	4.67563	4.26690	3.94118	6.08125	3.94514	2.18609	3.18958	2.96962	2.75805	1.76386	1.44204	1.21959	8.74061	6.95035	5.15625
30130	0.73782	0.75231	0.56228	4.61269	4.25333	3.95379	6.08171	3.94493	2.17739	3.12032	3.00745	2.75101	1.76602	1.42083	1.17024	8.73812	6.83778	5.15054
30290	0.74787	0.76668	0.55785	4.66403	4.29608	3.94884	6.08080	3.98430	2.21597	3.17212	3.04032	2.75342	1.78456	1.46662	1.18078	8.78256	6.94082	5.21616
30460	0.76432	0.79275	0.59555	4.75373	4.41819	4.06613	6.16171	4.03168	2.22923	3.25214	3.14985	2.93482	1.83194	1.48960	1.40914	8.94280	6.97894	5.27040
30620	0.82003	0.92064	0.62360	4.81141	4.47001	4.11443	6.34194	4.01755	2.26808	3.28779	3.11484	2.93337	1.80930	1.48239	1.22158	8.92082	7.01199	5.65707
30780	0.78560	0.80616	0.77515	4.81383	4.51769	4.51721	6.17194	4.04281	2.25550	3.24264	3.12058	2.92957	1.80869	1.48357	1.21580	8.85555	6.96650	5.25026
30950	0.77019	0.80636	0.57306	4.77765	4.38163	4.04336	6.13877	4.02662	2.22882	3.20571	3.06372	2.91076	1.79716	1.44555	1.19953	8.78480	6.94623	5.16333
31110	0.77202	0.80405	0.55344	4.84341	4.41466	4.05399	6.11772	3.99555	2.23558	3.17183	3.05026	2.80688	1.76491	1.44413	1.24022	8.78543	6.82313	5.19708
31280	0.75045	0.76444	0.57893	4.62272	4.29112	3.97330	6.11892	3.99601	2.21320	3.16638	3.06739	2.86092	1.77270	1.47290	1.22041	9.18961	7.09832	5.17023	20.90	5.9	0.00	6.26	0.01283	0.01294	0.01704	0.00783	0.00585	0.00640	0.00472	0.01273	0.01699	0.00683	0.00695	0.00914	0.01499	0.01105	0.01205	0.00219	0.00620	0.00874
31440	0.76310	0.79378	0.57702	4.67284	4.47228	4.64223	6.12617	3.96885	2.57477	3.16229	3.00141	2.83842	1.80261	1.44606	1.21987	8.83156	6.79995	5.12705
31610	0.82530	0.78190	0.54678	4.65595	4.27009	3.92382	6.08625	3.96123	2.20918	3.11956	3.13071	2.82777	1.81990	1.45081	1.22469	8.77930	6.87099	5.19488
31770	0.78674	0.78072	0.57291	4.73662	4.37626	3.99988	6.09352	3.97499	2.20672	3.18077	3.04249	2.82987	1.77917	1.45455	1.19494	8.74896	6.84372	5.16232
31930	0.75149	0.74506	0.54989	4.66982	4.29774	3.97122	6.09005	3.97724	2.19313	3.13417	2.91590	2.74677	1.81547	1.52602	1.22222	8.71905	6.80781	5.11150
32100	0.77572	0.77041	0.57629	4.61850	4.23625	3.88751	6.08278	3.95941	2.19976	3.08034	2.95737	2.74624	1.75576	1.43244	1.18742	8.67623	6.74962	5.10342
32260	0.74290	0.77237	0.55772	4.55417	4.29184	3.89761	6.07431	3.95423	2.17470	3.09824	2.96703	2.74955	1.75809	1.42672	1.19806	8.70467	6.74376	5.11281
32430	0.74786	0.75348	0.58509	4.62938	4.38909	3.90127	6.10686	3.94060	2.18655	3.10889	2.96588	2.79745	1.77812	1.41828	1.21738	8.67756	6.74639	5.07758
32590	0.73813	0.76233	0.57666	4.59183	4.24376	3.89476	6.10916	3.97864	2.20342	3.13619	2.98924	2.79569	1.75776	1.42260	1.19222	8.71079	6.82357	5.11927
32760	0.74621	0.75578	0.56210	4.57887	4.31411	3.92354	6.05914	3.95729	2.18332	3.11479	2.95447	2.74254	1.77991	1.46583	1.18876	8.69997	6.78338	5.07555
32920	0.73955	0.75354	0.56929	4.63590	4.28208	3.95347	6.08313	3.96421	2.18126	3.11884	3.15098	2.77762	1.74765	1.44822	1.17359	8.68555	6.74112	5.08792	21.03	6.2	0.00	7.15	0.01283	0.01294	0.01704	0.00783	0.00585	0.00640	0.00472	0.01273	0.01699	0.00683	0.00695	0.00914	0.01499	0.01105	0.01205	0.00219	0.00620	0.00874
33090	0.73670	0.75913	0.55863	4.59130	4.31207	3.96107	6.04915	3.94172	2.18157	3.19070	3.23406	2.77992	1.73725	1.42065	1.15677	8.71865	6.84898	5.11273
33250	0.72384	0.75012	0.54486	4.66751	4.25049	4.00348	6.07382	3.97223	2.22324	3.11588	2.99054	2.74982	2.26859	1.45366	1.19254	8.70612	7.02261	5.09676
33420	0.86049	0.79525	0.64613	4.67235	4.28695	3.90394	6.09115	3.93522	2.19716	3.18229	2.94249	2.74637	1.75337	1.43264	1.17518	8.67696	6.75053	5.04914
33580	0.73120	0.76863	0.56433	4.64493	4.26236	3.84819	6.06923	3.93887	2.17384	3.06653	2.95333	2.74618	1.73377	1.41948	1.16330	8.65945	6.80641	5.09229
33750	0.73012	0.74390	0.55381	4.58508	4.21662	3.84117	6.04857	3.93826	2.24056	3.07519	2.92659	2.76545	1.76205	1.41198	1.17875	8.67820	6.72090	5.04889
33910	0.77023	0.74190	0.55834	4.59495	4.20378	3.93773	6.08919	3.93199	2.17083	3.03310	2.95785	2.69126	1.73911	1.42107	1.21362	8.65105	6.86019	5.11662
34080	0.75254	0.74942	0.55059	4.57717	4.24451	3.98839	6.08722	3.98907	2.19965	3.08285	2.91971	2.75877	1.76496	1.43890	1.19136	8.73137	6.84780	5.14662
34240	0.73052	0.76222	0.55988	4.59396	4.26374	3.94357	6.10888	3.98876	2.18093	3.12390	2.97835	2.77105	1.76260	1.43387	1.18259	8.64391	6.75040	5.05012
34400	0.74531	0.75067	0.54884	4.63192	4.25375	3.92568	6.10031	3.98151	2.18583	3.13081	2.94070	2.71699	1.78002	1.44644	1.17011	8.64761	6.77284	5.06755
34570	0.73705	0.76765	0.55871	4.55697	4.21978	3.85128	6.07298	3.91884	2.17822	3.11141	2.99820	2.72018	1.75653	1.44857	1.18100	8.60784	6.72456	5.03327	21.03	6.2	0.00	7.26	0.01283	0.01294	0.01703	0.00783	0.00585	0.00640	0.00472	0.01273	0.01699	0.00683	0.00695	0.00914	0.01499	0.01105	0.01205	0.00219	0.00620	0.00874
34730	0.75556	0.77535	0.55187	4.57102	4.23100	3.92675	6.06552	3.95137	2.19177	3.10591	2.92932	2.72131	1.76403	1.43261	1.16256	8.63769	6.73168	5.02321
34900	0.72054	0.74918	0.55220	4.58830	4.21867	3.83597	6.05473	3.94202	2.16242	3.02580	3.02051	2.72051	1.74835	1.41490	1.18250	8.63029	6.76478	5.05375
35060	0.74944	0.76680	0.55107	4.56199	4.18243	3.84774	6.06914	3.98936	2.20758	3.06932	2.96971	2.74101	1.76371	1.43490	1.18947	8.85242	6.78557	5.06117
35230	0.75150	0.77239	0.56197	4.55138	4.25973	3.88532	6.10039	3.96384	2.17037	3.07523	2.93202	2.74101	1.78014	1.44391	1.19378	8.67675	6.71795	5.10381
35390	0.75165	0.75430	0.55473	4.60439	4.26938	3.89879	6.04915	3.95328	2.16930	3.05657	2.94531	2.68947	1.74057	1.42433	1.17005	8.62148	6.68624	5.02552
35560	0.72875	0.76462	0.53541	4.56729	4.19105	3.95250	6.14361	3.94594	2.17763	3.05187	2.94115	2.76273	1.74630	1.42205	1.17226	8.68507	6.75822	5.05825
35720	0.74575	0.76939	0.56181	4.66303	4.24838	3.85064	6.08471	3.95758	2.21106	3.09256	2.94076	2.77905	1.74736	1.45397	1.18175	8.65861	6.80546	5.07256
35880	0.74442	0.75712	0.54018	4.56974	4.25492	3.86763	6.07298	3.95617	2.20490	3.04781	2.91473	2.72373	1.75760	1.43930	1.21643	8.68950	6.73472	5.07390
36050	0.75474	0.78845	0.55440	4.66844	4.29739	3.96008	6.18086	3.94668	2.19261	3.09249	2.92151	2.70204	1.79457	1.40966	1.17345	8.59414	6.70306	5.01544
36210	0.74418	0.74414	0.55503	4.60880	4.22332	3.91455	6.07916	3.98853	2.16220	3.06347	2.89626	2.67980	1.73346	1.42653	1.19579	8.61829	6.65115	5.03956	21.09	6.1	0.00	7.14	0.01283	0.01294	0.01703	0.00783	0.00585	0.00640	0.00472	0.01273	0.01699	0.00683	0.00695	0.00914	0.01499	0.01105	0.01205	0.00219	0.00620	0.00874
36380	0.72380	0.77003	0.58826	4.55940	4.24400	3.86839	6.07261	3.92707	2.16909	3.05339	2.96201	2.72564	1.73964	1.42515	1.17352	8.61415	6.70517	5.02956
36540	0.74189	0.74908	0.56673	4.56163	4.51325	3.88145	6.10784	3.96477	2.16935	3.08599	2.93629	2.71062	1.74838	1.42876	1.16849	8.67929	6.72277	5.07282
36710	0.73103	0.73812	0.54807	4.58145	4.21972	3.94487	6.04478	3.97338	2.17882	3.04479	2.92140	2.73985	1.78509	1.41844	1.17337	8.62551	6.77809	5.10938
36870	0.74259	0.76642	0.54476	4.55454	4.21132	3.83732	6.05464	3.96257	2.18676	3.11255	2.92641	2.71118	1.75224	1.43726	1.19489	8.63176	6.69471	5.10515
37030	0.74285	0.75424	0.55954	4.61429	4.27127	3.89278	6.06110	3.96819	2.18478	3.05803	2.88208	2.74616	1.78220	1.42702	1.19987	8.64658	6.73197	5.00980
37200	0.72122	0.76104	0.56156	4.58229	4.22307	3.87657	6.06093	3.95351	2.15194	3.10846	2.89749	2.67390	1.72579	1.42384	1.18756	8.58999	6.69617	5.01162
37360	0.74511	0.74434	0.55836	4.52123	4.19240	3.85624	6.07261	3.96229	2.17361	3.07111	2.91503	2.69560	1.74208	1.43222	1.17131	8.59429	6.67725	5.02881
37530	0.72535	0.76863	0.54948	4.58919	4.22952	3.84351	6.06898	3.94005	2.17399	3.05563	2.92330	2.73000	1.74255	1.44733	1.16790	8.57377	6.69516	5.01141
37690	0.72763	0.74170	0.54247	4.59188	4.13394	3.85268	6.07699	3.91838	2.15319	3.01651	2.84336	2.70918	1.75698	1.42620	1.17730	8.68877	6.66438	4.97298
37860	0.73262	0.74427	0.56163	4.48643	4.12936	3.83307	6.03977	3.94496	2.15329	3.02243	2.86407	2.72174	1.73573	1.40119	1.16987	8.65178	6.67880	5.00067	20.96	6.0	0.00	7.09	0.01283	0.01294	0.01703	0.00783	0.00585	0.00640	0.00472	0.01273	0.01699	0.00683	0.00695	0.00914	0.01499	0.01105	0.01205	0.00219	0.00620	0.00874
38020	0.74368	0.76738	0.54277	4.55897	4.17822	3.81653	6.05575	3.96500	2.17638	3.08179	3.00574	2.70362	1.78327	1.42784	1.18956	8.56489	6.65650	5.02951
38190	0.71115	0.74363	0.53617	4.58519	4.17480	3.83237	6.05383	3.93312	2.15595	3.04099	2.88110	2.75628	1.75883	1.42613	1.16577	8.65593	6.72514	5.01642
38350	0.73041	0.75899	0.55218	4.58085	4.27833	3.90812	6.05217	3.94509	2.18200	3.06092	2.88911	2.70142	1.74546	1.42163	1.16782	8.60507	6.70515	5.00171
38510	0.74840	0.76146	0.64623	4.54267	4.17496	3.82379	6.17769	3.96705	2.17372	3.20021	2.88949	2.74422	1.74562	1.41816	1.17112	8.61272	6.74181	5.04740
38680	0.72635	0.78581	0.55352	4.58563	4.28018	4.07720	6.06041	3.93606	2.17403	3.05913	2.91122	2.70709	1.75365	1.41411	1.19895	8.64462	6.81748	5.09447
38840	0.73357	0.75556	0.55263	4.60277	4.20151	3.84948	6.09380	3.95208	2.19065	3.01142	2.91077	2.77071	1.73712	1.43117	1.17966	8.63554	6.68992	5.05004
39010	0.72038	0.76331	0.57764	4.50129	4.18121	3.80788	6.05870	3.92252	2.19601	3.09508	2.87615	2.72890	1.71874	1.40241	1.17566	8.65840	6.67885	4.98737
39170	0.73092	0.75491	0.54263	4.52724	4.19120	3.87674	6.06917	3.96789	2.15598	3.04241	2.88183	2.69527	1.74551	1.41355	1.18539	8.67078	6.71592	5.06517
39340	0.72198	0.75924	0.53906	4.57235	4.21705	3.86254	6.06679	3.95166	2.15601	3.06261	2.85713	2.65128	1.75326	1.39927	1.18169	8.60577	6.70144	5.04269
39510	0.74255	0.76573	0.54821	4.55289	4.15956	3.81384	6.05083	3.95007	2.16836	3.00308	2.86214	2.73386	1.74763	1.42387	1.17223	8.69074	6.67287	5.01398	21.03	5.9	0.00	7.13	0.01283	0.01294	0.01703	0.00783	0.00585	0.00640	0.00471	0.01273	0.01699	0.00683	0.00696	0.00914	0.01499	0.01105	0.01205	0.00219	0.00620	0.00874
39670	0.72657	0.74845	0.54924	4.52437	4.22104	3.83709	6.07664	3.97461	2.18580	3.05932	2.88212	2.70929	1.75691	1.43304	1.17806	8.62976	6.70828	5.00024
39830	0.77909	0.78180	0.56414	4.57101	4.20415	3.81401	6.05200	3.91809	2.16783	3.05532	2.85067	2.67985	1.72702	1.42617	1.18213	8.60468	6.65209	5.07074
40000	0.72900	0.75883	0.55692	4.61752	4.24347	3.95468	6.05025	3.92957	2.19291	3.06447	2.92699	2.74139	1.77724	1.41484	1.18325	8.58071	6.67486	4.99807
40160	0.76649	0.75066	0.55147	4.57984	4.22256	3.89011	6.06146	3.91946	2.14532	3.00884	2.89638	2.68566	1.75409	1.41921	1.17849	8.59747	6.73962	5.19480
40330	0.72573	0.73064	0.54866	4.56903	4.20131	3.86222	6.07664	3.92152	2.17093	3.07849	2.93241	2.71253	1.74151	1.41028	1.17698	8.55112	6.70810	4.98408
40490	0.73086	0.74945	0.53328	4.56807	4.23115	3.91464	6.05421	3.93947	2.18293	3.03554	2.88137	2.67882	1.72576	1.39904	1.15091	8.52719	6.63523	5.00222
40650	0.72898	0.75499	0.55417	4.52661	4.13580	3.75836	6.05500	3.93229	2.19210	3.01215	2.83625	2.64767	1.74755	1.44506	1.16783	8.55007	6.63345	4.92487
40820	0.71534	0.75638	0.54591	4.49764	4.16163	3.76939	6.04929	3.94902	2.16604	3.01529	2.81413	2.67042	1.73778	1.41350	1.14931	8.54221	6.66172	5.00385
40980	0.72309	0.72892	0.53518	4.45593	4.14404	3.79153	6.06296	3.92327	2.16645	2.99555	2.87373	2.69297	1.73866	1.40832	1.17890	8.56407	6.63172	4.97359
41150	0.71798	0.73708	0.56571	4.52173	4.17150	3.81808	6.07485	3.94291	2.15581	3.02961	2.85738	2.65094	1.72601	1.39861	1.16656	8.52847	6.70364	4.98649	21.03	6.0	0.00	7.52	0.01283	0.01294	0.01703	0.00784	0.00585	0.00640	0.00472	0.01273	0.01699	0.00682	0.00695	0.00914	0.01499	0.01105	0.01205	0.00219	0.00620	0.00874
41320	0.70974	0.72406	0.57086	4.49400	4.11785	3.78632	6.09176	3.91579	2.18639	3.00664	2.83722	2.68960	1.73785	1.40454	1.14422	8.59929	6.70569	5.04290
41480	0.74598	0.73585	0.54167	4.55614	4.21181	3.79186	6.05151	3.94237	2.14986	2.98066	2.83586	2.67446	1.71605	1.39241	1.15936	8.57087	6.66114	4.94630
41640	0.72271	0.73677	0.54038	4.51473	4.14819	3.83756	6.03861	3.90264	2.17163	3.00425	2.82566	2.66742	1.74815	1.42905	1.17026	8.48208	6.56668	4.97804
41810	0.70653	0.73886	0.53906	4.47599	4.13028	3.77205	6.02673	3.88913	2.14489	3.02847	2.82230	2.64532	1.73698	1.40616	1.15632	8.51565	6.62889	4.95971
41980	0.71588	0.73967	0.53893	4.47862	4.09411	3.75662	6.05242	3.91470	2.14684	2.97487	2.82745	2.69054	1.72013	1.38344	1.14984	8.55406	6.61146	4.98459
42140	0.71731	0.72051	0.52416	4.52552	4.16212	3.77644	6.02025	3.89838	2.14884	2.96698	2.85698	2.65285	1.73625	1.41535	1.17525	8.55852	6.65146	4.98403
42300	0.70821	0.73718	0.55724	4.54304	4.16752	3.81141	6.03146	3.91540	2.14518	2.98213	2.81473	2.64202	1.73247	1.40430	1.15899	8.56080	6.61980	4.90634
42470	0.71866	0.72376	0.53193	4.52498	4.14733	3.79209	6.00395	3.94203	2.12887	2.99901	2.84614	2.61839	1.73442	1.40268	1.15802	8.53205	6.63951	4.99523
42630	0.71726	0.73405	0.54450	4.53980	4.17846	3.73399	6.05959	3.92549	2.14969	2.96263	2.84581	2.65668	1.73168	1.40054	1.16580	8.56272	6.59528	4.96082
42800	0.71444	0.74308	0.52403	4.48147	4.13742	3.76612	6.05139	3.92774	2.13311	2.96286	2.84374	2.65678	1.74424	1.41930	1.16893	8.52529	6.65784	4.95959	21.03	6.1	0.00	7.26	0.01283	0.01294	0.01703	0.00783	0.00585	0.00640	0.00472	0.01273	0.01699	0.00682	0.00696	0.00914	0.01499	0.01105	0.01205	0.00219	0.00620	0.00874
42960	0.71521	0.74277	0.54938	4.48070	4.12677	3.79915	6.04277	3.89915	2.15381	2.99835	2.85918	2.65085	1.73901	1.39952	1.17574	8.52520	6.61582	4.97266
43130	0.71757	0.74319	0.53228	4.47537	4.14295	3.77389	6.02760	3.89673	2.12068	2.94490	2.81444	2.68104	1.80241	1.46152	1.22342	8.51587	6.61600	4.94962
43290	0.70623	0.73022	0.53038	4.44816	4.10995	3.77637	6.03300	3.92990	2.15215	2.94461	2.83781	2.64122	1.71761	1.40283	1.18244	8.58019	6.63603	4.89503
43460	0.70358	0.73819	0.54089	4.44668	4.10600	3.77607	6.05913	3.91223	2.15782	2.98887	2.83650	2.65404	1.75956	1.41154	1.18079	8.51065	6.64547	4.98580
43620	0.72001	0.75046	0.54678	4.43520	4.16382	3.79307	6.02424	3.91920	2.17649	3.07213	2.87939	2.73454	1.72930	1.39714	1.18489	8.54798	6.58914	4.92620
43790	0.71002	0.74449	0.54857	4.48122	4.15990	3.77082	6.04181	3.90229	2.17592	2.97460	2.85282	2.68334	1.74937	1.39840	1.19130	8.52668	6.66891	4.97713
43950	0.72518	0.74085	0.53710	4.51090	4.11421	3.77503	6.04818	3.93918	2.16118	3.01176	2.86769	2.70126	1.74783	1.43274	1.18573	8.59906	6.72891	5.08402
44120	0.74003	0.76653	0.55033	4.56658	4.28111	3.91924	6.05659	3.92315	2.17079	3.09657	2.89723	2.73584	1.73891	1.41683	1.18933	8.63841	6.69435	4.97550
44280	0.76234	0.77046	0.56724	4.50681	4.18131	3.85016	6.07806	3.91774	2.16587	3.04825	2.92569	2.66902	1.72776	1.41098	1.20745	8.58300	6.64680	4.98576
44440	0.72478	0.74521	0.54498	4.52845	4.12503	3.76467	6.02775	3.91825	2.16894	3.08124	2.88263	2.69478	1.77415	1.44222	1.16725	8.55090	6.65886	4.97565	21.03	6.1	0.00	7.10	0.01283	0.01294	0.01703	0.00783	0.00585	0.00640	0.00472	0.01273	0.01699	0.00682	0.00696	0.00913	0.01499	0.01105	0.01205	0.00219	0.00620	0.00874
44610	0.74248	0.77063	0.57096	4.49655	4.21991	3.84356	6.03443	3.95664	2.17091	3.01460	2.86641	2.68121	1.72272	1.39214	1.17548	8.58636	6.63845	5.04966
44770	0.71438	0.74991	0.56475	4.51779	4.16992	3.82533	6.01940	3.91469	2.19985	3.02814	2.91993	2.67014	1.73789	1.41327	1.20709	8.55798	6.60918	4.96777
44940	0.71110	0.73053	0.54603	4.48988	4.18080	3.78689	6.06802	3.92539	2.15779	2.95189	2.85628	2.65039	1.75151	1.44300	1.17438	8.52960	6.60210	5.08899
45100	0.73676	0.76297	0.54363	4.56864	4.15148	3.84256	6.03713	3.90177	2.17912	2.98820	2.81743	2.70089	1.74596	1.42523	1.16148	8.53754	6.60547	4.94641
45260	0.74575	0.78574	0.56096	4.52589	4.12505	3.74787	6.02455	3.95187	2.18808	2.92399	2.84154	2.65438	1.72474	1.41670	1.17542	8.50408	6.56520	4.91824
45430	0.72356	0.75020	0.55164	4.48617	4.19244	3.91926	6.08434	3.92733	2.16716	2.92728	2.77900	2.62193	1.70596	1.39937	1.17364	8.54103	6.59310	4.93152
45590	0.71281	0.74266	0.55303	4.50721	4.11263	3.80014	6.04400	3.90112	2.20827	3.05524	2.83895	2.67171	1.72369	1.42719	1.17986	8.57654	6.70342	4.96112
45760	0.76483	0.81132	0.55830	4.47850	4.15134	3.84279	6.04092	3.93094	2.17274	3.01588	2.87309	2.80037	1.73586	1.40792	1.16099	8.62634	6.73118	5.08935
45920	0.73856	0.75634	0.54961	4.52669	4.17708	3.85829	6.02766	3.93554	2.17398	3.09026	2.89373	2.67996	1.73522	1.41987	1.16878	8.64405	6.72811	4.95257
46090	0.72124	0.73437	0.56167	4.51315	4.18860	3.84086	6.07090	3.94482	2.17219	3.03653	2.89601	2.72151	1.75123	1.42358	1.18961	8.58693	6.66641	5.01500	21.03	6.1	0.00	7.11	0.01283	0.01294	0.01703	0.00783	0.00585	0.00641	0.00472	0.01273	0.01699	0.00682	0.00696	0.00913	0.01499	0.01104	0.01205	0.00219	0.00620	0.00874
46250	0.74252	0.75857	0.55808	4.59180	4.20591	3.85675	6.03605	3.90554	2.16120	3.05598	2.89582	2.70299	1.74824	1.44853	1.20528	8.60036	6.69778	4.96232
46420	0.72795	0.77454	0.57763	4.52871	4.14865	3.82286	6.07899	3.91886	2.17231	3.06104	2.92833	2.70110	1.77381	1.43268	1.19233	8.52718	6.75635	5.14613
46580	0.73759	0.75505	0.56969	4.62387	4.13528	3.84587	6.02430	3.91672	2.15958	2.98973	2.84838	2.66275	1.71408	1.43323	1.17843	8.56826	6.58791	4.92167
46750	0.73608	0.74350	0.54831	4.52451	4.20275	3.85330	6.03418	3.92324	2.14962	2.98653	2.89656	2.67613	1.74499	1.42795	1.19266	8.51115	6.65736	4.92461
46910	0.75999	0.76355	0.57243	4.48713	4.07031	3.82221	6.04911	3.90828	2.15585	2.95116	2.86093	2.67188	1.71800	1.40580	1.15639	8.52509	6.59151	4.90699
47080	0.71795	0.72904	0.54672	4.46839	4.12247	3.80356	6.01728	3.90200	2.16792	2.96518	2.84429	2.68867	1.73339	1.38511	1.17233	8.51550	6.58691	4.95174
47240	0.72065	0.73306	0.55159	4.49775	4.12141	3.79287	6.03260	3.90693	2.14926	2.92922	2.82633	2.63525	1.76051	1.42321	1.17628	8.50279	6.64024	4.96097
47410	0.72744	0.74153	0.54851	4.55363	4.18596	3.81227	6.03335	3.91478	2.14851	3.02140	2.83444	2.65905	1.74042	1.39144	1.16888	8.50732	6.64225	5.01662
47570	0.71986	0.73114	0.54162	4.49471	4.15019	3.82160	6.02139	3.90888	2.16220	3.07250	3.00549	2.65740	1.71667	1.38814	1.14578	8.61698	6.64188	4.95774
47740	0.71530	0.73734	0.53996	4.46455	4.14625	3.82377	6.01592	3.93448	2.18554	3.00456	2.85508	2.70343	1.72124	1.38358	1.16482	8.54734	6.61038	4.99181	21.09	6.1	0.00	7.20	0.01283	0.01294	0.01703	0.00783	0.00585	0.00640	0.00472	0.01273	0.01699	0.00682	0.00696	0.00914	0.01499	0.01104	0.01205	0.00219	0.00620	0.00874
47900	0.72310	0.73993	0.53580	4.49085	4.13817	3.79728	6.04054	3.90025	2.13589	3.00847	2.82908	2.63131	1.74272	1.40481	1.17936	8.53468	6.61960	5.00580
48060	0.71787	0.73601	0.54868	4.51004	4.15554	3.83703	6.05627	3.91534	2.15160	3.00177	2.85714	2.64027	1.75953	1.42173	1.16855	8.59870	6.62467	4.97927
48230	0.73755	0.74964	0.55569	4.49842	4.18203	3.83940	6.06098	3.90394	2.16818	2.98493	2.86678	2.65362	1.74610	1.43304	1.20159	8.52997	6.58552	4.92957
48390	0.71957	0.76747	0.53798	4.54184	4.14495	3.88112	6.02467	3.91470	2.20065	2.97052	2.90432	2.68278	1.72048	1.40918	1.16681	8.47202	6.59574	4.92881
48560	0.72849	0.73750	0.53850	4.50860	4.11756	3.79255	6.03871	3.90225	2.15979	2.98049	2.84129	2.67392	1.73366	1.40947	1.16474	8.57904	6.66215	4.91930
48720	0.71177	0.73830	0.54330	4.46905	4.15905	3.75791	6.05011	3.90717	2.15971	3.01837	2.88757	2.69665	1.73091	1.39152	1.15543	8.57728	6.69672	5.03904
48880	0.70990	0.76365	0.54511	4.45673	4.11504	3.72848	6.04662	3.92743	2.13949	2.97113	2.84962	2.63135	1.70914	1.38534	1.15428	8.47645	6.60342	4.99193
49050	0.72186	0.74423	0.53262	4.52249	4.18799	3.82742	6.02355	3.92206	2.15010	2.98689	2.88055	2.66424	1.72445	1.41489	1.17365	8.55390	6.64445	4.98473
49210	0.72241	0.75438	0.55045	4.49991	4.16423	3.82600	6.01015	3.91956	2.14726	3.01958	2.91395	2.72376	1.71913	1.39287	1.19194	8.60476	6.67961	5.01519
49380	0.71723	0.75751	0.56419	4.53716	4.14919	3.78231	6.02836	3.90284	2.15009	2.97970	2.85807	2.67235	1.73226	1.41375	1.17973	8.57439	6.67456	5.00383	21.09	6.3	0.00	7.17	0.01283	0.01294	0.01703	0.00783	0.00585	0.00640	0.00472	0.01273	0.01699	0.00683	0.00696	0.00914	0.01499	0.01104	0.01205	0.00219	0.00620	0.00874
49540	0.73409	0.77448	0.56641	4.51482	4.25806	3.82742	6.05539	3.90815	2.16132	3.04146	2.84917	2.67320	1.76299	1.42914	1.19157	8.54585	6.62385	4.97870
49710	0.74152	0.74964	0.54284	4.52698	4.17691	3.77811	6.03742	3.90124	2.15852	3.06554	2.91841	2.64935	1.74445	1.42732	1.17150	8.54533	6.62189	4.98079
49870	0.73383	0.72865	0.57912	4.50700	4.13151	3.77986	6.02674	3.90548	2.16951	3.00082	2.87813	2.68365	1.75218	1.40603	1.16571	8.51034	6.63843	4.95173
50040	0.72344	0.72933	0.52352	4.50078	4.17066	3.89100	6.02989	3.91029	2.15403	3.09031	2.91392	2.65707	1.70779	1.40578	1.17571	8.54070	6.66836	5.01614
50200	0.75004	0.74263	0.54242	4.52478	4.15559	3.81061	6.03937	3.92224	2.16891	3.03588	2.85325	2.65656	1.73372	1.40142	1.17579	8.53799	6.62420	4.97593
50370	0.72384	0.73749	0.53110	4.55122	4.20818	3.83336	6.03409	3.90831	2.15029	3.01028	2.89115	2.70164	1.74039	1.40786	1.17336	8.62916	6.74281	5.05535
50530	0.75342	0.75553	0.53334	4.50130	4.15911	3.81229	6.04715	3.92772	2.16501	3.00492	2.88006	2.67595	1.71638	1.40709	1.16080	8.51130	6.59865	4.93284
50700	0.72696	0.74524	0.54931	4.50581	4.10602	3.72161	6.04232	3.90835	2.16521	2.99319	2.82947	2.63998	1.72094	1.39268	1.15466	8.56668	6.67497	4.94445
50860	0.73710	0.72830	0.56177	4.50669	4.14684	3.80873	5.98633	3.92408	2.15992	2.99180	2.84755	2.63095	1.76842	1.41668	1.15872	8.58439	6.64170	4.95761
51020	0.74119	0.74668	0.55048	4.52422	4.11614	3.75903	6.04253	3.95875	2.17806	2.98534	2.85974	2.67222	1.76189	1.43371	1.15468	8.55494	6.67307	5.01908	21.09	5.9	0.00	7.13	0.01283	0.01294	0.01703	0.00783	0.00584	0.00640	0.00472	0.01273	0.01699	0.00683	0.00696	0.00914	0.01499	0.01104	0.01205	0.00219	0.00620	0.00874
51190	0.73445	0.76398	0.55100	4.51508	4.11320	3.74937	6.05140	3.92521	2.18196	3.02963	2.89219	2.66103	1.73663	1.40630	1.17704	8.59509	6.64789	4.96723
51350	0.71262	0.73728	0.54414	4.43829	4.14288	3.74914	6.02367	3.89500	2.14836	3.04320	2.82833	2.67999	1.72483	1.40650	1.15279	8.53598	6.87702	4.96862
51520	0.73146	0.77646	0.53571	4.49638	4.28877	3.75836	6.03638	3.91140	2.14603	3.04430	2.81835	2.59401	1.72854	1.39391	1.14748	8.59904	7.17393	5.37606
51680	0.70890	0.75864	0.52394	4.59962	4.18141	3.72687	6.06206	3.87602	2.12710	2.97982	2.85762	2.65968	1.69113	1.39317	1.14805	8.53467	6.61366	4.95448
51840	0.70383	0.71536	0.53338	4.47215	4.14324	3.78208	6.03991	3.91734	2.14752	2.97741	2.88162	2.67405	1.74169	1.40634	1.16363	8.52254	6.58184	4.94081
52010	0.71341	0.73366	0.54648	4.51721	4.16034	3.88678	6.08446	3.95517	2.19688	3.06633	2.92380	2.72626	1.74427	1.43819	1.23256	8.53912	6.65350	5.00305
52170	0.73121	0.72984	0.54890	4.52478	4.14428	3.79477	6.05510	3.91721	2.17595	3.04683	2.85810	2.67291	1.75054	1.42183	1.22293	8.59078	6.67163	4.99430
52340	0.72737	0.74031	0.55781	4.51982	4.13839	3.84186	6.03588	3.89346	2.14264	3.05396	2.86585	2.71136	1.73498	1.41639	1.16833	8.53100	6.64128	4.90060
52500	0.70656	0.73298	0.53392	4.50406	4.12511	3.77354	6.03002	3.92118	2.13382	2.96473	2.82369	2.62620	1.72752	1.41183	1.14097	8.54349	6.60432	4.96895
52670	0.71092	0.73102	0.56487	4.51987	4.21419	3.80985	6.05694	3.93698	2.18285	3.06036	2.90092	2.65958	1.73191	1.44500	1.14915	8.55456	6.63693	4.95936	21.09	6.1	0.00	7.16	0.01283	0.01294	0.01703	0.00783	0.00584	0.00640	0.00472	0.01273	0.01699	0.00682	0.00696	0.00914	0.01499	0.01104	0.01205	0.00219	0.00620	0.00874
52830	0.71285	0.73415	0.53942	4.48178	4.10679	3.78392	6.02442	3.90953	2.15625	3.01297	2.87547	2.69236	1.73861	1.40748	1.17460	8.54984	6.60496	4.90717
52990	0.71688	0.74739	0.55383	4.48335	4.13235	3.76393	6.05577	3.92455	2.15892	3.02579	2.90709	2.73114	1.75013	1.43877	1.16713	8.57067	6.67075	5.00084
53160	0.71120	0.74257	0.55061	4.57884	4.16713	3.93160	6.04108	3.92333	2.16890	3.06488	2.87852	2.64265	1.76285	1.43935	1.18393	8.66071	6.71259	5.06437
53320	0.71575	0.74281	0.62023	4.51519	4.17909	3.80361	6.16246	4.22253	2.16619	3.00277	2.86705	2.65877	1.72471	1.41336	1.21078	8.58532	6.63789	4.94290
53490	0.74421	0.80059	0.61737	4.50310	4.15176	3.77065	6.04965	3.93341	2.19055	3.06544	2.89727	2.66119	1.78040	1.42595	1.18178	8.52425	6.65473	4.95000
53650	0.75921	0.76504	0.55299	4.48013	4.12607	3.83415	6.04420	3.90980	2.15034	3.02283	2.89856	2.70970	1.73148	1.40087	1.17242	8.56410	6.58101	4.96450
53820	0.73166	0.74252	0.54222	4.49279	4.11822	3.75634	6.01815	3.91134	2.15541	3.03724	2.86949	2.66658	1.72117	1.38467	1.15631	8.59919	6.70938	5.00076
53980	0.72651	0.72749	0.54371	4.54205	4.16271	3.80682	6.04470	3.92439	2.15823	3.02436	2.90953	2.66310	1.74054	1.42272	1.16968	8.58742	6.57816	4.92432
54140	0.73348	0.74687	0.55002	4.49901	4.13744	3.78185	6.04270	3.91130	2.15206	3.01223	2.86801	2.67948	1.71748	1.40180	1.15232	8.57874	6.64394	5.05380
54310	0.73528	0.74752	0.52840	4.54108	4.14751	3.81889	6.02431	3.91905	2.18557	3.00294	2.86525	2.70766	1.73000	1.42439	1.20008	8.62034	6.61899	4.95636	21.09	6.0	0.00	7.24	0.01283	0.01294	0.01703	0.00783	0.00584	0.00640	0.00472	0.01273	0.01699	0.00682	0.00695	0.00913	0.01499	0.01104	0.01205	0.00219	0.00620	0.00873
54470	0.75998	0.75631	0.55429	4.49297	4.21458	3.88304	6.04517	3.94951	2.15457	3.03346	2.88614	2.71773	1.72920	1.40034	1.16647	8.53884	6.66054	4.90632
54640	0.71697	0.73961	0.54824	4.51861	4.11329	3.79417	6.03341	3.89668	2.14478	2.99193	2.84290	2.65775	1.71312	1.40868	1.17905	8.47039	6.55592	4.95440
54810	0.72291	0.74286	0.53842	4.47683	4.12230	3.76469	6.03021	3.92199	2.18571	2.95224	2.83214	2.63362	1.72938	1.41585	1.14523	8.54740	6.60729	4.93027
54970	0.71683	0.75858	0.54244	4.47038	4.18650	3.81120	6.04854	3.95133	2.17565	2.97170	2.91184	2.74163	1.73736	1.41694	1.16797	8.61524	6.62203	4.95800
55130	0.76715	0.77149	0.56538	4.51931	4.14821	3.78626	6.05578	3.93751	2.16964	3.00739	2.85946	2.66748	1.74796	1.40862	1.17545	8.51841	6.65717	5.05131
55300	0.74111	0.74942	0.54336	4.51469	4.18215	3.84957	6.02817	3.91574	2.16543	3.00062	2.82673	2.64576	1.72014	1.41757	1.16984	8.56386	6.67626	4.94559
55460	0.75456	0.78430	0.57251	4.47697	4.13566	3.84765	6.02589	3.91751	2.15360	3.01781	2.92634	2.68778	1.72870	1.38798	1.17273	8.51466	6.66510	4.97764
55630	0.70748	0.77258	0.55266	4.46093	4.16462	3.82110	6.08368	3.89071	2.19172	3.02288	2.84979	2.67768	1.75573	1.40848	1.17551	8.51475	6.62230	4.97698
55790	0.73131	0.72135	0.53592	4.49774	4.15175	3.78596	6.04580	3.93634	2.15477	3.02944	2.84573	2.68918	1.75194	1.41714	1.17527	8.51876	6.60707	5.07386
55950	0.71692	0.74645	0.56250	4.47652	4.16543	3.86034	6.07329	3.93641	2.20746	2.98027	2.83805	2.66092	1.72532	1.42155	1.16436	8.52413	6.58563	4.94465	21.09	6.1	0.00	7.13	0.01283	0.01294	0.01703	0.00783	0.00584	0.00640	0.00472	0.01273	0.01699	0.00682	0.00696	0.00913	0.01499	0.01104	0.01205	0.00219	0.00620	0.00874
56120	0.71176	0.72639	0.54547	4.44937	4.10071	3.79379	6.04493	3.92552	2.15599	2.98562	2.82287	2.68901	1.74575	1.40368	1.16726	8.54046	6.63755	4.94480
56280	0.72581	0.74104	0.54799	4.52457	4.13652	3.77790	6.03208	3.92894	2.15385	3.01036	2.85724	2.72336	1.74803	1.41432	1.16747	8.55936	6.71573	5.02177
56440	0.73634	0.75611	0.55815	4.56747	4.17732	3.88777	6.03931	3.93734	2.17237	3.00783	2.85499	2.69208	1.76601	1.41161	1.18117	8.61222	6.68211	5.05830
56610	0.72705	0.74682	0.54682	4.51561	4.16654	3.91062	6.07288	3.94138	2.17480	3.04050	2.90399	2.73051	1.74667	1.41892	1.15627	8.56952	6.69127	5.00953
56770	0.75538	0.76985	0.55149	4.47655	4.12022	3.80150	6.03994	3.96007	2.17186	2.98696	2.92962	2.71134	1.74412	1.41233	1.18173	8.55525	6.61526	4.93461
56940	0.71864	0.73718	0.55460	4.48781	4.14005	3.78987	6.04069	3.91103	2.18241	2.99876	2.83499	2.66803	1.72955	1.43204	1.16409	8.51803	6.60772	5.00524
57100	0.75926	0.74527	0.54601	4.51792	4.13600	3.80772	6.04069	3.93226	2.18081	3.01382	2.83665	2.66501	1.71360	1.40467	1.16163	8.52815	6.60893	4.94366
57270	0.71103	0.72899	0.53607	4.52793	4.14599	3.80143	6.02822	3.90277	2.14139	3.03394	2.85006	2.66772	1.73198	1.40022	1.14830	8.52082	6.59018	4.98555
57430	0.74574	0.74309	0.53662	4.48871	4.08506	3.76953	6.03154	3.90963	2.16883	2.98593	2.83967	2.63985	1.75396	1.42557	1.17361	8.47313	6.59951	4.95590
57600	0.73097	0.74886	0.55373	4.50591	4.14000	3.77677	6.02465	3.91254	2.15327	2.98761	2.88879	2.71208	1.74243	1.40442	1.17372	8.59953	6.65974	5.00091	21.09	5.9	0.00	7.26	0.01283	0.01294	0.01703	0.00783	0.00584	0.00640	0.00472	0.01273	0.01699	0.00682	0.00696	0.00913	0.01498	0.01104	0.01205	0.00219	0.00620	0.00874
57760	0.74020	0.75197	0.55015	4.57021	4.21917	3.87284	6.06120	3.93409	2.17221	3.09072	2.95923	2.70022	1.76347	1.41766	1.18418	8.55006	6.65450	4.95583
57930	0.72039	0.74940	0.54885	4.53889	4.18215	3.84749	6.06575	3.93165	2.15459	2.98665	2.87300	2.69670	1.74481	1.42168	1.18325	8.60534	6.62839	5.05889
58090	0.74201	0.75974	0.54289	4.51540	4.17543	3.81687	6.09802	3.93675	2.17163	3.09583	2.92020	2.68835	1.74018	1.40821	1.18270	8.52368	6.61214	4.99351
58260	0.75102	0.74696	0.53797	4.48258	4.13381	3.81580	6.05512	3.91500	2.15071	2.96875	2.85799	2.65043	1.72942	1.39021	1.15987	8.57336	6.65641	4.97847
58420	0.71305	0.72487	0.53070	4.47419	4.15766	3.80687	6.05009	3.90614	2.15197	2.96698	2.82437	2.64155	1.70787	1.41423	1.17969	8.47415	6.59529	4.99596
58580	0.72149	0.73691	0.55612	4.43652	4.09855	3.75805	6.03495	3.90516	2.14908	2.99372	2.86463	2.70211	1.72493	1.40576	1.15964	8.52333	6.78194	4.96229
58750	0.73233	0.73803	0.53899	4.50091	4.16216	3.78417	6.03466	3.90422	2.15304	2.97868	2.87749	2.66643	1.73190	1.41449	1.17315	8.56451	6.59351	4.95070
58910	0.70920	0.72728	0.51680	4.48633	4.14321	3.80180	6.00943	3.90979	2.14739	2.98776	2.85442	2.69899	1.73317	1.39111	1.16058	8.54665	6.67637	4.93606
59080	0.72648	0.71860	0.54362	4.54637	4.16369	3.75620	6.03470	3.91903	2.14568	2.97359	2.90010	2.67825	1.71878	1.39003	1.17086	8.53634	6.61693	5.01169
59240	0.72541	0.73929	0.53123	4.50836	4.14942	3.83757	6.04044	3.91424	2.14650	3.01839	2.87188	2.72364	1.72144	1.40714	1.16951	8.55853	6.58409	5.01247	21.09	6.0	0.00	7.15	0.01283	0.01294	0.01703	0.00783	0.00584	0.00640	0.00472	0.01273	0.01699	0.00682	0.00695	0.00913	0.01498	0.01104	0.01205	0.00219	0.00620	0.00874
59410	0.72701	0.75985	0.55654	4.50149	4.10289	3.75188	6.04713	3.94029	2.16513	2.95647	2.82998	2.67901	1.72885	1.42415	1.17222	8.56238	6.66873	5.04938
59570	0.75398	0.76814	0.55738	4.51246	4.17973	3.80560	6.04980	3.93557	2.15749	3.06369	2.86514	2.68419	1.74411	1.41682	1.16124	8.60266	6.68302	4.99508
59740	0.73199	0.76185	0.54180	4.53620	4.17848	3.86286	6.03703	3.95394	2.16702	3.05593	2.85872	2.67478	1.75142	1.44732	1.16852	8.53125	6.61680	5.00318
59900	0.74047	0.75071	0.55930	4.52226	4.19844	3.84005	6.22608	3.91957	2.17942	3.00670	3.15837	2.74046	1.74115	1.46469	1.18748	8.55459	6.64053	4.99047
60070	0.73998	0.74079	0.54335	4.53647	4.21174	3.83418	6.03811	3.93793	2.15754	3.00133	2.84262	2.66276	1.72283	1.44682	1.18546	8.54287	6.65315	4.97419
60230	0.73777	0.74739	0.54206	4.51400	4.18683	3.80995	6.08018	3.92716	2.17227	2.99675	2.81663	2.63751	1.73779	1.40642	1.17041	8.54803	6.67417	4.98442
60400	0.71668	0.75729	0.53376	4.51295	4.10797	3.77163	6.02299	3.92435	2.15635	2.95751	2.87124	2.68001	1.71942	1.40471	1.17069	8.55135	6.62152	4.92474
60560	0.73864	0.74867	0.54553	4.48423	4.16203	3.83933	6.05821	3.92201	2.15620	3.01384	2.86587	2.64700	1.73550	1.40971	1.17208	8.56220	6.62625	4.93061
60730	0.74225	0.73637	0.53785	4.45705	4.14146	3.76984	6.05771	3.93941	2.18227	3.04760	2.86006	2.66802	1.72059	1.41409	1.17741	8.57544	6.67565	4.97834
60890	0.73867	0.74868	0.54924	4.45288	4.18228	3.81109	6.06173	3.92843	2.16966	2.96861	2.85869	2.65892	1.72151	1.38760	1.16847	8.60483	6.61153	4.96048	21.28	6.0	0.00	7.12	0.01283	0.01294	0.01702	0.00783	0.00584	0.00640	0.00472	0.01273	0.01699	0.00682	0.00695	0.00913	0.01498	0.01104	0.01205	0.00219	0.00620	0.00874
61050	0.72647	0.74826	0.53474	4.44069	4.16394	3.77259	6.04141	3.91439	2.15092	3.03441	2.82652	2.64335	1.71068	1.39089	1.15918	8.52863	6.62190	4.96239
61220	0.71040	0.75127	0.52850	4.47382	4.13491	3.75926	6.01795	3.91652	2.17432	2.94283	2.82481	2.62643	1.74701	1.41853	1.20787	8.50614	6.60760	4.91529
61380	0.72990	0.74485	0.53613	4.43574	4.09212	3.75719	6.02940	3.91817	2.16481	2.97999	2.83253	2.64343	1.73954	1.42228	1.18201	8.54452	6.57545	4.95030
61550	0.72335	0.74000	0.55344	4.46917	4.10346	3.76227	6.03185	3.93358	2.17371	3.03280	2.88254	2.73234	1.77065	1.40652	1.16127	8.54889	6.65427	5.01991
61710	0.72809	0.73172	0.53196	4.56045	4.17715	3.77773	6.05061	3.92906	2.17683	2.99614	2.83628	2.64328	1.76211	1.43473	1.17174	8.53474	6.61180	4.93527
61880	0.72576	0.75534	0.56335	4.51507	4.17906	3.78999	6.04420	3.92944	2.15234	2.99340	2.84406	2.66002	1.76471	1.40215	1.16462	8.63750	6.60862	4.92793
62040	0.74228	0.75067	0.54834	4.51359	4.16696	3.76207	6.07040	3.94541	2.19994	2.99077	2.87436	2.65082	1.73100	1.41048	1.14686	8.53823	6.62370	4.91858
62200	0.71286	0.74038	0.52591	4.44825	4.13543	3.77327	6.04732	3.91714	2.13719	2.99118	2.81455	2.67355	1.73970	1.42336	1.16992	8.58893	6.60159	4.93018
62370	0.71099	0.77184	0.54164	4.48625	4.09902	3.76998	6.04283	3.92202	2.17934	2.97291	2.83665	2.61486	1.73088	1.40849	1.16723	8.58814	6.67965	4.97023
62530	0.71924	0.74887	0.53631	4.54202	4.12525	3.79395	6.05397	3.89847	2.16925	3.04109	2.87268	2.64437	1.75378	1.41739	1.16917	8.53295	6.72185	5.06104	21.15	6.1	0.00	7.17	0.01283	0.01294	0.01702	0.00783	0.00584	0.00640	0.00472	0.01273	0.01699	0.00682	0.00695	0.00913	0.01498	0.01104	0.01205	0.00219	0.00620	0.00874
62700	0.75082	0.75665	0.53519	4.49793	4.09583	3.80555	6.05751	3.91211	2.18185	3.03374	2.84433	2.68754	1.73870	1.41232	1.15669	8.56766	6.69833	5.03370
62860	0.72156	0.76101	0.54534	4.50278	4.20925	3.77873	6.07380	3.92598	2.17326	2.97644	2.84960	2.64035	1.72386	1.44376	1.15762	8.55129	6.60067	4.92737
63030	0.71936	0.73262	0.53963	4.48174	4.17232	3.78894	6.07869	3.93132	2.17404	2.97822	2.89941	2.70407	1.75602	1.42808	1.17746	8.62758	6.65282	5.00353
63190	0.73110	0.76812	0.53805	4.52194	4.15987	3.80204	6.03704	3.91496	2.17839	2.96465	2.87222	2.63880	1.73173	1.41837	1.19642	8.53548	6.69843	5.00159
63360	0.72248	0.75843	0.54432	4.49904	4.21195	3.87663	6.07551	3.94058	2.17410	3.04718	2.94425	2.65690	1.73313	1.40854	1.15363	8.53792	6.60610	5.02510
63520	0.73671	0.75604	0.56027	4.49973	4.12605	3.79169	6.04327	3.94908	2.17235	2.96993	2.84061	2.70676	1.73469	1.41114	1.17470	8.54710	6.64141	4.97597
63690	0.73546	0.74821	0.54848	4.49577	4.15528	3.80178	6.04107	3.96648	2.15016	3.00854	2.87419	2.66554	1.73234	1.42092	1.16712	8.58063	6.61905	4.96638
63850	0.72332	0.74841	0.55074	4.55187	4.17785	3.83174	6.03479	3.92101	2.19805	3.01597	2.84390	2.68882	1.72994	1.42356	1.15565	8.59389	6.72036	5.04741
64020	0.74687	0.74371	0.54933	4.52281	4.20624	3.80869	6.09272	3.93642	2.16736	3.04508	2.88330	2.68839	1.75645	1.40764	1.15243	8.59029	6.63249	5.03140
64180	0.73149	0.76980	0.54407	4.53816	4.14570	3.85392	6.03966	3.92329	2.17597	3.02460	2.91349	2.71934	1.73865	1.41307	1.16166	8.55315	6.68877	4.98362	21.22	6.1	0.00	7.21	0.01283	0.01294	0.01702	0.00783	0.00584	0.00640	0.00472	0.01273	0.01698	0.00682	0.00695	0.00913	0.01498	0.01104	0.01205	0.00219	0.00620	0.00874
64340	0.73922	0.75732	0.54175	4.54265	4.15112	3.78874	6.04598	3.94245	2.20684	3.03595	2.88844	2.68991	1.73627	1.43428	1.17440	8.57285	6.65430	4.99864
64510	0.77074	0.84485	0.55381	4.48880	4.14021	3.83669	6.12475	3.96098	2.14858	3.00857	2.88013	2.69526	1.74357	1.45680	1.18487	8.61343	6.69157	5.00424
64670	0.74665	0.77562	0.57151	4.48339	4.15650	3.79680	6.04032	3.92738	2.20252	3.01304	2.90113	2.70466	1.78015	1.42501	1.18227	8.60076	6.68216	5.02081
64840	0.72901	0.75280	0.54816	4.47269	4.13361	3.80153	6.08654	3.92997	2.17629	3.00223	2.85468	2.65787	1.71279	1.39236	1.18733	8.55481	6.64631	4.99203
65000	0.72552	0.73064	0.53880	4.48911	4.13989	3.85204	6.05080	3.90954	2.17079	3.05758	2.89119	2.63753	1.73618	1.42685	1.17900	8.57653	6.65629	5.00209
65170	0.71999	0.75444	0.53861	4.47319	4.16837	3.74909	6.04211	3.89235	2.16290	3.00232	2.84188	2.66161	1.76008	1.42325	1.18549	8.56724	6.61702	4.97929
65330	0.73943	0.75130	0.54481	4.51699	4.17173	3.76813	6.05151	3.90258	2.14965	3.01370	2.87474	2.71051	1.73729	1.40474	1.18419	8.49218	6.61920	4.94248
65500	0.70806	0.73087	0.53678	4.53712	4.12158	3.76629	6.04639	3.91436	2.15347	2.98254	2.80165	2.61552	1.75522	1.41986	1.15216	8.59628	6.60142	4.94445
65660	0.71064	0.76729	0.53768	4.53469	4.15226	3.79109	6.05513	3.93383	2.15756	2.97661	2.84893	2.68580	1.74381	1.40419	1.17643	8.57092	6.67611	4.93877
65830	0.75851	0.73704	0.54930	4.53910	4.18296	3.81976	6.04878	3.91848	2.14123	2.99763	2.84124	2.67613	1.74058	1.41723	1.17217	8.56451	6.70501	5.00681	21.15	6.1	0.00	7.14	0.01283	0.01294	0.01702	0.00783	0.00584	0.00640	0.00472	0.01273	0.01698	0.00682	0.00695	0.00913	0.01498	0.01104	0.01205	0.00219	0.00620	0.00874
65990	0.74043	0.75893	0.56795	4.50698	4.17670	3.84408	6.06477	3.93158	2.17632	3.06103	2.87808	2.89686	1.74552	1.40609	1.17131	8.56705	6.74181	5.17619
66160	0.72720	0.74574	0.54913	4.56177	4.19128	3.89593	6.05040	3.92395	2.15741	3.03972	2.86863	2.71985	1.76490	1.41033	1.18845	8.59073	6.66250	5.07105
66320	0.72720	0.74951	0.55145	4.52817	4.23790	3.83036	6.06252	3.94732	2.16350	3.01480	2.92320	2.74141	1.74133	1.41664	1.15771	8.58169	6.64464	4.98474
66480	0.72917	0.74965	0.54527	4.49807	4.16256	3.83507	6.05794	3.93091	2.16363	3.00130	2.83420	2.66715	1.72054	1.41053	1.15552	8.53478	6.74429	4.96400
66650	0.72996	0.75204	0.56047	4.46298	4.18421	3.86584	6.07495	3.91738	2.15909	2.99222	2.92957	2.71048	1.72171	1.40175	1.15447	8.55541	6.63655	5.06940
66810	0.71944	0.73693	0.53829	4.55932	4.15469	3.79325	6.06010	3.94628	2.20420	2.97927	2.84852	2.70269	1.73463	1.42537	1.17709	8.61464	6.67474	5.04129
66970	0.72014	0.74193	0.55158	4.52327	4.15792	3.84749	6.04566	3.93694	2.15178	2.99897	2.87996	2.73703	1.73976	1.41965	1.19690	8.58414	6.66562	4.99502
67140	0.72024	0.74448	0.53296	4.51811	4.18884	3.81069	6.05823	3.92758	2.18610	3.06150	2.88347	2.74375	1.75519	1.42703	1.21498	8.69762	6.71857	5.07472
67300	0.79120	0.81236	0.61763	4.59291	4.34693	4.01086	6.13212	4.03516	2.28885	3.24797	3.09960	2.88258	1.89346	1.52355	1.30681	8.81833	6.96981	5.24149
67470	0.86754	0.84102	0.66141	4.80408	4.39721	4.03641	6.16461	4.04489	2.31616	3.23469	3.11820	2.89314	1.85666	1.53492	1.30299	8.73017	6.73743	5.11732	21.15	6.2	0.00	7.18	0.01283	0.01294	0.01702	0.00783	0.00584	0.00640	0.00471	0.01273	0.01698	0.00682	0.00695	0.00913	0.01498	0.01104	0.01205	0.00219	0.00620	0.00873
67630	0.83307	0.82547	0.60360	4.66219	4.32501	3.97536	6.09621	3.98339	2.21034	3.18324	3.00377	2.76683	1.78929	1.46061	1.25976	8.66584	6.73649	5.07649
67790	0.75493	0.79194	0.58385	4.60361	4.23945	3.86075	6.09700	3.95219	2.20444	3.03292	2.90378	2.70068	1.76341	1.45198	1.20934	8.63387	6.69584	5.04815
67960	0.74914	0.76460	0.56805	4.55826	4.19403	3.85148	6.06506	3.95750	2.14736	3.04678	2.94028	2.74461	1.73301	1.42158	1.17935	8.56210	6.71235	5.06222
68120	0.73841	0.74819	0.54662	4.53160	4.16685	3.79915	6.05427	3.93314	2.15191	3.05413	2.93416	2.67866	1.76302	1.41336	1.16166	8.59094	6.62172	4.99385
68290	0.72868	0.75676	0.54751	4.54786	4.20583	3.82433	6.06235	3.92498	2.17476	3.04335	2.92420	2.75867	1.75414	1.44641	1.17436	8.61643	6.73822	4.98611
68450	0.74303	0.75371	0.55852	4.53275	4.19516	3.95012	6.02964	3.93203	2.20388	3.16302	3.01820	2.74767	1.74252	1.43276	1.18980	8.68842	6.70610	5.03892
68620	0.74246	0.74909	0.55782	4.56707	4.18127	3.86075	6.07532	3.94910	2.19359	3.06773	2.94005	2.75637	1.76265	1.43819	1.20743	8.64684	6.65123	5.06933
68780	0.74909	0.76948	0.55908	4.58296	4.19643	3.81391	6.04719	3.94458	2.16447	3.06492	2.87653	2.73460	1.74227	1.39861	1.17856	8.62911	6.72058	4.99516
68950	0.72676	0.74481	0.54187	4.51559	4.20270	3.86947	6.05527	3.94396	2.17059	3.03124	2.94362	2.70812	1.73976	1.40953	1.16737	8.53674	6.70292	4.99632
69110	0.71944	0.75316	0.55406	4.51302	4.16812	3.80955	6.05705	3.91185	2.15615	3.02701	3.04936	2.66549	1.80803	1.40892	1.16644	8.53771	6.63321	4.98998	21.22	6.1	0.00	7.11	0.01283	0.01294	0.01702	0.00783	0.00584	0.00640	0.00471	0.01273	0.01698	0.00682	0.00695	0.00913	0.01498	0.01104	0.01205	0.00219	0.00620	0.00873
69280	0.72798	0.73942	0.56355	4.47692	4.17997	3.81744	6.08759	3.91762	2.17769	2.95143	2.84481	2.70754	1.82426	1.41990	1.17274	8.56999	6.63112	4.96635
69440	0.73887	0.73504	0.53047	4.52008	4.14128	3.84332	6.04647	3.94078	2.16104	3.04422	2.82964	2.67977	1.74167	1.41606	1.17132	8.52889	6.68210	5.03376
69610	0.71791	0.76419	0.54832	4.50494	4.15025	3.79025	6.01946	3.92650	2.17907	2.98035	2.84015	2.64696	1.72164	1.39114	1.15735	8.57831	6.63805	5.06654
69770	0.72109	0.74832	0.54439	4.52046	4.15617	3.78803	6.07298	3.91318	2.16099	2.97643	2.82766	2.64423	1.71699	1.41187	1.18593	8.57121	6.60691	5.01829
69940	0.74529	0.75365	0.55568	4.50823	4.17333	3.80767	6.06651	3.91261	2.18082	3.04660	2.89977	2.73758	1.74549	1.43434	1.20141	8.57446	6.68361	5.04379
70100	0.75045	0.77874	0.55214	4.60613	4.23430	3.84695	6.05230	3.94387	2.17586	3.07991	2.94206	2.70887	1.76401	1.43740	1.20550	8.59868	6.66161	4.97083
70260	0.76047	0.76795	0.58909	4.56373	4.17852	3.88297	6.07139	3.95297	2.19987	3.04599	2.88168	2.72843	1.74684	1.41577	1.17572	8.59165	6.67257	5.03460
70430	0.73795	0.75013	0.54913	4.54270	4.20076	3.87127	6.06501	3.93520	2.17445	3.03834	2.88698	2.68709	1.73862	1.40432	1.16471	8.59815	6.67859	4.98042
70590	0.72622	0.74296	0.53773	4.50621	4.18561	3.83656	6.06893	3.96952	2.20936	3.02521	2.86909	2.66589	1.71930	1.40903	1.15387	8.54164	6.64225	5.01047
70760	0.74098	0.76539	0.55078	4.51260	4.23435	3.84511	6.06650	3.92522	2.18501	3.03067	2.92162	2.65890	1.74789	1.41786	1.16824	8.51626	6.61258	4.97335	21.22	6.1	0.00	7.10	0.01283	0.01294	0.01702	0.00783	0.00584	0.00640	0.00471	0.01273	0.01698	0.00682	0.00695	0.00913	0.01498	0.01104	0.01205	0.00219	0.00620	0.00873
70920	0.74304	0.74360	0.55753	4.43586	4.11140	3.77471	6.05737	3.92566	2.17619	2.99815	2.88365	2.65234	1.74494	1.42086	1.18462	8.71291	6.68621	4.97924
71090	0.71906	0.74149	0.54828	4.49644	4.18399	3.83635	6.06667	3.93004	2.18456	3.04525	2.85316	2.62867	1.73938	1.43027	1.18073	8.56219	6.66879	5.00968
71250	0.73152	0.74827	0.55426	4.47816	4.12782	3.81710	6.03564	3.91680	2.17800	3.02688	2.86309	2.63743	1.74471	1.41520	1.15377	8.52157	6.60597	4.94369
71420	0.71352	0.73811	0.54666	4.53216	4.19468	3.82975	6.04521	3.91901	2.17591	2.99352	2.82587	2.62766	1.74164	1.41316	1.16746	8.50485	6.61198	4.96149
71580	0.72979	0.74623	0.53853	4.46058	4.13537	3.82041	6.02330	3.92452	2.15692	2.98367	2.81068	2.63598	1.75028	1.41393	1.16725	8.56000	6.61248	4.95876
71750	0.72989	0.75531	0.54710	4.48461	4.10258	3.76804	6.00280	3.91135	2.16393	3.04514	2.93567	2.66003	1.71580	1.40000	1.16636	8.54243	6.60091	5.02989
71910	0.72880	0.74324	0.54512	4.54930	4.13579	3.79836	6.01400	3.93595	2.15339	3.04318	2.85067	2.63627	1.75029	1.38611	1.16833	8.56779	6.61022	4.96079
72080	0.71793	0.74412	0.55844	4.53551	4.16136	3.79753	6.06400	3.93054	2.19275	3.04220	2.89605	2.67801	1.76309	1.41228	1.17617	8.63978	6.76846	5.01523
72240	0.72390	0.74775	0.54322	4.50686	4.15929	3.80949	6.02995	3.93138	2.14587	2.99960	2.83395	2.66130	1.72381	1.43182	1.18052	8.59375	6.66201	5.00824
72400	0.73173	0.76067	0.56474	4.50428	4.16562	3.85439	6.04148	3.92839	2.16887	2.99920	2.87135	2.67405	1.74548	1.42441	1.17553	8.65699	6.68812	5.00786	21.22	6.0	0.00	7.15	0.01283	0.01294	0.01702	0.00783	0.00584	0.00640	0.00471	0.01272	0.01698	0.00682	0.00695	0.00913	0.01498	0.01104	0.01205	0.00219	0.00620	0.00873
72570	0.73732	0.76552	0.57712	4.57458	4.21080	3.88407	6.09046	3.94529	2.21695	3.07149	2.86817	2.71769	1.75504	1.42446	1.17474	8.61257	6.70432	5.06198
72730	0.74787	0.75557	0.53551	4.52673	4.17447	3.84588	6.04277	3.91958	2.16441	3.02406	2.92473	2.68038	1.72768	1.41337	1.15477	8.58236	6.62453	5.00427
72900	0.73746	0.74648	0.54752	4.50697	4.20156	3.84905	6.07788	3.93126	2.17630	3.00699	2.87350	2.71643	1.76058	1.41634	1.17876	8.61758	6.67594	5.01815
73060	0.72134	0.73422	0.54107	4.57299	4.20713	3.78515	6.05664	3.91397	2.16350	3.03771	2.90708	2.68542	1.70800	1.42951	1.26150	8.72124	6.79390	5.00136
73220	0.76973	0.75791	0.59179	4.53323	4.25853	3.83118	6.07963	3.97343	2.17535	3.13941	2.84945	2.67618	1.73293	1.42683	1.17828	8.58236	6.70457	5.04865
73390	0.74782	0.75915	0.53855	4.56182	4.26778	3.86015	6.06461	3.92492	2.16774	3.01737	2.88397	2.71746	1.72107	1.40784	1.17305	8.76303	6.69648	5.05229
73550	0.74737	0.77352	0.55917	4.55818	4.24981	3.86923	6.14740	3.95930	2.16717	3.08358	2.96814	2.75131	1.77175	1.45661	1.19382	8.64719	6.72892	5.07147
73720	0.73742	0.76242	0.54882	4.59273	4.20600	3.86925	6.07074	3.93049	2.16743	3.02649	2.99848	2.99319	1.75458	1.41316	1.19193	8.68273	6.67828	5.05689
73880	0.73099	0.75112	0.55214	4.59272	4.22202	3.82631	6.02959	3.91929	2.16202	3.03847	2.90016	2.69302	1.71945	1.40698	1.14771	8.59956	6.70551	5.01136
74050	0.71869	0.72356	0.54324	4.59303	4.23069	3.85764	6.04657	3.90504	2.14945	2.98791	2.86040	2.63396	1.73408	1.40050	1.18267	8.58793	6.69555	5.00287	21.22	6.1	0.00	7.12	0.01283	0.01294	0.01702	0.00783	0.00584	0.00640	0.00471	0.01272	0.01698	0.00682	0.00695	0.00913	0.01498	0.01104	0.01205	0.00219	0.00620	0.00873
74210	0.75390	0.75635	0.54324	4.52600	4.20119	3.82421	6.05611	3.91663	2.14594	3.04348	2.85300	2.64428	1.74143	1.40444	1.16991	8.60049	6.66717	5.03979
74370	0.71653	0.74111	0.55470	4.59888	4.17883	3.80146	6.03379	3.92507	2.16557	3.06284	2.80835	2.67348	1.74356	1.41364	1.17389	8.63190	6.74635	4.98180
74540	0.73838	0.75463	0.55826	4.49023	4.23949	3.84762	6.02141	3.92291	2.14644	3.01949	2.89956	2.69353	1.73001	1.43227	1.17050	8.65829	6.68754	5.01042
74700	0.71902	0.74452	0.55579	4.54743	4.18378	3.85882	6.04532	3.92731	2.17327	3.06559	2.88841	2.66202	1.77671	1.45279	1.20219	8.60752	6.70793	5.02829
74870	0.75650	0.77944	0.58197	4.49702	4.21090	3.90967	6.07621	3.98141	2.19958	3.08034	2.90148	2.72130	1.81708	1.45167	1.18908	8.61394	6.69471	5.02469
75030	0.73131	0.74800	0.54452	4.56588	4.26593	3.96763	6.04728	3.91556	2.17624	3.10311	2.89592	2.74229	1.75557	1.41963	1.19091	8.72584	6.68234	5.04058
75190	0.74635	0.76250	0.54861	4.56896	4.26094	3.89897	6.09979	3.95405	2.18941	3.08695	2.96515	2.73371	1.75884	1.41988	1.20316	8.63375	6.71755	5.05721
75360	0.73941	0.75992	0.56525	4.55767	4.24415	3.83917	6.06857	3.94271	2.20516	3.09640	2.99206	2.75402	1.76171	1.42716	1.17540	8.66235	6.74435	5.07263
75520	0.74305	0.75848	0.56296	4.56343	4.22230	3.83971	6.05273	3.93773	2.18127	3.05162	2.84775	2.70379	1.74430	1.42983	1.20751	8.66792	6.71522	5.10201
75690	0.76925	0.78364	0.58741	4.56556	4.21911	3.90002	6.08307	3.97039	2.19734	3.12783	2.94686	2.74144	1.76051	1.45795	1.19361	8.66496	6.72133	5.03830	21.22	6.1	0.00	7.27	0.01283	0.01294	0.01702	0.00783	0.00584	0.00640	0.00471	0.01272	0.01698	0.00682	0.00695	0.00913	0.01498	0.01104	0.01205	0.00219	0.00620	0.00873
75850	0.76367	0.78123	0.57228	4.57761	4.24754	3.92689	6.10403	3.96971	2.18256	3.06231	2.95996	2.76047	1.74928	1.45886	1.19528	8.65480	6.73423	5.09428
76020	0.75223	0.77586	0.59636	4.66537	4.25887	3.91855	6.12733	4.00519	2.18390	3.11703	2.94087	2.73278	1.79993	1.42188	1.17642	8.67920	6.72776	5.03849
76180	0.72855	0.84273	0.56709	4.65354	4.31162	3.93105	6.11425	3.98053	2.22301	3.11430	2.94759	2.73536	1.74162	1.43685	1.19893	8.65710	6.73940	5.01458
76350	0.74948	0.78132	0.55436	4.61774	4.19296	3.92698	6.07706	3.94894	2.18333	3.04386	2.94558	2.76033	1.79527	1.40048	1.16877	8.67929	6.74864	5.14994
76510	0.74048	0.74415	0.52858	4.56111	4.22004	3.89940	6.03801	3.92994	2.15481	3.04476	2.91020	2.73213	1.76943	1.42271	1.18656	8.61885	6.72470	5.01522
76670	0.72968	0.74482	0.55466	4.49702	4.18230	3.87623	6.07840	3.97752	2.19066	3.04199	2.92761	2.75074	1.75629	1.41789	1.18886	8.60531	6.77346	5.05163
76840	0.71193	0.75860	0.54748	4.62074	4.18335	3.89844	6.08324	3.94917	2.16455	3.05471	2.93837	2.69591	1.74862	1.42269	1.16249	8.62254	6.67640	4.98842
77000	0.74422	0.76488	0.53514	4.50645	4.21951	3.82650	6.06312	3.93970	2.18810	3.01809	2.91896	2.67902	1.75990	1.43506	1.20754	8.60874	6.69111	5.00881
77170	0.79458	0.81428	0.56715	4.84238	4.17839	3.81270	6.09382	3.96637	2.18644	3.05018	2.90870	2.68923	1.74764	1.43042	1.19284	8.58074	6.66468	5.06679
77330	0.74601	0.77732	0.55443	4.73386	4.20310	3.82972	6.09039	3.94095	2.19318	3.05683	2.94688	2.71422	1.72019	1.43247	1.17192	8.64403	6.75123	5.05668	21.22	6.1	0.00	7.19	0.01283	0.01294	0.01702	0.00783	0.00584	0.00640	0.00471	0.01272	0.01698	0.00682	0.00695	0.00913	0.01498	0.01104	0.01205	0.00219	0.00620	0.00873
77500	0.75536	0.76143	0.57401	4.54307	4.17874	3.84966	6.06596	3.94713	2.18982	3.03451	2.89098	2.71096	1.75179	1.40450	1.17263	8.63698	7.10742	4.98684
77660	0.72854	0.75988	0.54749	4.51768	4.34598	3.82083	6.06271	3.94163	2.16127	3.03773	2.87853	2.68624	1.75378	1.43756	1.18592	8.56823	6.74092	5.04573
77830	0.73014	0.73947	0.54436	4.48776	4.20292	3.80623	6.07347	3.93503	2.16718	2.97921	2.86656	2.67891	1.74918	1.42094	1.18628	8.54332	6.68729	5.02498
77990	0.73403	0.77315	0.54897	4.53492	4.17176	3.81990	6.06379	3.94553	2.16785	3.00103	2.90937	2.72599	1.74404	1.42902	1.18542	8.57094	6.64537	4.95238
78150	0.71936	0.74819	0.55655	4.57142	4.12046	3.76841	6.05275	3.92905	2.17011	3.01779	2.87635	2.68162	1.76302	1.42666	1.17854	8.60821	6.65893	4.99585
78320	0.73364	0.76497	0.54710	4.53561	4.21261	3.84371	6.06559	3.92261	2.19767	3.03079	2.90227	2.72673	1.75978	1.43575	1.19565	8.64994	6.67286	4.97381
78480	0.74589	0.75816	0.56797	4.54577	4.16388	3.85842	6.04946	3.92401	2.20261	3.02763	2.87536	2.67401	1.74792	1.42624	1.17342	8.60584	6.62598	4.99787
78650	0.77564	0.79030	0.55268	4.45778	4.16017	3.79310	6.12704	3.95633	2.21028	3.01963	2.91202	2.68690	1.72486	1.42267	1.15476	8.61682	6.69486	4.97734
78810	0.71988	0.74458	0.54024	4.52712	4.17440	3.83671	6.04950	3.93286	2.17909	3.03461	2.90017	2.70908	1.73795	1.41387	1.17592	8.64941	6.66777	5.02806
78980	0.72764	0.75260	0.55492	4.64251	4.28791	3.87331	6.06371	3.94233	2.15046	3.03586	2.89804	2.66897	1.72819	1.41328	1.17391	8.69823	6.71505	5.08690	21.28	5.9	0.00	7.27	0.01282	0.01294	0.01702	0.00783	0.00585	0.00640	0.00471	0.01272	0.01698	0.00682	0.00695	0.00913	0.01498	0.01104	0.01204	0.00219	0.00620	0.00873
79140	0.73665	0.76384	0.57518	4.56139	4.20573	3.88933	6.08960	3.96824	2.20263	3.04579	2.91479	2.76528	1.76181	1.42577	1.17671	8.68369	6.75160	5.09207
79310	0.72521	0.74021	0.55763	4.51757	4.21251	3.84534	6.06434	3.94335	2.18905	3.06082	2.95302	2.73595	1.75540	1.45738	1.20162	8.67387	6.68899	5.04668
79470	0.73335	0.74233	0.54578	4.61961	4.25577	3.87754	6.07122	3.91316	2.18323	3.01323	2.88725	2.71925	1.72195	1.41688	1.19052	8.60254	6.69308	5.01966
79630	0.74932	0.75626	0.54389	4.57111	4.17130	3.78447	6.05946	3.90805	2.15898	3.02164	2.91565	2.70790	1.74465	1.41332	1.19110	8.61335	6.69801	4.97553
79800	0.73734	0.75751	0.53914	4.49117	4.18441	3.82454	6.08555	3.93510	2.16558	3.01353	2.87354	2.65154	1.72622	1.40056	1.15690	8.60166	6.70140	5.02025
79960	0.70946	0.73873	0.53235	4.49389	4.22086	3.85161	6.04114	3.91001	2.16858	3.01504	2.90301	2.68807	1.74997	1.40774	1.17204	8.59806	6.73844	4.99867
80120	0.71512	0.73483	0.53994	4.54724	4.16468	3.81965	6.06467	3.93180	2.15860	3.08130	2.86915	2.66708	1.74117	1.41697	1.17467	8.52997	6.67423	4.96503
80290	0.73497	0.73117	0.54173	4.47727	4.17606	3.82821	6.04542	3.92193	2.17482	3.06536	2.89602	2.70058	1.72150	1.44931	1.16920	8.55443	6.69730	5.02488
80450	0.71763	0.72357	0.53054	4.50251	4.15167	3.77266	6.03981	3.92893	2.15046	3.07121	2.89424	2.69148	1.72760	1.40986	1.18576	8.59841	6.68786	5.01889
80620	0.73815	0.76269	0.54989	4.53215	4.25081	3.87863	6.04339	3.95141	2.17947	3.10931	2.95790	2.70559	1.73452	1.40596	1.16426	8.65203	6.69759	5.07608	21.35	5.9	0.00	7.14	0.01282	0.01294	0.01702	0.00783	0.00585	0.00640	0.00471	0.01272	0.01698	0.00682	0.00696	0.00913	0.01498	0.01104	0.01204	0.00219	0.00620	0.00874
80780	0.72455	0.74830	0.55162	4.52018	4.18575	3.88895	6.07315	3.93451	2.15848	3.09288	2.95856	2.77017	1.75281	1.41927	1.18459	8.63483	6.75389	5.05048
80950	0.74773	0.77943	0.57233	4.61645	4.20265	3.93455	6.08509	3.96567	2.20333	3.06101	2.96070	2.77003	1.79610	1.44673	1.18811	8.71222	6.74980	5.05560
81110	0.77099	0.77903	0.56057	4.59272	4.19919	3.92942	6.13322	4.00623	2.23021	3.09670	2.91306	2.76244	1.78016	1.43022	1.19643	8.67650	6.75982	5.07358
81270	0.78439	0.77882	0.55935	4.57613	4.21753	3.84474	6.07119	3.93156	2.16042	3.04765	2.90883	2.69109	1.72876	1.41541	1.18452	8.64100	6.71170	5.01998
81440	0.74563	0.74983	0.57071	4.54887	4.20907	3.88176	6.07624	3.94188	2.15882	3.04725	2.90639	2.70042	1.76007	1.43263	1.18565	8.62788	6.69956	5.02975
81600	0.74225	0.75694	0.53726	4.50561	4.17895	3.86128	6.06622	3.93608	2.16425	3.01496	2.85884	2.71068	1.74232	1.41342	1.16462	8.54371	6.70087	4.98090
81770	0.71978	0.74339	0.55664	4.53226	4.17909	3.86248	6.05851	3.96049	2.17051	3.04930	2.85807	2.66413	1.74936	1.42466	1.22615	8.57361	6.62930	4.98433
81930	0.72641	0.76198	0.55508	4.59593	4.19157	3.81693	6.05859	3.94876	2.17529	2.99149	2.96832	2.86181	1.74010	1.43353	1.17721	8.58080	6.66525	4.97277
82100	0.74098	0.75705	0.55311	4.56928	4.23762	3.87647	6.06230	3.92311	2.18033	3.02701	2.87126	2.70235	1.76883	1.42940	1.20180	8.61362	6.67566	4.99787
82260	0.73965	0.72710	0.55441	4.53403	4.17857	3.84637	6.04086	3.95245	2.15760	3.02050	2.88976	2.67072	1.72577	1.41326	1.17435	8.57483	6.66044	4.97391	21.22	6.1	0.00	7.14	0.01282	0.01294	0.01702	0.00783	0.00585	0.00640	0.00471	0.01272	0.01698	0.00682	0.00696	0.00913	0.01498	0.01104	0.01204	0.00219	0.00620	0.00874
82430	0.73364	0.75359	0.54315	4.52997	4.19609	3.82748	6.05659	3.95776	2.19074	2.96187	2.84810	2.66728	1.73738	1.43163	1.19267	8.64388	6.66081	4.97076
82590	0.72766	0.75886	0.55897	4.51143	4.16522	3.89061	6.03836	3.95060	2.18919	3.04858	2.90606	2.68794	1.73905	1.42655	1.19145	8.59455	6.72799	5.09894
82760	0.73514	0.74937	0.55260	4.57039	4.29414	3.87683	6.08367	3.92611	2.14302	3.06104	2.85386	2.72925	1.72936	1.42117	1.20414	8.64194	6.67654	4.97878
82920	0.72597	0.76969	0.55126	4.52837	4.20749	3.85924	6.08191	3.94518	2.20457	3.06612	2.87618	2.66233	1.74158	1.41936	1.18166	8.64573	6.70083	4.99829
83080	0.73463	0.75316	0.54536	4.52247	4.25194	3.82058	6.06839	3.94720	2.17384	3.02895	2.90439	2.72321	1.73622	1.45822	1.18326	8.70463	6.77650	5.07916
83250	0.73606	0.77104	0.55540	4.52742	4.18538	3.87522	6.05251	3.92517	2.17268	3.06032	2.92866	2.70259	1.74025	1.42261	1.16443	8.64053	6.70849	5.05910
83410	0.74076	0.76145	0.56028	4.59789	4.21253	3.79932	6.08283	3.95349	2.17801	3.04544	2.91157	2.70623	1.76892	1.43427	1.16777	8.64168	6.67497	5.02603
83580	0.73341	0.74783	0.55816	4.54809	4.21756	3.81805	6.05213	3.93820	2.16435	3.05570	2.87231	2.67006	1.74570	1.40689	1.15085	8.68788	6.74788	5.03581
83740	0.72449	0.75544	0.53778	4.52214	4.18332	3.83145	6.09207	3.91652	2.18631	3.04962	2.89673	2.68075	1.75083	1.43163	1.17986	8.67514	6.69241	4.96207
83910	0.74261	0.74662	0.53792	4.53359	4.19347	3.83972	6.04852	3.94433	2.18119	2.98248	2.91467	2.66919	1.73116	1.42242	1.17341	8.58377	6.66019	4.99610	21.35	6.0	0.00	7.11	0.01282	0.01294	0.01702	0.00783	0.00584	0.00640	0.00471	0.01272	0.01698	0.00682	0.00696	0.00913	0.01498	0.01104	0.01204	0.00219	0.00620	0.00873
84070	0.73630	0.73871	0.56132	4.49261	4.23897	3.94677	6.03841	3.92825	2.18571	2.98740	2.90293	2.73051	1.75016	1.42286	1.15556	8.60580	6.65613	4.99478
84240	0.74254	0.73340	0.56964	4.50150	4.16172	3.84640	6.06681	3.93188	2.16316	2.98177	2.82435	2.68957	1.73945	1.43239	1.17865	8.62832	6.70354	4.98048
84400	0.72627	0.74486	0.55336	4.52564	4.18915	3.87197	6.05718	3.94469	2.17739	3.07040	2.89854	2.71277	1.74580	1.40657	1.14476	8.58246	6.69712	5.00088
84570	0.72380	0.73954	0.55517	4.51260	4.25266	3.84526	6.06577	3.94012	2.17763	3.06939	2.90710	2.71309	1.73515	1.40722	1.16972	8.65248	6.67629	4.98285
84730	0.73989	0.73961	0.54263	4.49604	4.17519	3.77411	6.06152	3.93427	2.16434	3.06180	2.91022	2.65930	1.75002	1.39963	1.16941	8.57133	6.71151	5.01696
84900	0.73231	0.74027	0.54733	4.54380	4.25698	3.87933	6.03046	3.96441	2.16172	3.02656	2.87220	2.73893	1.74078	1.44941	1.16097	8.56809	6.64416	5.02750
85060	0.72796	0.74426	0.55108	4.49230	4.22240	3.84114	6.04381	3.92239	2.15977	3.05349	2.90161	2.71230	1.72409	1.39622	1.17803	8.59447	6.73248	4.95761
85230	0.73012	0.74630	0.54248	4.52015	4.13949	3.81094	6.07908	3.92645	2.16811	3.05707	2.88931	2.67949	1.74171	1.41167	1.17541	8.55305	6.67054	4.91818
85390	0.72723	0.74699	0.54456	4.59217	4.16867	3.82588	6.05506	3.94145	2.19472	3.03601	2.90612	2.67315	1.73018	1.41649	1.21910	8.55952	6.66333	4.99805
85560	0.73512	0.76795	0.55347	4.51522	4.18818	3.81848	6.05326	3.92421	2.17205	2.96660	2.89480	2.68873	1.75111	1.41125	1.16868	8.61545	6.67929	4.94082	21.35	6.1	0.00	7.17	0.01282	0.01294	0.01702	0.00783	0.00584	0.00640	0.00471	0.01272	0.01698	0.00682	0.00696	0.00913	0.01498	0.01104	0.01204	0.00219	0.00620	0.00873
85720	0.72648	0.77228	0.56310	4.56739	4.14039	3.78903	6.07082	3.91476	2.18677	3.03289	2.91820	2.69807	1.76017	1.42469	1.17503	8.62011	6.69426	5.02626
85880	0.74296	0.74058	0.53978	4.56306	4.24263	3.87709	6.05197	3.94717	2.16391	3.03343	2.87509	2.71791	1.72770	1.43208	1.17562	8.59945	6.70617	5.00803
86050	0.74803	0.75577	0.57514	4.55767	4.18862	3.87584	6.06789	3.96372	2.20461	3.08940	2.94146	2.70267	1.74432	1.42643	1.16724	8.60868	6.72396	5.03452
86210	0.73952	0.77125	0.54040	4.54970	4.27221	3.91724	6.05860	3.93970	2.18907	3.11222	2.86836	2.76094	1.74358	1.43318	1.17208	8.62883	6.73073	5.02755
86380	0.76368	0.77207	0.56230	4.57805	4.23777	3.88884	6.06539	3.95894	2.17651	2.99319	2.92602	2.67739	1.72913	1.43338	1.18855	8.61061	6.75670	5.06880
86550	0.72217	0.75211	0.55418	4.59219	4.22911	3.84954	6.10852	3.92449	2.16944	3.04517	2.86860	2.71846	1.77802	1.42783	1.17208	8.68031	6.68916	5.03557
86710	0.72918	0.76844	0.56891	4.55597	4.26721	3.87672	6.08067	3.94696	2.16648	3.05149	2.86313	2.69000	1.73938	1.40937	1.19033	8.60200	6.63874	5.03633
86880	0.73316	0.74857	0.55519	4.50285	4.18761	3.81873	6.08100	3.94913	2.18623	3.02901	2.86380	2.67384	1.72851	1.40625	1.16868	8.64717	6.70372	5.01813
87040	0.74433	0.76136	0.54288	4.52242	4.20505	3.81067	6.08342	3.94480	2.20964	3.01659	3.05546	2.89062	1.75370	1.40923	1.17238	8.63923	6.71444	4.99249
87210	0.74049	0.76379	0.54734	4.49451	4.19745	3.78424	6.03737	3.93024	2.14962	3.01956	2.86674	2.62563	1.71380	1.41271	1.17008	8.56867	6.68600	4.99036	21.28	6.1	0.00	7.16	0.01282	0.01294	0.01701	0.00783	0.00584	0.00640	0.00471	0.01272	0.01698	0.00682	0.00696	0.00913	0.01498	0.01104	0.01204	0.00219	0.00620	0.00873
87370	0.72442	0.74304	0.55128	4.51216	4.21040	3.86521	6.07542	3.96773	2.16257	3.02972	3.07915	2.74465	1.75271	1.45463	1.19537	8.67164	6.74807	5.06342
87540	0.74850	0.75217	0.56861	4.60249	4.32027	3.85956	6.09151	3.99052	2.20415	3.06528	2.96610	2.77862	1.78640	1.46073	1.19312	8.81860	6.75656	5.05110
87700	0.73921	0.77042	0.58372	4.62630	4.31780	3.90697	6.09519	3.99599	2.21007	3.08743	2.98412	2.79151	1.80393	1.45227	1.18176	8.67040	6.75282	5.11981
87870	0.77722	0.78217	0.55759	4.59076	4.26977	3.91335	6.09854	3.98042	2.22063	3.07085	2.92009	2.74343	1.76009	1.42275	1.20148	8.68536	6.76075	5.11835
88030	0.74129	0.76779	0.55941	4.55675	4.24170	3.89367	6.08946	3.93950	2.16956	3.06060	2.91353	2.76060	1.73805	1.42886	1.17532	8.63870	6.74122	5.06215
88200	0.72126	0.75339	0.55471	4.56231	4.18965	3.83266	6.10800	3.94567	2.17941	3.04701	2.94681	2.73301	1.73737	1.42139	1.17510	8.71695	6.78861	5.10088
88360	0.72253	0.76066	0.58728	4.63319	4.26989	3.90900	6.13611	3.95250	2.19663	3.06837	2.99217	2.73732	1.75276	1.43322	1.17337	8.73154	6.77103	5.05802
88530	0.74589	0.77032	0.55709	4.58657	4.26823	3.84925	6.09540	3.96652	2.17585	3.07829	2.93694	2.72905	1.77199	1.43556	1.17747	8.69662	6.75425	5.06636
88690	0.73341	0.75404	0.54496	4.60051	4.23209	3.87002	6.12460	3.98663	2.21426	3.06846	2.87860	2.72849	1.77399	1.43515	1.20026	8.71038	6.70196	5.07494
88860	0.74998	0.75167	0.54801	4.57839	4.22715	3.85619	6.08250	3.96071	2.20120	3.10312	3.01589	2.71171	1.75954	1.42497	1.17853	8.72203	6.82164	5.10947	21.35	5.9	0.00	7.21	0.01282	0.01294	0.01701	0.00783	0.00584	0.00640	0.00471	0.01272	0.01698	0.00682	0.00695	0.00913	0.01498	0.01104	0.01204	0.00219	0.00620	0.00873
89020	0.75870	0.76255	0.55684	4.58808	4.25230	3.93930	6.09847	4.01388	2.23168	3.09521	2.94482	2.74214	1.76087	1.42359	1.18888	8.75472	6.84674	5.16177
89190	0.76182	0.78726	0.56484	4.64845	4.34031	3.95166	6.11329	3.97212	2.22116	3.15684	3.00755	2.80457	1.76923	1.44813	1.19652	8.78636	6.85349	5.15365
89350	0.73164	0.75756	0.56046	4.66568	4.36132	3.93742	6.11300	3.97847	2.20487	3.18212	3.02944	2.84225	1.78801	1.42120	1.17970	8.91745	7.04766	5.45051
89510	0.75267	0.78222	0.57428	4.58728	4.25794	3.90848	6.14368	4.00100	2.21119	3.13478	2.96301	2.83279	1.76638	1.46775	1.20440	8.69681	6.81070	5.13009
89680	0.73034	0.76786	0.56880	4.63919	4.27422	3.93559	6.13188	3.98675	2.18366	3.31634	3.03457	2.78125	1.74077	1.42736	1.20457	8.73939	6.74067	5.09544
89840	0.76378	0.78208	0.61073	4.64627	4.25191	3.89729	6.11086	3.97611	2.19024	3.10185	2.94381	2.73604	1.77082	1.43695	1.18711	8.74073	6.75471	5.09569
90010	0.73143	0.75895	0.54835	4.56137	4.23678	3.85814	6.05700	3.94498	2.17948	3.05931	2.87476	2.67176	1.75583	1.43285	1.17628	8.61596	6.68715	5.07333
90170	0.74210	0.75321	0.56479	4.54224	4.17571	3.84819	6.06221	3.94715	2.20231	3.04933	2.88035	2.65181	1.74407	1.42276	1.18300	8.59566	6.71606	4.99218
90340	0.72224	0.76651	0.55791	4.58690	4.20309	3.88448	6.08037	3.95138	2.19952	3.00931	2.89146	2.70350	1.76298	1.46993	1.22565	8.57329	6.80681	5.08498
90500	0.75439	0.77833	0.53786	4.51632	4.19763	3.84471	6.04521	3.92737	2.15073	3.06627	2.91340	2.68521	1.72614	1.41042	1.17864	8.59749	6.70648	5.03558	21.35	6.1	0.00	7.17	0.01282	0.01294	0.01701	0.00783	0.00584	0.00640	0.00471	0.01272	0.01698	0.00682	0.00695	0.00913	0.01498	0.01104	0.01204	0.00219	0.00620	0.00873
90660	0.73011	0.75013	0.54847	4.55630	4.21222	3.83862	6.07760	3.93704	2.19174	3.03551	2.93453	2.67343	1.73945	1.42988	1.15640	8.62714	6.65128	4.98767
90830	0.75059	0.75816	0.54240	4.52306	4.17300	4.00732	6.09654	3.92891	2.18978	3.00842	2.92357	2.88291	1.73908	1.49019	1.17564	8.60707	6.69801	5.02057
90990	0.73427	0.73840	0.55300	4.54265	4.21255	3.83368	6.12067	3.94568	2.17164	3.06596	2.88295	2.72260	1.72550	1.43471	1.15728	8.63816	6.67460	4.99844
91160	0.71973	0.75136	0.55198	4.57977	4.21640	3.94180	6.04841	3.93960	2.17314	3.01295	3.00896	2.68041	1.74007	1.43283	1.18909	8.67766	6.75173	4.99945
91320	0.72694	0.76049	0.53329	4.54999	4.18999	3.80082	6.05987	3.96472	2.18099	2.98129	2.87033	2.70530	1.75988	1.42430	1.17212	8.53672	6.68570	4.99032
91490	0.72835	0.74419	0.56221	4.54502	4.17978	3.84436	6.09165	3.92811	2.15536	3.04562	2.89151	2.74566	1.73965	1.40090	1.19539	8.62749	6.65948	5.00774
91650	0.73967	0.75718	0.56683	4.52830	4.26875	3.82781	6.06458	3.93590	2.14952	3.01979	2.91129	2.69073	1.75353	1.41015	1.17472	8.63639	6.68088	5.02082
91820	0.73875	0.76726	0.55632	4.57552	4.21509	3.85322	6.06087	3.92686	2.18591	3.08657	2.98586	2.74673	1.76390	1.55632	1.19887	8.71438	6.77315	5.07590
91980	0.81145	0.76437	0.60231	4.69114	4.54979	3.88093	6.21816	4.03117	2.20691	3.16320	3.30753	3.30723	1.75305	1.43564	1.16181	8.85921	7.02922	5.03805
92150	0.72893	0.76313	0.53651	4.57827	4.19535	3.82965	6.08211	4.00361	2.19724	3.04591	2.89940	2.87767	1.76719	1.43725	1.19130	8.59995	6.76194	5.24812	21.28	6.1	0.00	7.15	0.01282	0.01294	0.01701	0.00783	0.00584	0.00640	0.00471	0.01272	0.01698	0.00682	0.00695	0.00913	0.01498	0.01104	0.01204	0.00219	0.00620	0.00873
92310	0.75072	0.76478	0.55111	4.51510	4.18334	3.84925	6.06374	3.93621	2.16164	3.02941	2.89471	2.70110	1.74173	1.44629	1.20131	8.61130	6.70098	4.97618
92470	0.73406	0.74712	0.55915	4.50271	4.11914	3.81624	6.04145	3.91746	2.17053	2.99820	2.90632	2.64317	1.75682	1.42421	1.22035	8.52297	6.58608	4.98209
92640	0.72482	0.76950	0.56961	4.47928	4.14287	3.76400	6.13905	3.92660	2.17458	2.97711	2.85913	2.64246	1.72806	1.40807	1.14754	8.55854	6.76812	5.05278
92800	0.73275	0.76585	0.52980	4.72732	4.22052	3.88340	6.05403	3.90052	2.18077	3.02163	3.00261	2.68183	1.72668	1.39441	1.15930	8.53781	6.61503	4.94122
92970	0.71750	0.74576	0.53394	4.48934	4.13108	3.78772	6.05661	3.93331	2.14982	2.96458	2.83194	2.67847	1.73366	1.42272	1.17804	8.56686	6.67323	4.97336
93130	0.73285	0.76099	0.53987	4.51317	4.15901	3.79912	6.05740	3.92015	2.15442	3.01956	2.89683	2.69455	1.76030	1.41331	1.18424	8.59503	6.70831	4.97717
93300	0.73905	0.76396	0.54826	4.56164	4.20500	3.86724	6.05474	3.91923	2.16160	2.99874	2.82448	2.67910	1.75358	1.44470	1.18721	8.56213	6.70328	5.07206
93460	0.74261	0.75834	0.55628	4.53498	4.20924	3.84750	6.06787	3.96072	2.19064	3.11234	2.92114	2.69599	1.74800	1.41279	1.17749	8.91302	6.69254	5.05760
93620	0.71832	0.74669	0.56483	4.47203	4.14179	3.82211	6.07626	3.94294	2.19240	3.06031	3.00543	2.77335	1.80418	1.46878	1.21197	8.68107	6.84608	5.19246
93790	0.72973	0.77828	0.55121	4.65489	4.16785	3.86378	6.03943	3.94493	2.19003	3.04222	2.91775	2.68884	1.81639	1.48307	1.18596	8.65596	6.75869	5.03819	21.41	6.0	0.00	7.57	0.01282	0.01294	0.01701	0.00783	0.00584	0.00640	0.00471	0.01272	0.01698	0.00682	0.00696	0.00913	0.01498	0.01104	0.01204	0.00219	0.00619	0.00873
93950	0.72649	0.76059	0.55568	4.56810	4.17051	3.84386	6.05708	3.95828	2.19451	3.33092	2.93771	2.75329	1.73522	1.43795	1.21302	8.58155	6.73340	5.04767
94120	0.75325	0.77739	0.59280	4.64860	4.17528	3.85054	6.07949	3.96316	2.17432	3.02106	2.87305	2.70284	1.73017	1.41307	1.15668	8.59156	6.67234	4.96928
94280	0.70864	0.73904	0.55142	4.47871	4.18041	3.79664	6.05429	3.97356	2.17815	3.01734	2.86600	2.71427	1.76114	1.42866	1.17775	8.57042	6.61552	4.96309
94450	0.71105	0.76782	0.55099	4.55145	4.22617	3.83123	6.05646	3.91468	2.18239	3.30608	2.89574	2.70543	1.73360	1.40009	1.18537	8.64977	6.72896	5.73432
94610	0.71263	0.76176	0.52831	4.50622	4.13961	3.78557	6.05042	3.93354	2.19268	2.98137	2.88286	2.66482	1.79457	1.41752	1.16585	8.60395	6.74540	5.00426
94780	0.78974	0.85412	0.61098	4.52292	4.17600	3.82190	6.07043	3.93794	2.16200	3.02815	2.85824	2.70855	1.73677	1.40251	1.17498	8.55133	6.66052	4.98979
94940	0.73540	0.74179	0.55887	4.57331	4.15127	3.82224	6.04221	3.92099	2.16146	3.03064	2.85027	2.70578	1.74163	1.43712	1.19083	8.66144	6.71262	5.13211
95110	0.74146	0.76354	0.57355	4.55727	4.18259	3.83987	6.11858	3.97703	2.29520	2.97745	2.88660	2.70381	1.76724	1.43665	1.19586	8.67914	6.68675	5.02148
95270	0.74161	0.75664	0.55661	4.56999	4.29343	3.89405	6.07490	3.96154	2.18108	3.02161	2.87966	2.69899	1.78583	1.42874	1.19808	8.64306	6.70867	5.04241
95440	0.73018	0.76404	0.56215	4.58163	4.18316	3.85997	6.11705	3.98226	2.18692	3.06967	2.94373	2.78028	1.76572	1.43502	1.20012	8.67598	6.79514	5.13588	21.35	6.0	0.00	7.12	0.01282	0.01294	0.01701	0.00783	0.00584	0.00640	0.00471	0.01272	0.01698	0.00682	0.00695	0.00913	0.01498	0.01104	0.01204	0.00219	0.00620	0.00873
95600	0.73827	0.76228	0.54857	4.58710	4.27086	3.90544	6.08414	3.94574	2.20351	3.10135	2.92176	2.75264	1.75522	1.45496	1.19280	8.61161	6.68709	5.05526
95770	0.73161	0.80601	0.55608	4.64039	4.25236	3.91696	6.08072	3.94962	2.19222	3.13211	2.97619	2.66256	1.74313	1.43423	1.20567	8.68130	6.74554	5.07813
95930	0.75363	0.79019	0.57555	4.56726	4.20460	3.85086	6.09548	4.02075	2.20848	3.07833	2.95701	2.75416	1.75761	1.42418	1.20822	8.58146	6.75131	5.03606
96100	0.78953	0.77725	0.58344	4.61393	4.25092	3.91869	6.11035	3.96282	2.19761	3.14214	2.95242	2.70992	1.75897	1.41162	1.19297	8.61804	6.67682	4.99438
96260	0.74324	0.79494	0.59952	4.53039	4.20353	3.87408	6.11940	3.95514	2.21979	2.99946	2.90949	2.71507	1.74571	1.42276	1.17906	8.64052	6.77905	5.02786
96430	0.73373	0.76012	0.54473	4.59045	4.22228	3.90827	6.06260	3.94516	2.17925	3.23283	3.10904	2.81404	1.75432	1.43233	1.18468	8.61381	6.70160	5.04682
96590	0.73773	0.74904	0.55334	4.57298	4.26428	3.83509	6.05547	3.93210	2.16792	3.00322	2.89344	2.73544	1.74273	1.43853	1.19826	8.62182	6.63846	5.02207
96760	0.76041	0.77318	0.56975	4.54794	4.21373	3.84093	6.05864	3.93870	2.17952	3.03651	2.92215	2.73386	1.74428	1.39868	1.16081	8.62650	6.70744	5.06691
96920	0.73709	0.74129	0.54563	4.58041	4.19646	3.85799	6.04701	3.91284	2.15670	3.07131	2.92306	2.68251	1.73526	1.41844	1.16392	8.52904	6.63738	5.04384
97090	0.71200	0.74230	0.54285	4.52972	4.18102	3.82916	6.01533	3.92900	2.15973	3.00831	2.84637	2.68741	1.73307	1.40189	1.15144	8.94152	6.63709	4.97315	21.35	6.1	0.00	7.18	0.01282	0.01294	0.01701	0.00783	0.00584	0.00640	0.00471	0.01272	0.01698	0.00682	0.00695	0.00913	0.01498	0.01104	0.01204	0.00219	0.00620	0.00873
97250	0.73303	0.74159	0.54833	4.56183	4.62772	3.85131	6.04847	3.91821	2.18010	2.98640	2.91621	2.69703	1.74488	1.49898	1.16914	8.58902	6.68564	5.04275
97420	0.74366	0.76034	0.55311	4.47602	4.13917	3.85700	6.08348	3.92634	2.15455	3.13302	2.87746	2.71788	1.75491	1.42627	1.16775	8.59086	6.64158	5.02652
97580	0.73643	0.75885	0.55154	4.51340	4.15869	3.78185	6.02077	3.89814	2.18208	2.99004	2.88331	2.66228	1.72063	1.42024	1.21888	8.51515	6.65320	5.02238
97750	0.71349	0.74160	0.56037	4.55648	4.15610	3.84599	6.04123	3.91530	2.19462	2.98072	2.85856	2.68232	1.77676	1.46998	1.20323	8.52859	7.04747	4.95630
97910	0.76231	0.74776	0.57495	4.50319	4.17752	3.92474	6.06836	3.96798	2.21481	3.12500	2.95743	2.70590	1.76923	1.39861	1.21307	8.57085	6.64171	4.98164
98080	0.74200	0.75282	0.55517	4.53688	4.18479	3.86379	6.08674	3.95993	2.18087	3.04539	2.89226	2.69081	1.76080	1.41746	1.21162	8.56314	6.70681	4.98982
98240	0.74660	0.76051	0.55670	4.48223	4.17957	3.77326	6.04506	3.90219	2.15542	3.06202	2.88826	2.66827	1.74052	1.42658	1.16106	8.54161	6.61994	4.94712
98400	0.71680	0.78090	0.54592	4.47380	4.14002	3.81175	6.03503	3.93236	2.16540	2.96569	2.84294	2.69657	1.73657	1.39953	1.16576	8.56577	6.70214	4.97712
98570	0.72108	0.74988	0.53890	4.48890	4.13685	3.81491	6.01397	3.91881	2.14154	2.97245	2.85565	2.65863	1.72466	1.42417	1.19693	8.63401	6.71096	4.97922
98740	0.72898	0.73670	0.55318	4.54526	4.14735	3.78262	6.07062	3.90888	2.14459	2.99370	2.86345	2.65791	1.76399	1.42005	1.20715	8.59854	6.62711	5.00488	21.35	6.1	0.00	7.20	0.01282	0.01294	0.01701	0.00783	0.00584	0.00640	0.00471	0.01272	0.01698	0.00682	0.00695	0.00913	0.01498	0.01104	0.01204	0.00219	0.00620	0.00873
98900	0.71271	0.75811	0.55522	4.57211	4.16326	3.81353	6.02149	3.93106	2.18653	3.01160	2.87212	2.70398	1.72888	1.42233	1.18220	8.59484	6.73097	4.99156
99070	0.73184	0.75306	0.53572	4.47869	4.14200	3.85839	6.02810	3.93264	2.16294	3.02051	2.85313	2.65937	1.73416	1.41979	1.17229	8.53813	6.60345	4.93816
99230	0.72387	0.74815	0.53850	4.53114	4.18530	3.85401	6.04794	3.94215	2.14981	3.02343	2.86600	2.66962	1.73783	1.42090	1.15863	8.66737	6.64444	5.17193
99400	0.73823	0.74550	0.53429	4.50067	4.19737	3.84920	6.05815	3.93863	2.17834	3.04145	2.94867	2.72110	1.73035	1.41776	1.15809	8.56763	6.66586	5.20932
99560	0.73412	0.74850	0.54502	4.48692	4.12849	3.82519	6.04923	3.95048	2.16524	2.99800	2.82650	2.73556	1.74344	1.40391	1.16222	8.56605	6.60082	4.91946
99730	0.72794	0.74545	0.54048	4.44488	4.07698	3.82001	6.01975	3.92737	2.18342	2.99094	2.86682	2.61401	1.74363	1.40853	1.14702	8.45092	6.66266	4.95084
99890	0.71781	0.74566	0.53189	4.44803	4.19993	3.84448	6.03446	3.92590	2.17091	3.02472	2.86253	2.65815	1.73567	1.43323	1.17787	8.54976	6.65974	5.03209
100060	0.73378	0.75009	0.57505	4.48125	4.18910	3.88766	6.02332	3.93231	2.14714	3.08132	2.96512	2.69040	1.72724	1.41221	1.19427	8.56745	6.62636	4.96937
100220	0.73331	0.76805	0.57147	4.53142	4.22587	3.84936	6.05286	3.94268	2.17591	2.98623	2.87547	2.72481	1.75793	1.42359	1.19592	8.54958	6.63304	4.99388
100390	0.72453	0.75592	0.55803	4.49709	4.13328	3.80142	6.02392	3.92255	2.16784	2.98786	2.85648	2.71797	1.73937	1.42045	1.17032	8.51678	6.65004	4.96603	21.48	6.1	0.00	7.20	0.01282	0.01294	0.01701	0.00783	0.00584	0.00640	0.00471	0.01272	0.01698	0.00682	0.00695	0.00912	0.01498	0.01104	0.01204	0.00219	0.00620	0.00873
100550	0.77503	0.75586	0.56420	4.49052	4.12091	3.82622	6.03980	3.92383	2.15329	3.19046	2.87073	2.67205	1.72128	1.40647	1.16893	8.52498	6.62408	4.95168
100720	0.71579	0.73340	0.56240	4.48184	4.12459	3.80440	6.05825	3.94455	2.17206	2.99320	2.88367	2.69331	1.73690	1.42891	1.18446	8.52001	6.63202	4.97355
100880	0.73272	0.76588	0.55248	4.45969	4.12900	3.75103	6.03926	3.93998	2.16245	3.00078	2.84229	2.71062	1.72887	1.42664	1.16855	8.67405	6.70581	5.01544
101050	0.72767	0.73624	0.55263	4.54453	4.17401	3.85309	6.06276	3.93804	2.16554	3.13960	3.04662	2.76211	1.77826	1.41818	1.17960	8.59480	6.67694	5.12243
101210	0.73851	0.75922	0.56412	4.59226	4.23206	3.89501	6.07043	3.94662	2.17212	3.09128	2.91013	2.70770	1.76282	1.43006	1.19650	8.58759	6.68635	5.00726
101380	0.74485	0.76997	0.54571	4.49929	4.19309	3.88836	6.03568	3.93192	2.16715	3.01031	2.90098	2.70142	1.72797	1.40999	1.16616	8.54394	6.64699	4.98440
101540	0.75824	0.74193	0.55938	4.54374	4.10071	3.80477	6.01134	3.91196	2.16367	3.15208	2.85578	2.67333	1.72708	1.39226	1.16673	8.56627	6.63847	4.96371
101710	0.72120	0.73477	0.52883	4.56358	4.18078	3.84057	6.04784	3.90864	2.17975	3.01859	2.83107	2.65271	1.73014	1.41834	1.15963	8.49239	6.62541	4.97601
101870	0.73000	0.73625	0.55721	4.47272	4.16024	3.82376	6.03352	3.92642	2.15017	2.98920	2.90341	2.72019	1.73600	1.42240	1.17555	8.57802	6.63197	5.02470
102040	0.71308	0.75918	0.55177	4.59749	4.16520	3.83498	6.02976	3.99105	2.17799	3.05050	2.87053	2.70157	1.76156	1.46272	1.17655	8.58572	6.67737	4.98338	21.41	6.0	0.00	7.23	0.01282	0.01294	0.01701	0.00783	0.00584	0.00640	0.00471	0.01272	0.01698	0.00682	0.00695	0.00912	0.01498	0.01104	0.01204	0.00219	0.00620	0.00873
102200	0.72895	0.74084	0.54775	4.52517	4.13380	3.81184	6.03217	3.93532	2.17537	3.03864	2.86782	2.67936	1.71779	1.42559	1.15762	8.61237	6.67533	5.07956
102370	0.70188	0.73319	0.56718	4.51088	4.12258	3.86358	6.02693	3.90640	2.15768	3.01971	2.87039	2.71319	1.74077	1.43504	1.17204	8.81715	6.94021	5.03206
102530	0.72709	0.74359	0.55633	4.54215	4.22908	3.78399	6.03799	3.94919	2.16797	3.05132	2.90265	2.67029	1.75808	1.41331	1.17050	8.58756	6.70063	4.97927
102690	0.73334	0.76085	0.55918	4.56792	4.16705	3.85001	6.07459	3.95300	2.16340	3.00090	2.85535	2.68449	1.73416	1.41401	1.18634	8.56475	6.67485	5.01015
102860	0.73063	0.76578	0.55568	4.47220	4.12522	3.83823	6.04578	3.94613	2.19135	2.95635	2.87956	2.66254	1.73156	1.41924	1.16013	8.54016	6.63819	4.96510
103020	0.72609	0.73763	0.53610	4.52646	4.15151	3.76071	6.03862	3.93140	2.19223	3.01959	2.94969	2.65984	1.73228	1.43567	1.18074	8.58230	6.62707	4.95306
103190	0.71640	0.72776	0.52044	4.50529	4.16958	3.85865	6.02810	3.93171	2.16715	3.01509	2.87039	2.66311	1.72869	1.41790	1.16379	8.53177	6.65348	4.95216
103350	0.72050	0.73899	0.53948	4.51935	4.20117	3.81911	6.04328	3.93457	2.17518	2.98708	2.86857	2.65215	1.72974	1.41544	1.15947	8.62549	6.65952	5.02250
103520	0.72759	0.74992	0.55065	4.49985	4.20285	3.79804	6.07655	3.95912	2.18711	3.02670	2.88365	2.71069	1.73841	1.44952	1.20206	8.64571	6.69588	5.04938
103680	0.73886	0.75390	0.54407	4.57810	4.17836	3.84162	6.08015	3.93969	2.18348	3.01205	2.90906	2.67854	1.75947	1.40013	1.17136	8.57162	6.75896	5.00946	21.41	6.1	0.00	7.25	0.01282	0.01294	0.01701	0.00783	0.00584	0.00640	0.00471	0.01272	0.01698	0.00682	0.00695	0.00912	0.01498	0.01104	0.01204	0.00218	0.00620	0.00873
103840	0.71567	0.73100	0.54335	4.51711	4.19418	3.86574	6.08683	3.94683	2.19248	3.01872	2.91342	2.69310	1.74971	1.41496	1.16561	8.59959	6.72588	5.02752
104010	0.74205	0.75367	0.54421	4.51845	4.19553	3.83094	6.05957	3.95606	2.17595	2.98966	2.86345	2.66176	1.77991	1.43406	1.17934	8.53883	6.68574	4.95662
104170	0.73855	0.78477	0.57029	4.53283	4.17244	3.82452	6.06879	3.93539	2.16328	3.01274	2.89461	2.67097	1.73530	1.45145	1.17169	8.56232	6.69887	5.04352
104340	0.73289	0.74223	0.53815	4.48624	4.17046	3.84588	6.06353	3.96208	2.14797	3.01927	2.90541	2.71513	1.75126	1.41868	1.17233	8.58515	6.75149	5.07024
104500	0.73593	0.77000	0.57276	4.57048	4.19500	3.90567	6.07200	3.92711	2.14838	3.16019	2.97271	2.73835	1.73594	1.41365	1.17852	8.58507	6.64668	5.02610
104660	0.71575	0.75067	0.55134	4.50935	4.17145	3.83943	6.04174	3.94043	2.17322	3.05917	2.93388	2.70388	1.76033	1.41032	1.18289	8.62542	6.76499	5.09707
104830	0.75295	0.77457	0.54974	4.51677	4.29705	3.85204	6.07209	3.96520	2.19874	3.00725	2.89988	2.68507	1.74238	1.40879	1.15988	8.54873	6.63427	4.98470
104990	0.73296	0.75098	0.53947	4.48263	4.14606	3.80495	6.06537	3.95317	2.16753	3.01343	2.86819	2.66493	1.75897	1.41386	1.17309	8.59140	6.69122	5.03726
105160	0.73268	0.75302	0.55295	4.51896	4.15331	3.81725	6.03109	3.94364	2.15287	2.98470	2.85202	2.70824	1.72443	1.41228	1.15777	8.55512	6.64920	4.99408
105320	0.72157	0.74269	0.55175	4.51892	4.18347	3.84322	6.06073	3.94319	2.18919	3.01983	2.88917	2.67530	1.74913	1.40157	1.18039	8.55883	6.74900	5.04057	21.41	6.2	0.00	7.19	0.01282	0.01294	0.01701	0.00783	0.00584	0.00640	0.00471	0.01272	0.01698	0.00682	0.00695	0.00912	0.01498	0.01104	0.01204	0.00218	0.00619	0.00873
105490	0.73644	0.75788	0.55908	4.52551	4.17656	3.84935	6.06435	3.91281	2.18219	3.06968	2.94058	2.75930	1.73776	1.42158	1.16635	8.63927	6.73347	5.06717
105650	0.71580	0.74486	0.53656	4.57931	4.21650	3.82649	6.04964	3.94019	2.17874	3.07137	2.87298	2.67134	1.75489	1.44197	1.17943	8.57524	6.69314	5.00697
105810	0.72869	0.74813	0.53834	4.54482	4.16749	3.85661	6.06331	4.00247	2.19677	3.02048	2.90766	2.74328	1.75507	1.41235	1.18684	8.71387	6.77872	5.10085
105980	0.72442	0.77276	0.55241	4.60496	4.18966	3.89594	6.05097	3.94391	2.18867	3.03073	2.90522	2.71234	1.75850	1.41924	1.16570	8.67734	6.69961	5.04825
106140	0.73307	0.77899	0.53851	4.53961	4.17222	3.81720	6.07224	3.95300	2.17782	3.05031	3.38485	2.74925	1.73116	1.41447	1.19453	8.64758	6.74377	5.08052
106310	0.76173	0.76900	0.56026	4.56428	4.22799	3.88738	6.09749	3.94986	2.20299	2.99373	2.85155	2.70394	1.73270	1.43154	1.18275	8.63583	6.70560	5.06720
106470	0.72706	0.76859	0.57898	4.53177	4.26931	3.88819	6.06210	3.91517	2.17998	3.05191	2.88979	2.67276	1.75799	1.42100	1.19683	8.63795	6.76250	4.97116
106640	0.74403	0.75860	0.55014	4.55160	4.19758	3.83535	6.08469	3.92427	2.17198	3.03788	2.90903	2.73025	1.76452	1.42866	1.18351	8.60417	6.72908	5.03016
106800	0.75298	0.75768	0.56064	4.50673	4.14200	3.86419	6.05226	3.94145	2.14941	3.01964	2.86189	2.72207	1.73156	1.40137	1.18064	8.56067	6.72317	5.08616
106970	0.72436	0.74656	0.55004	4.47630	4.18343	3.83119	6.05193	3.93320	2.16647	3.01468	2.87770	2.67009	1.73494	1.42537	1.17742	8.57683	6.73908	4.94850	21.41	6.1	0.00	7.15	0.01282	0.01294	0.01701	0.00783	0.00584	0.00640	0.00471	0.01272	0.01698	0.00682	0.00695	0.00912	0.01498	0.01104	0.01204	0.00218	0.00619	0.00873
107130	0.71722	0.75023	0.53741	4.50803	4.18234	3.81384	6.04713	3.92685	2.18403	3.04183	2.87902	2.74463	1.73939	1.41734	1.16064	8.52942	6.62859	4.97231
107300	0.72964	0.75931	0.54146	4.59938	4.19159	3.89459	6.06377	3.93302	2.20748	3.03177	2.88602	2.71780	1.73710	1.39621	1.16119	8.53511	6.68568	5.00973
