WetView ver 7.1	07-17-2018	16:08:29
AC9 Absorption and Attenuation Meter
00000266		; Serial number
2	; structure version number
Reserved
0.000000	0.000000		; Depth calibration
19200			; Baud rate
0.100000			; Path length (meters)
31			; number of temperature calibration bins
				12.59339	13.44920	14.48425	15.49668	16.50852	17.49564	18.50545	19.52458	20.50176	21.48889	22.47318	23.48707	24.50962	25.49370	26.49784	27.51372	28.50746	29.47237	30.47938	31.50214	32.50470	33.49235	34.50337	35.50914	36.50618	37.52058	38.51018	39.51308	40.49994	41.49866	42.47204	; temperature bins
a650	Blue	20.34952		-0.00383	-0.00415	-0.00430	-0.00391	-0.00363	-0.00317	-0.00269	-0.00237	-0.00179	-0.00130	-0.00099	-0.00071	-0.00015	0.00000	0.00004	-0.00001	0.00015	0.00036	0.00058	0.00101	0.00161	0.00132	0.00160	0.00169	0.00242	0.00273	0.00336	0.00365	0.00427	0.00566	0.00670		; offset and temperature correction info
a676	Green	20.51193		-0.00398	-0.00384	-0.00360	-0.00306	-0.00302	-0.00255	-0.00235	-0.00212	-0.00163	-0.00136	-0.00118	-0.00089	-0.00029	0.00000	0.00068	0.00082	0.00099	0.00137	0.00145	0.00212	0.00260	0.00252	0.00321	0.00354	0.00457	0.00535	0.00617	0.00648	0.00742	0.00887	0.01002		; offset and temperature correction info
a715	Brown	20.23230		-0.00421	-0.00394	-0.00391	-0.00291	-0.00264	-0.00192	-0.00204	-0.00179	-0.00188	-0.00239	-0.00180	-0.00187	-0.00099	0.00000	0.00084	0.00162	0.00188	0.00224	0.00321	0.00381	0.00466	0.00528	0.00588	0.00696	0.00859	0.01041	0.01148	0.01282	0.01333	0.01456	0.01617		; offset and temperature correction info
c510	Red	20.40042		-0.00261	-0.00247	-0.00258	-0.00225	-0.00203	-0.00197	-0.00199	-0.00203	-0.00154	-0.00103	-0.00069	-0.00019	-0.00007	0.00000	0.00011	-0.00021	-0.00042	-0.00056	-0.00040	0.00011	0.00036	0.00050	0.00077	0.00079	0.00050	0.00042	0.00043	0.00092	0.00147	0.00200	0.00232		; offset and temperature correction info
c532	Magenta	20.40760		-0.00248	-0.00265	-0.00278	-0.00279	-0.00296	-0.00292	-0.00238	-0.00206	-0.00129	-0.00096	-0.00092	-0.00052	-0.00009	0.00000	0.00007	-0.00049	-0.00136	-0.00107	-0.00079	-0.00065	-0.00074	-0.00105	-0.00152	-0.00192	-0.00236	-0.00269	-0.00252	-0.00233	-0.00172	-0.00128	-0.00067		; offset and temperature correction info
c555	Black	20.50654		-0.00053	-0.00063	-0.00106	-0.00094	-0.00068	-0.00055	-0.00053	-0.00039	-0.00028	-0.00025	-0.00011	-0.00035	-0.00007	0.00000	-0.00037	-0.00055	-0.00036	-0.00014	0.00019	0.00044	0.00032	0.00040	0.00050	0.00028	0.00014	0.00013	0.00030	0.00073	0.00117	0.00176	0.00241		; offset and temperature correction info
a412	LtBlue	17.15231		-0.01972	-0.01823	-0.01612	-0.01381	-0.01272	-0.01080	-0.00959	-0.00866	-0.00710	-0.00532	-0.00354	-0.00148	-0.00028	0.00000	0.00176	0.00297	0.00394	0.00440	0.00453	0.00487	0.00804	0.00856	0.01065	0.01248	0.01388	0.01439	0.01659	0.01881	0.02256	0.02450	0.02719		; offset and temperature correction info
a440	LtGreen	18.00171		-0.00729	-0.00642	-0.00581	-0.00502	-0.00426	-0.00349	-0.00244	-0.00218	-0.00179	-0.00101	-0.00046	-0.00006	0.00036	0.00000	0.00040	0.00045	0.00030	-0.00015	-0.00024	-0.00035	0.00012	-0.00013	-0.00033	-0.00089	-0.00142	-0.00189	-0.00231	-0.00205	-0.00140	-0.00140	-0.00146		; offset and temperature correction info
a488	Yellow	18.86491		-0.00113	-0.00102	-0.00106	-0.00064	-0.00027	-0.00020	-0.00030	-0.00037	-0.00047	-0.00059	-0.00052	-0.00012	0.00008	0.00000	0.00025	0.00012	-0.00013	-0.00043	-0.00065	-0.00076	-0.00025	0.00010	0.00090	0.00111	0.00113	0.00104	0.00073	0.00068	0.00120	0.00186	0.00258		; offset and temperature correction info
c650	Blue	20.46075		-0.00145	-0.00097	-0.00092	-0.00139	-0.00185	-0.00196	-0.00237	-0.00266	-0.00238	-0.00163	-0.00083	-0.00041	-0.00010	0.00000	0.00005	-0.00001	0.00015	0.00034	0.00029	0.00065	0.00101	0.00164	0.00126	0.00156	0.00175	0.00270	0.00287	0.00371	0.00407	0.00473	0.00534		; offset and temperature correction info
c676	Green	20.10118		-0.00170	-0.00144	-0.00149	-0.00177	-0.00188	-0.00194	-0.00198	-0.00196	-0.00177	-0.00156	-0.00140	-0.00091	-0.00033	0.00000	0.00050	0.00092	0.00110	0.00141	0.00167	0.00199	0.00216	0.00265	0.00269	0.00289	0.00315	0.00374	0.00367	0.00408	0.00486	0.00561	0.00646		; offset and temperature correction info
c715	Brown	19.91219		-0.01201	-0.01097	-0.00859	-0.00680	-0.00651	-0.00592	-0.00535	-0.00440	-0.00387	-0.00303	-0.00222	-0.00153	-0.00028	0.00000	0.00093	0.00149	0.00247	0.00322	0.00330	0.00427	0.00373	0.00464	0.00536	0.00551	0.00643	0.00733	0.00779	0.00884	0.00899	0.01021	0.01120		; offset and temperature correction info
a510	Red	19.21192		0.00201	0.00193	0.00158	0.00098	0.00089	0.00049	0.00011	-0.00016	-0.00016	-0.00005	0.00028	0.00025	0.00006	0.00000	0.00035	-0.00022	-0.00023	-0.00080	-0.00144	-0.00154	-0.00153	-0.00204	-0.00220	-0.00219	-0.00190	-0.00128	-0.00069	-0.00018	0.00068	0.00152	0.00241		; offset and temperature correction info
a532	Magenta	19.41084		-0.00097	-0.00072	-0.00060	-0.00081	-0.00062	-0.00071	-0.00040	0.00020	0.00028	0.00043	0.00000	-0.00035	0.00007	0.00000	-0.00011	-0.00059	-0.00080	-0.00098	-0.00137	-0.00162	-0.00163	-0.00130	-0.00073	-0.00018	0.00090	0.00185	0.00175	0.00247	0.00291	0.00327	0.00349		; offset and temperature correction info
a555	Black	19.69776		0.00171	0.00183	0.00183	0.00186	0.00191	0.00170	0.00115	0.00131	0.00097	0.00073	0.00060	0.00013	0.00015	0.00000	0.00014	-0.00029	-0.00066	-0.00082	-0.00116	-0.00139	-0.00134	-0.00167	-0.00119	-0.00093	-0.00048	0.00053	0.00111	0.00095	0.00178	0.00206	0.00273		; offset and temperature correction info
c412	LtBlue	19.91180		-0.02051	-0.01853	-0.01589	-0.01311	-0.01059	-0.00877	-0.00705	-0.00581	-0.00413	-0.00231	-0.00098	-0.00066	-0.00011	0.00000	-0.00013	-0.00085	-0.00170	-0.00170	-0.00302	-0.00330	-0.00429	-0.00551	-0.00626	-0.00775	-0.00978	-0.01181	-0.01113	-0.01108	-0.01116	-0.01192	-0.01291		; offset and temperature correction info
c440	LtGreen	20.06241		-0.01064	-0.00992	-0.00892	-0.00766	-0.00639	-0.00531	-0.00478	-0.00384	-0.00287	-0.00187	-0.00102	-0.00063	-0.00023	0.00000	-0.00007	-0.00053	-0.00090	-0.00119	-0.00169	-0.00197	-0.00226	-0.00257	-0.00260	-0.00289	-0.00394	-0.00470	-0.00481	-0.00493	-0.00520	-0.00580	-0.00620		; offset and temperature correction info
c488	Yellow	20.35984		-0.01125	-0.01082	-0.00966	-0.00833	-0.00726	-0.00661	-0.00579	-0.00500	-0.00389	-0.00278	-0.00167	-0.00113	-0.00041	0.00000	0.00055	0.00121	0.00187	0.00226	0.00222	0.00251	0.00281	0.00359	0.00414	0.00427	0.00401	0.00404	0.00486	0.00563	0.00638	0.00684	0.00718		; offset and temperature correction info
0.003500	0.004000	0.015000	0.020000	0.015000	0.020000	2500.000000	2000.000000	1000.000000	; maxANoise	maxCNoise	maxADifference	maxCDifference	minACounts	minCCounts	minRCounts	maxTempSdev	maxDepthSdev
0			; auxilliary capabilities
1			; acquisition binsize
0	0.73258	0.77147	0.53164	4.46950	4.11700	3.80197	6.06992	3.93431	2.15620	2.98495	2.86134	2.64662	1.73039	1.40131	1.18791	8.53488	6.64916	5.01165	19.58	6.1	0.00	7.08	0.01286	0.01297	0.01711	0.00786	0.00586	0.00642	0.00473	0.01277	0.01704	0.00685	0.00698	0.00918	0.01503	0.01108	0.01208	0.00220	0.00622	0.00877
170	0.72204	0.74482	0.52987	4.47526	4.09414	3.76425	6.04744	3.91061	2.17376	2.95862	2.88208	2.65988	1.72584	1.39114	1.14273	8.53410	6.67732	4.96014
330	0.71017	0.74390	0.52827	4.45313	4.12156	3.77217	6.03949	3.93778	2.16820	3.00079	2.88432	2.68555	1.72812	1.40659	1.16463	8.47782	6.62342	4.96599
500	0.69978	0.72111	0.52744	4.47782	4.11560	3.79000	6.01847	3.90691	2.14540	2.99023	2.87580	2.69000	1.72672	1.40180	1.16249	8.49305	6.65249	5.03486
660	0.71083	0.73675	0.53642	4.52037	4.10602	3.77855	6.08023	3.93558	2.17407	2.99888	2.88703	2.68881	1.74155	1.40928	1.15989	8.51620	6.65803	5.00423
830	0.72479	0.74237	0.54329	4.52493	4.18458	3.86085	6.05834	3.94331	2.19775	2.99788	2.86592	2.64594	1.73707	1.40007	1.16101	8.57200	6.61526	4.95982
990	0.72732	0.75075	0.54673	4.53633	4.11423	3.82619	6.07084	3.95834	2.15331	2.96910	2.82553	2.60371	1.73329	1.43494	1.19350	8.53027	6.61498	4.93077
1160	0.72370	0.75301	0.54736	4.47376	4.11166	3.76486	6.03510	3.91489	2.17234	2.93057	2.80838	2.63182	1.71709	1.40376	1.15255	8.51359	6.64433	4.93941
1320	0.71330	0.74750	0.52024	4.43460	4.13489	3.76063	6.02765	3.92312	2.17043	2.99741	2.79771	2.64930	1.73012	1.40854	1.16415	8.52271	6.59392	4.92030
1490	0.73463	0.74563	0.53870	4.45433	4.09442	3.74974	6.03237	3.91090	2.14858	2.94759	2.82060	2.63662	1.71154	1.39502	1.14847	8.47955	6.56788	4.97070
1650	0.70392	0.73319	0.52117	4.51826	4.14059	3.81690	6.02743	3.90332	2.14791	2.95480	2.84847	2.66021	1.72829	1.42644	1.15547	8.52582	6.61521	4.97336	19.58	6.1	0.00	7.20	0.01286	0.01297	0.01711	0.00786	0.00586	0.00642	0.00473	0.01277	0.01704	0.00685	0.00697	0.00918	0.01503	0.01108	0.01208	0.00220	0.00622	0.00877
1810	0.73451	0.72450	0.54672	4.47219	4.15368	3.86466	6.05471	3.94255	2.18265	3.02972	2.91581	2.67272	1.76853	1.40050	1.17299	8.53424	6.67743	4.96533
1980	0.72874	0.72775	0.54247	4.51255	4.14992	3.78408	6.04588	3.91442	2.14806	3.00920	2.89055	2.65331	1.73506	1.40494	1.16797	8.52634	6.59948	5.02592
2140	0.71508	0.73537	0.53617	4.54029	4.16471	3.77414	6.02470	3.92465	2.15037	3.00670	2.88019	2.68458	1.72640	1.39337	1.15688	8.56140	6.59993	5.04824
2310	0.72265	0.75389	0.55782	4.46078	4.13168	3.81384	6.06982	3.96171	2.17463	3.17584	2.91491	2.72585	1.74005	1.42461	1.16292	8.52912	6.64932	4.97255
2470	0.73342	0.74893	0.54772	4.49218	4.14171	3.83001	6.06795	3.92811	2.18600	3.03850	2.90422	2.67762	1.75308	1.39650	1.17540	8.59047	6.67517	4.99453
2630	0.70975	0.74502	0.55887	4.52158	4.17467	3.81050	6.06052	3.94431	2.17509	3.00153	2.85322	2.69307	1.74960	1.40195	1.17027	8.57388	6.59659	4.98952
2800	0.73670	0.75234	0.53773	4.50363	4.13510	3.84741	6.00830	3.91126	2.14098	2.97954	2.84397	2.65450	1.73106	1.40278	1.15963	8.54242	6.60670	4.94720
2960	0.72838	0.74069	0.52991	4.49080	4.10794	3.76015	6.01780	3.90957	2.16254	3.00733	3.17593	2.66282	1.74384	1.40893	1.15985	8.58470	6.62529	5.00081
3130	0.73942	0.76772	0.54616	4.46426	4.15040	3.81590	6.03090	3.90181	2.15706	2.99646	2.89835	2.73191	1.76141	1.43963	1.16322	8.53407	6.64527	4.96013
3290	0.71389	0.73738	0.54896	4.45917	4.09853	3.77269	6.03517	3.92040	2.16977	2.94973	2.83183	2.66794	1.73331	1.39019	1.15225	8.53724	6.66668	4.94432	19.65	5.9	0.00	7.06	0.01286	0.01297	0.01710	0.00786	0.00586	0.00642	0.00473	0.01277	0.01704	0.00685	0.00698	0.00918	0.01503	0.01108	0.01208	0.00220	0.00622	0.00877
3460	0.71133	0.74298	0.56485	4.44962	4.12892	3.77543	6.04093	3.91804	2.17918	2.96916	2.87486	2.71342	1.75487	1.42165	1.16282	8.57172	6.63423	4.94555
3620	0.72111	0.74732	0.54791	4.52972	4.24459	3.84113	6.06240	3.93063	2.17878	2.99924	2.89811	2.67389	1.76565	1.43743	1.19970	8.55786	6.64573	4.97711
3790	0.74019	0.78578	0.54300	4.53233	4.22114	3.87022	6.05149	3.92678	2.18476	3.02923	2.90951	2.72474	1.76203	1.42184	1.16565	8.60816	6.67797	4.98404
3950	0.76762	0.75484	0.55724	4.58831	4.19309	3.84197	6.05808	3.92400	2.16099	2.99692	2.86537	2.69566	1.77201	1.40614	1.19081	8.56057	6.64691	5.00260
4110	0.71937	0.76864	0.55926	4.53110	4.19006	3.77840	6.03604	3.96112	2.20385	3.09096	2.92635	2.67337	1.74594	1.41968	1.17488	8.53637	6.67380	5.07263
4280	0.74890	0.75267	0.54260	4.49172	4.13986	3.82148	6.05107	3.94744	2.17328	3.02429	2.86722	2.70180	1.75054	1.41878	1.15897	8.67932	6.67177	5.00137
4440	0.72326	0.74563	0.54615	4.51153	4.16171	3.85362	6.04453	3.94224	2.16324	3.06406	2.94164	2.70274	1.73518	1.42587	1.20824	8.58997	6.70131	5.04459
4610	0.75054	0.75460	0.53673	4.49829	4.13772	3.86282	6.06385	4.01416	2.19785	3.01305	2.86324	2.67139	1.76760	1.42432	1.20713	8.55029	6.68801	4.98388
4770	0.72342	0.75080	0.54348	4.53999	4.15399	3.75281	6.06800	3.92346	2.18076	3.01126	2.86527	2.67910	1.74276	1.40790	1.31537	8.50288	6.64001	4.96877
4940	0.72377	0.74114	0.52887	4.48959	4.09771	3.80899	6.03327	3.90710	2.15147	2.99084	2.87311	2.65603	1.72193	1.39904	1.17060	8.56342	6.62006	4.97243	19.72	6.1	0.00	7.07	0.01286	0.01297	0.01710	0.00786	0.00586	0.00642	0.00473	0.01277	0.01704	0.00685	0.00698	0.00918	0.01503	0.01108	0.01208	0.00220	0.00622	0.00877
5100	0.71733	0.74018	0.54914	4.46731	4.11361	3.78914	6.01157	3.91870	2.20491	2.98629	2.84994	2.63734	1.72131	1.39694	1.16609	8.50219	6.61559	4.92143
5260	0.71390	0.73351	0.55626	4.49388	4.12407	3.79385	6.06402	3.94885	2.16350	2.98553	2.88311	2.64669	1.74450	1.42774	1.17215	8.62545	6.65990	5.01299
5430	0.72347	0.74701	0.55363	4.49900	4.15873	3.79117	6.03899	3.93981	2.17623	2.99917	2.86270	2.71767	1.75694	1.42004	1.18796	8.54905	6.65206	4.94043
5590	0.73180	0.76727	0.55897	4.48925	4.11200	3.78407	6.04673	3.94300	2.18002	2.98530	2.86249	2.67113	1.72515	1.42588	1.15387	8.54984	6.59299	4.91782
5750	0.72049	0.73084	0.53914	4.41938	4.11536	3.77438	6.04540	3.92390	2.15967	2.94911	2.86499	2.68913	1.73071	1.39276	1.15955	8.60068	6.68617	4.98050
5920	0.71897	0.73766	0.55282	4.49566	4.12485	3.82077	6.09171	3.93424	2.14033	3.00944	2.87944	2.71967	1.72517	1.41600	1.17645	8.52707	6.61662	4.97854
6080	0.73051	0.75402	0.54927	4.49168	4.15427	3.78620	6.04901	3.89717	2.16558	3.03640	2.87387	2.69776	1.75963	1.40698	1.18526	8.50081	6.64415	5.05941
6250	0.72802	0.76778	0.55401	4.52254	4.12531	3.81105	6.05568	3.91865	2.16652	3.02083	2.89340	2.69705	1.75211	1.42061	1.16788	8.57230	6.67588	4.94595
6410	0.74710	0.75938	0.55572	4.46191	4.15193	3.83691	6.07769	3.94499	2.17470	3.01352	2.93760	2.74718	1.75225	1.42452	1.18815	8.59535	6.88694	5.02550
6570	0.73601	0.73500	0.52613	4.49522	4.21328	3.79464	6.02428	3.91933	2.15922	3.06565	2.92865	2.74654	1.74331	1.41914	1.18414	8.57562	6.69125	4.96136	19.58	6.0	0.00	7.10	0.01286	0.01297	0.01710	0.00786	0.00587	0.00642	0.00473	0.01277	0.01704	0.00685	0.00698	0.00918	0.01503	0.01108	0.01208	0.00220	0.00622	0.00877
6740	0.73679	0.77464	0.55608	4.56724	4.26112	3.93174	6.06348	3.94058	2.19586	3.17621	2.87078	2.71774	1.77515	1.51495	1.19416	8.59842	6.67859	5.03520
6900	0.73727	0.81257	0.53184	4.54874	4.18797	3.79869	6.03132	3.90594	2.15615	2.95749	2.85131	2.63837	1.72725	1.41111	1.17207	8.52653	6.59760	4.97678
7060	0.73230	0.74630	0.53030	4.44107	4.15269	3.81381	6.05605	3.91910	2.15572	2.99118	2.83022	2.65803	1.73831	1.42595	1.18311	8.48520	6.60549	4.96815
7230	0.73762	0.72760	0.54286	4.50041	4.20054	3.79310	6.02383	3.89383	2.14301	2.96850	2.89218	2.66539	1.73911	1.41405	1.15725	8.52757	6.64407	4.99548
7390	0.71492	0.74150	0.53978	4.48765	4.12198	3.83528	6.04875	3.90465	2.17940	2.95049	2.82173	2.65521	1.74041	1.42102	1.17533	8.54617	6.66150	4.99630
7560	0.72148	0.73668	0.54650	4.45974	4.11437	3.76183	6.01718	3.91684	2.14748	2.99855	2.85584	2.69603	1.71469	1.41022	1.14753	8.53391	6.62178	4.96167
7720	0.71617	0.72059	0.53193	4.41030	4.10004	3.75934	6.03715	3.92727	2.16886	2.97533	2.82722	2.65026	1.71181	1.39406	1.16414	8.55905	6.64060	4.95596
7880	0.72541	0.74257	0.53977	4.48572	4.11680	3.76468	6.04809	3.90767	2.16635	2.98572	2.85740	2.66880	1.72002	1.39034	1.14730	8.53496	6.63587	4.97316
8050	0.71789	0.73866	0.53922	4.46743	4.16788	3.80288	6.02354	3.88469	2.15119	2.95424	2.86747	2.66571	1.72017	1.39564	1.14102	8.48028	6.61776	4.95272
8210	0.74194	0.75279	0.53684	4.49556	4.12694	3.76580	6.03644	3.90314	2.15596	2.96058	2.84218	2.63203	1.73040	1.40781	1.16023	8.52950	6.60480	4.92136	19.72	6.0	0.00	7.12	0.01286	0.01297	0.01710	0.00786	0.00587	0.00642	0.00473	0.01277	0.01704	0.00685	0.00697	0.00918	0.01503	0.01108	0.01208	0.00220	0.00622	0.00877
8380	0.71961	0.73699	0.53927	4.48955	4.18516	3.83173	6.03900	3.90916	2.16794	3.01371	2.85758	2.68534	1.73054	1.42493	1.21420	8.59608	6.68221	5.00973
8540	0.75123	0.74994	0.54484	4.51176	4.19457	3.85503	6.04609	3.90960	2.15513	3.04538	2.84770	2.72542	1.75286	1.42260	1.16911	8.59888	6.66369	5.01151
8710	0.71970	0.74439	0.55888	4.49264	4.10656	3.79440	6.03445	3.91546	2.16889	3.12124	3.00762	2.68562	1.75362	1.40844	1.18849	8.62243	6.68437	5.01374
8870	0.75462	0.76183	0.56931	4.49694	4.17313	3.84925	6.09665	3.92455	2.19175	3.05782	2.94731	2.72671	1.74477	1.43724	1.20188	8.53254	6.62548	4.98935
9040	0.77453	0.75069	0.56404	4.61322	4.24684	3.90474	6.06982	3.93973	2.18247	3.00775	2.89491	2.71166	1.77376	1.42008	1.18994	8.59573	6.62838	4.99958
9200	0.72738	0.77074	0.57019	4.51967	4.16506	3.79266	6.04998	3.94067	2.18511	3.01490	2.85061	2.67616	1.74312	1.42883	1.16713	8.61218	6.67686	4.97171
9360	0.71303	0.74033	0.54635	4.50546	4.14698	3.80947	6.04178	3.91093	2.14350	2.98377	2.83923	2.62197	1.72589	1.41690	1.16400	8.55838	6.63150	4.98039
9530	0.71853	0.74068	0.53991	4.48257	4.12590	3.80004	6.03610	3.91608	2.15104	3.01511	2.90707	2.70293	1.74323	1.39259	1.16691	8.57835	6.72921	4.96441
9690	0.70821	0.75723	0.54643	4.56987	4.16072	3.93424	6.05197	3.92080	2.18169	3.00014	2.89059	2.70865	1.72877	1.39041	1.15745	8.58935	6.68836	4.99527
9850	0.72237	0.75358	0.55744	4.52702	4.20912	3.83984	6.04500	3.95665	2.16636	3.05754	2.92085	2.70840	1.73449	1.42554	1.18266	8.61833	6.67688	5.02290	19.72	6.0	0.00	7.08	0.01286	0.01297	0.01710	0.00786	0.00587	0.00642	0.00473	0.01276	0.01704	0.00685	0.00698	0.00918	0.01503	0.01108	0.01208	0.00220	0.00622	0.00877
10020	0.72495	0.75086	0.54283	4.55315	4.19062	3.86201	6.04529	3.92527	2.17709	3.06171	2.90353	2.68800	1.73363	1.40122	1.16037	8.60406	6.70111	4.99364
10180	0.72663	0.75029	0.54346	4.54021	4.16690	3.85642	6.05072	3.92424	2.16628	3.02021	2.87381	2.67015	1.73820	1.40811	1.15208	8.64736	6.74100	5.00721
10340	0.73500	0.74305	0.55005	4.53956	4.18930	3.83320	6.05939	3.94309	2.18896	3.09687	3.02796	2.70296	1.74880	1.42612	1.18180	8.57534	6.71793	5.02969
10510	0.71995	0.76957	0.54881	4.52547	4.20719	3.93693	6.16041	3.94452	2.17529	3.05812	2.89281	2.81579	1.77076	1.43857	1.21783	8.63481	6.71113	5.01266
10670	0.74007	0.75999	0.53708	4.63295	4.22456	3.91845	6.15538	3.95146	2.17406	3.08349	2.95477	2.72133	1.73032	1.42083	1.20385	8.59864	6.71758	5.01657
10840	0.80824	0.75541	0.58375	4.58310	4.16945	3.85144	6.05454	4.00217	2.18141	3.03698	2.87333	2.70566	1.74764	1.43768	1.19234	8.59585	6.68351	5.02718
11000	0.73921	0.77266	0.57940	4.55077	4.20430	3.86531	6.07301	3.91524	2.19427	2.97720	2.85579	2.69069	1.76061	1.43230	1.17998	8.63165	6.66201	4.99713
11160	0.74204	0.79680	0.55941	4.58703	4.19090	3.85690	6.04753	3.94423	2.18889	3.06385	2.86063	2.67836	1.75944	1.45619	1.18605	8.61850	6.64988	5.02854
11330	0.74002	0.76683	0.56526	4.51634	4.19688	3.82457	6.08998	3.96258	2.18044	3.05725	2.94680	2.71804	1.74530	1.40544	1.17512	8.56227	6.64705	5.06878
11490	0.73550	0.74902	0.54089	4.53841	4.18059	3.79113	6.03186	3.89849	2.15677	2.99383	2.84235	2.65585	1.72194	1.39691	1.15726	8.54945	6.63958	5.01646	19.72	6.0	0.00	7.07	0.01286	0.01297	0.01710	0.00786	0.00587	0.00642	0.00473	0.01276	0.01704	0.00685	0.00697	0.00918	0.01503	0.01108	0.01208	0.00220	0.00622	0.00877
11660	0.73452	0.76764	0.54399	4.51880	4.13065	3.77360	6.07196	3.93647	2.14848	3.04374	2.86010	2.68713	1.72846	1.41057	1.17252	8.55414	6.61026	5.00290
11820	0.72136	0.74954	0.54901	4.47998	4.14161	3.79799	6.04830	3.90813	2.18306	2.98829	2.84874	2.64911	1.74424	1.38767	1.18234	8.52400	6.68170	4.95302
11990	0.72220	0.72427	0.54362	4.46185	4.12898	3.82955	6.03165	3.93821	2.16855	3.00936	2.86303	2.65073	1.70740	1.41336	1.15521	8.54579	6.62536	4.97903
12150	0.72310	0.73642	0.58607	4.48713	4.15578	3.86090	6.06054	3.93860	2.16134	3.04721	2.84720	2.66351	1.73708	1.42210	1.15235	8.48781	6.63855	5.01999
12320	0.74394	0.74355	0.53906	4.49000	4.13786	3.78268	6.02482	3.94562	2.16842	3.04563	2.88097	2.69992	1.74579	1.39270	1.17118	8.60963	6.65171	4.95064
12480	0.72585	0.74675	0.54472	4.50110	4.16489	3.79783	6.05568	3.92340	2.16055	3.01099	2.89402	2.66077	1.73707	1.42422	1.18493	8.53728	6.66542	4.94878
12640	0.72735	0.75226	0.55333	4.48715	4.13309	3.82585	6.06324	3.92752	2.15148	2.97009	2.85407	2.63960	1.74284	1.39354	1.17975	8.49352	6.61759	4.99378
12810	0.73537	0.76250	0.56530	4.53307	4.16781	3.79937	6.04312	3.92107	2.18390	3.03256	2.89359	2.65014	1.73392	1.40312	1.16076	8.63977	6.65973	4.98382
12970	0.71820	0.73657	0.53381	4.50214	4.15728	3.78350	6.02863	3.90770	2.14732	2.99239	2.90156	2.67730	1.71181	1.41169	1.14166	8.55040	6.64558	5.00203
13140	0.72150	0.74672	0.55554	4.48020	4.10731	3.76826	6.07380	3.93584	2.20623	2.99568	2.85946	2.67768	1.74390	1.39866	1.17214	8.56669	6.63178	5.00647	19.65	6.1	0.00	7.10	0.01286	0.01297	0.01710	0.00786	0.00586	0.00642	0.00473	0.01277	0.01704	0.00685	0.00697	0.00918	0.01503	0.01108	0.01208	0.00220	0.00622	0.00877
13300	0.73086	0.75338	0.54524	4.53407	4.17194	3.83131	6.05437	3.92648	2.16894	3.01405	2.82381	2.67313	1.73602	1.40074	1.16405	8.55789	6.64175	5.00277
13460	0.71939	0.75666	0.55277	4.46440	4.16954	3.75671	6.05898	3.93500	2.15769	2.96739	2.81897	2.64243	1.72305	1.40637	1.15290	8.53136	6.64451	4.98256
13630	0.71783	0.73457	0.53927	4.48825	4.13708	3.86077	6.04546	3.92448	2.16718	3.05143	2.88163	2.73716	1.74735	1.41954	1.19529	8.58369	6.65567	4.99435
13790	0.74084	0.75802	0.56436	4.58763	4.23651	3.86537	6.02558	3.93277	2.19315	3.06560	2.89969	2.71553	1.76445	1.43484	1.17516	8.58797	6.67558	4.96993
13950	0.72811	0.75513	0.56376	4.55147	4.20578	3.83403	6.06653	3.92315	2.16465	3.02493	2.91241	2.71787	1.74691	1.42087	1.18171	8.62534	6.69445	5.03220
14120	0.72498	0.75085	0.54655	4.54128	4.18070	3.80023	6.03224	3.90939	2.14704	3.05048	2.89596	2.74543	1.72580	1.42711	1.15949	8.58649	6.71308	5.04446
14280	0.71851	0.74232	0.55199	4.52937	4.19851	3.82382	6.05400	3.94137	2.14966	3.03493	2.86962	2.70848	1.75834	1.42653	1.21626	8.57314	6.68347	4.99891
14450	0.74110	0.76977	0.54625	4.49953	4.13886	3.84332	6.03937	3.92881	2.20228	3.01088	2.94055	2.66989	1.73912	1.41215	1.17023	8.60799	6.69971	5.10882
14610	0.71973	0.75447	0.53349	4.45365	4.17142	3.80395	6.07684	3.93788	2.18065	3.01881	2.90471	2.68932	1.73500	1.43631	1.17962	8.57942	6.68289	5.03999
14780	0.73505	0.76456	0.57945	4.55603	4.16261	3.79505	6.06685	3.94793	2.19241	3.05329	2.87735	2.66368	1.73017	1.43058	1.18726	8.56332	6.67493	4.99752	19.72	6.1	0.00	7.09	0.01286	0.01297	0.01710	0.00786	0.00586	0.00642	0.00473	0.01277	0.01704	0.00685	0.00697	0.00918	0.01503	0.01108	0.01208	0.00220	0.00622	0.00877
14940	0.72393	0.75319	0.56124	4.63152	4.15779	3.77427	6.07562	3.93957	2.16218	3.13983	2.92156	2.72387	1.74816	1.41628	1.19021	8.58320	6.63640	4.99809
15110	0.73192	0.75559	0.54576	4.52180	4.15739	3.78856	6.05747	3.95051	2.16565	2.99379	2.87125	2.78294	1.75073	1.41718	1.17477	8.57003	6.69448	5.00355
15270	0.72535	0.76500	0.54923	4.57153	4.19701	3.80277	6.07026	3.94584	2.15702	3.07881	2.94594	2.74638	1.76667	1.42426	1.19643	8.57256	6.65101	5.03636
15440	0.73518	0.75623	0.55161	4.53124	4.22221	3.87480	6.08581	3.92462	2.16217	3.10048	2.94353	2.73299	1.76781	1.47714	1.18438	8.62492	6.76289	5.05119
15600	0.76801	0.76604	0.56321	4.63257	4.22032	3.89146	6.07907	3.93287	2.19577	3.13211	2.93367	2.76600	1.74900	1.47933	1.17860	8.68373	6.76674	5.11434
15770	0.78442	0.83626	0.54729	4.62781	4.21035	3.84176	6.05644	3.92418	2.15237	3.05527	2.90289	2.71076	1.74264	1.44914	1.18241	8.74528	6.72590	5.02407
15930	0.73054	0.76128	0.56510	4.69215	4.26336	3.94341	6.06735	3.98545	2.16437	3.04193	2.90193	2.71136	1.73546	1.42935	1.16089	8.62439	6.66304	4.97670
16100	0.74290	0.80790	0.55355	4.58569	4.28714	3.85031	6.12183	4.02620	2.15016	3.05448	2.89035	2.76857	1.75650	1.42556	1.16043	8.61704	6.69360	5.04978
16260	0.71938	0.75416	0.56921	4.54194	4.18638	3.84868	6.06274	3.92657	2.18946	3.07266	2.91091	2.69977	1.77783	1.41926	1.17514	8.66629	6.69783	5.02217
16430	0.75168	0.77707	0.56937	4.54258	4.17345	3.85856	6.04797	3.93861	2.15720	3.02804	2.89478	2.70886	1.74946	1.41019	1.17500	8.61450	6.64841	5.00431	19.72	6.1	0.00	7.13	0.01286	0.01297	0.01710	0.00786	0.00586	0.00642	0.00473	0.01276	0.01704	0.00685	0.00697	0.00918	0.01503	0.01107	0.01208	0.00220	0.00622	0.00877
16590	0.73140	0.75766	0.54106	4.50770	4.18123	3.82923	6.05104	3.91740	2.16917	3.03740	2.88159	2.67476	1.74001	1.41468	1.16829	8.57499	6.65766	5.02775
16760	0.72571	0.74132	0.52348	4.52904	4.21749	3.83246	6.06726	3.93850	2.18823	3.05543	2.89496	2.70473	1.75378	1.41176	1.17113	8.58948	6.67261	5.02359
16920	0.72428	0.74065	0.54213	4.50388	4.19410	3.87130	6.08156	3.92726	2.19850	3.01353	2.88825	2.69834	1.75701	1.43390	1.18042	8.56897	6.70112	4.99446
17090	0.72562	0.75291	0.55268	4.53224	4.25090	3.83713	6.05552	3.95549	2.21122	3.09649	2.92371	2.73063	1.76145	1.42176	1.17228	8.60750	6.71303	5.03957
17250	0.74449	0.74861	0.54061	4.63783	4.19696	3.83996	6.04420	3.91531	2.15528	3.05337	2.97831	2.70503	1.72194	1.40431	1.17387	8.66569	6.70757	4.98899
17420	0.71327	0.76110	0.57576	4.52963	4.20809	3.81787	6.09688	3.90875	2.24178	2.99485	2.88370	2.67533	1.73846	1.47949	1.18148	8.59062	6.68834	5.02643
17580	0.72483	0.75094	0.52842	4.58441	4.18107	3.84106	6.03140	3.92183	2.14507	3.04717	2.81472	2.68257	1.72294	1.40257	1.15234	8.79522	6.75717	5.01307
17750	0.74514	0.74506	0.54890	4.58693	4.28206	3.93136	6.05419	3.96602	2.19806	3.07929	2.88157	2.74161	1.73308	1.40313	1.15901	8.55382	6.62470	5.02674
17910	0.73182	0.73354	0.54957	4.53326	4.20313	3.80721	6.06124	3.89464	2.18571	3.03083	2.85834	2.70848	1.70689	1.42554	1.20270	8.54564	6.65931	4.98294
18080	0.71347	0.74846	0.54040	4.53447	4.18813	3.79478	6.03894	3.92097	2.15704	3.01028	2.93960	2.69403	1.72343	1.39713	1.15741	8.58452	6.64527	5.00251	19.78	6.1	0.00	7.08	0.01286	0.01297	0.01710	0.00786	0.00586	0.00642	0.00473	0.01276	0.01703	0.00685	0.00697	0.00918	0.01502	0.01107	0.01208	0.00220	0.00622	0.00877
18240	0.73352	0.74437	0.53434	4.54508	4.15004	3.81681	6.05320	3.91937	2.15936	3.04293	2.87536	2.71700	1.77274	1.41934	1.18236	8.62466	6.62966	5.05103
18410	0.74736	0.77200	0.55581	4.56406	4.17455	3.83244	6.06250	3.96013	2.19159	3.00513	2.89713	2.70043	1.75507	1.43320	1.19700	8.59552	6.68991	4.99157
18570	0.72270	0.74035	0.53776	4.50466	4.19226	3.88537	6.07438	3.94220	2.19858	2.99174	2.86723	2.68404	1.74250	1.42110	1.17377	8.57920	6.66529	4.94470
18740	0.71882	0.73946	0.54545	4.48785	4.17850	3.84357	6.06931	3.92491	2.14381	2.98270	2.84308	2.66692	1.71031	1.42300	1.17740	8.53828	6.65559	4.92856
18900	0.74088	0.75431	0.54065	4.49611	4.17042	3.82201	6.04006	3.90157	2.16206	2.96059	2.86975	2.66729	1.73028	1.40736	1.17076	8.59439	6.62054	5.01075
19070	0.73017	0.74711	0.53075	4.50117	4.14726	3.79071	6.04395	3.96753	2.21596	2.98692	2.85396	2.68862	1.72159	1.40086	1.15450	8.57614	6.66161	4.93456
19230	0.70893	0.73972	0.52568	4.48066	4.14688	3.81436	6.02210	3.91445	2.14582	2.97365	2.84997	2.66193	1.72628	1.39642	1.14063	8.56708	6.67935	5.01211
19400	0.73070	0.75848	0.53811	4.47263	4.19401	3.79799	6.04139	3.92644	2.15869	2.99421	2.86691	2.64622	1.73141	1.40689	1.17225	8.56011	6.63731	4.98237
19560	0.74503	0.74720	0.55656	4.47766	4.12840	3.83944	6.06162	3.93483	2.15308	3.00100	2.84641	2.67779	1.71460	1.39572	1.16607	8.57527	6.65624	5.00622
19730	0.76194	0.75791	0.54730	4.51759	4.17137	3.85019	6.07195	3.93587	2.16904	3.02039	2.87368	2.65456	1.74365	1.41259	1.17438	8.54822	6.74073	4.99672	19.78	6.1	0.00	7.18	0.01286	0.01297	0.01710	0.00786	0.00586	0.00642	0.00473	0.01276	0.01703	0.00684	0.00697	0.00918	0.01502	0.01107	0.01208	0.00220	0.00622	0.00877
19890	0.72562	0.75587	0.54254	4.52285	4.19885	3.85985	6.06718	3.94004	2.16581	2.98714	2.87984	2.72003	1.76788	1.44466	1.20822	8.59393	6.65966	4.95091
20060	0.74179	0.75693	0.54615	4.54943	4.23692	3.83423	6.04468	3.92760	2.19592	3.04576	2.87669	2.71323	1.74479	1.41753	1.18853	8.62124	6.65292	5.03564
20220	0.73123	0.74453	0.56606	4.49747	4.17005	3.81217	6.09692	3.93170	2.19064	3.00924	2.87590	2.65583	1.74607	1.43510	1.18054	8.58012	6.71236	5.02983
20390	0.76152	0.73973	0.55581	4.56665	4.21685	3.84605	6.06502	3.97044	2.19684	3.04964	2.86613	2.70651	1.78530	1.42343	1.22208	8.61800	6.67655	5.03727
20560	0.74025	0.76758	0.55812	4.55517	4.19830	3.90125	6.06497	3.93255	2.16366	3.07284	2.91344	2.73962	1.74350	1.42461	1.18346	8.59506	6.68884	5.01571
20720	0.73577	0.76113	0.55658	4.55173	4.24580	3.92584	6.05576	3.93504	2.21248	3.06305	2.90190	2.69107	1.77464	1.44566	1.19237	8.51027	6.64002	5.05357
20890	0.74609	0.75149	0.56218	4.59468	4.21566	3.84514	6.07565	3.94277	2.17752	3.08784	2.94350	2.74461	1.76633	1.44184	1.17166	8.65909	6.73853	5.04684
21050	0.76454	0.77261	0.57456	4.59454	4.20029	3.87186	6.06219	3.93973	2.16544	3.07775	2.92663	2.77022	1.76010	1.41329	1.17989	8.63045	6.72878	5.03059
21220	0.71559	0.75356	0.54302	4.59039	4.23388	3.85223	6.04684	3.94606	2.18110	3.01643	2.89079	2.68007	1.74838	1.42089	1.16375	8.63747	6.73712	5.02360
21380	0.72867	0.75135	0.54556	4.49357	4.17525	3.80459	6.06399	3.97307	2.18807	3.01131	2.88408	2.73096	1.76159	1.45069	1.18980	8.57893	6.67627	4.97346	19.85	6.1	0.00	7.11	0.01286	0.01296	0.01710	0.00785	0.00586	0.00642	0.00473	0.01276	0.01703	0.00684	0.00697	0.00918	0.01502	0.01107	0.01208	0.00220	0.00622	0.00877
21550	0.73624	0.76421	0.55429	4.50859	4.14050	3.87047	6.08565	3.94494	2.18797	3.06877	2.85116	2.70392	1.77900	1.43337	1.16723	8.60166	6.69092	5.05782
21710	0.77600	0.78470	0.56954	4.57083	4.21265	3.86026	6.07879	3.93310	2.18104	3.00034	2.87883	2.68195	1.75205	1.41315	1.18117	8.56758	6.66181	4.99500
21880	0.73918	0.75791	0.55054	4.46610	4.15980	3.77977	6.05864	3.93508	2.16765	2.98325	2.85131	2.65743	1.74248	1.42849	1.17498	8.56828	6.65975	5.03762
22040	0.71442	0.74777	0.54621	4.55856	4.24252	3.84570	6.05291	3.91787	2.18356	3.05025	2.89567	2.70311	1.73724	1.42075	1.18723	8.60866	6.69648	5.03576
22210	0.72822	0.72816	0.55285	4.56543	4.13285	3.85815	6.05030	3.91596	2.16093	3.04205	2.92340	2.73530	1.72756	1.41213	1.15942	8.59991	6.72408	5.00738
22370	0.72964	0.75235	0.54997	4.57384	4.24513	3.86129	6.06607	3.96380	2.18135	3.02192	2.90030	2.66184	1.76678	1.43521	1.16742	8.56314	6.68627	4.96601
22540	0.74517	0.77113	0.55556	4.53343	4.18031	3.85564	6.03310	3.91170	2.18566	3.00007	2.92688	2.73998	1.74650	1.42574	1.18260	8.55573	6.66025	5.00754
22700	0.72694	0.77632	0.54997	4.53068	4.19664	3.84240	6.05150	3.91869	2.16635	3.05042	2.92353	2.79569	1.71813	1.41793	1.17539	8.67765	6.76130	5.06241
22870	0.73416	0.75095	0.54162	4.51005	4.20164	3.90184	6.07243	3.94875	2.17935	3.11286	3.01722	2.69418	1.77938	1.41729	1.17480	8.68021	6.68810	5.03061
23030	0.71653	0.75005	0.55220	4.53641	4.17876	3.80671	6.20295	3.94994	2.19088	3.06416	2.86928	2.71622	1.74865	1.44051	1.18102	8.71578	6.83073	5.04539	19.78	6.2	0.00	7.03	0.01286	0.01296	0.01710	0.00785	0.00586	0.00642	0.00473	0.01276	0.01703	0.00684	0.00697	0.00918	0.01502	0.01107	0.01208	0.00220	0.00622	0.00877
23200	0.73070	0.77529	0.55161	4.51810	4.29580	3.86246	6.04459	3.94448	2.15877	3.00770	3.01594	2.72845	1.74814	1.41079	1.14369	8.56733	6.66969	5.01009
23360	0.72970	0.73943	0.53621	4.63302	4.49862	3.83505	6.04533	3.90589	2.17018	3.01761	2.87660	2.67225	1.73478	1.40907	1.19934	8.51842	6.66926	4.99849
23530	0.71762	0.73992	0.54158	4.46319	4.13139	3.82799	6.05404	3.97370	2.13865	2.98681	2.82813	2.64138	1.75018	1.41410	1.17566	8.56236	6.65141	4.97777
23690	0.72581	0.73261	0.54655	4.48037	4.16974	3.84218	6.03067	3.91323	2.16769	3.02446	2.92713	2.70984	1.73307	1.40930	1.17008	8.58532	6.70007	5.00096
23850	0.72121	0.73633	0.53521	4.53295	4.21193	3.81649	6.03448	3.94709	2.13556	3.03447	2.87189	2.68654	1.73989	1.40767	1.15703	8.62367	6.60612	4.97175
24020	0.73324	0.76035	0.54840	4.57467	4.17178	3.83423	6.05209	3.91174	2.15452	3.00383	2.90238	2.73009	1.75110	1.41174	1.18605	8.58750	6.71423	4.99900
24180	0.72896	0.76139	0.53882	4.51332	4.15500	3.82636	6.07311	3.92697	2.16511	3.07236	3.12477	2.93754	1.74398	1.41578	1.18243	8.76923	6.87951	5.07283
24350	0.75823	0.75948	0.55641	4.56004	4.23728	3.80533	6.07939	3.98872	2.19643	3.04441	2.91128	2.70942	1.75126	1.42213	1.19235	8.64765	6.71541	5.07758
24510	0.76206	0.75330	0.56212	4.52375	4.20105	3.91840	6.08779	3.94224	2.21565	3.06051	2.91503	2.71293	1.76207	1.42066	1.17460	8.62885	6.70677	5.00847
24680	0.73060	0.75418	0.53705	4.56445	4.17973	3.86277	6.08419	3.93619	2.18706	3.01350	2.84572	2.69709	1.73848	1.43509	1.16319	8.64009	6.68760	5.02965	19.85	6.2	0.00	7.19	0.01286	0.01297	0.01710	0.00786	0.00586	0.00642	0.00473	0.01276	0.01703	0.00684	0.00697	0.00918	0.01502	0.01107	0.01208	0.00220	0.00622	0.00877
24840	0.73973	0.76050	0.54491	4.53416	4.16437	3.84879	6.05248	3.93975	2.17403	3.07406	2.88113	2.71797	1.73831	1.40053	1.17044	8.55295	6.61883	5.02948
25010	0.74731	0.74971	0.55524	4.48968	4.21403	3.86402	6.05120	3.92133	2.18934	3.02561	2.91154	2.74932	1.72680	1.39700	1.17597	8.62964	6.69135	5.00210
25170	0.73045	0.76104	0.53444	4.58021	4.19356	3.85364	6.06834	3.92280	2.14732	3.06758	2.86372	2.70126	1.71786	1.43294	1.18881	8.57449	6.70094	5.02196
25340	0.72912	0.74943	0.55813	4.53166	4.22960	3.82632	6.06830	3.93907	2.19158	3.01891	2.85671	2.71319	1.74824	1.40291	1.16794	8.59231	6.72448	4.99571
25500	0.73636	0.74930	0.52918	4.53213	4.20212	3.82203	6.09818	3.93154	2.16850	3.02595	2.96233	2.70968	1.73040	1.40358	1.16725	8.58576	6.65457	5.01029
25670	0.72675	0.74562	0.54718	4.52673	4.15472	3.79229	6.06112	3.93172	2.17416	2.98242	2.86079	2.67762	1.74770	1.41006	1.16548	8.55643	6.66109	4.96379
25840	0.72849	0.74059	0.54012	4.51523	4.20640	3.80055	6.05916	3.91620	2.15853	3.04336	2.87276	2.64781	1.74543	1.40513	1.17213	8.65777	6.66789	4.98643
26000	0.72877	0.74379	0.54763	4.54331	4.18647	3.81314	6.06959	3.93701	2.19580	2.97671	2.87819	2.64944	1.74099	1.42342	1.20919	8.60124	6.63499	4.99126
26170	0.73697	0.74854	0.54395	4.55542	4.15892	3.80289	6.04294	3.92006	2.16496	2.98949	2.87082	2.68482	1.75367	1.41031	1.18769	8.69614	6.67296	5.02113
26330	0.74282	0.74632	0.56079	4.56320	4.20159	3.81912	6.05927	3.94303	2.17610	3.02166	2.89229	2.66577	1.76473	1.42203	1.18030	8.60419	6.67817	5.01534	19.78	6.2	0.00	7.10	0.01286	0.01296	0.01710	0.00786	0.00586	0.00642	0.00473	0.01276	0.01703	0.00684	0.00697	0.00918	0.01502	0.01107	0.01208	0.00220	0.00622	0.00877
26500	0.73265	0.76046	0.55479	4.57749	4.18992	3.85068	6.05470	3.93636	2.17074	3.04790	2.91956	2.72161	1.76371	1.44335	1.18831	8.60681	6.71887	5.01590
26660	0.73984	0.76783	0.56701	4.51257	4.16645	3.83359	6.05155	3.94390	2.15081	3.03970	2.90530	2.66180	1.74858	1.41468	1.16947	8.59833	6.70758	5.05212
26830	0.72517	0.74740	0.54055	4.59043	4.19870	3.83494	6.03489	3.91197	2.16353	3.05743	2.92938	2.72180	1.72649	1.41871	1.17450	8.68890	6.79716	5.01455
26990	0.74092	0.75072	0.55193	4.61244	4.25281	3.83941	6.05616	3.97044	2.18863	3.05758	2.99425	2.82526	1.74255	1.40967	1.17181	8.66211	6.79378	5.11838
27160	0.73237	0.74676	0.54435	4.73887	4.34448	3.91876	6.05105	3.93878	2.15765	3.05387	2.92821	2.72608	1.74246	1.42114	1.17289	8.71001	6.81094	5.11224
27320	0.74221	0.74712	0.56308	4.57642	4.24424	3.84567	6.08854	3.93208	2.16776	3.08738	2.90677	2.75569	1.75185	1.44902	1.18381	8.70709	6.77187	5.09690
27490	0.73377	0.74517	0.54970	4.56248	4.26014	3.85786	6.06180	3.95791	2.19212	3.08481	2.94201	2.73879	1.79524	1.42989	1.21889	8.68246	6.73015	5.10526
27650	0.74830	0.76422	0.54984	4.57033	4.25560	3.92108	6.07132	3.98141	2.19235	3.11622	2.98955	2.78357	1.76110	1.43453	1.19928	8.64303	6.77499	5.13969
27820	0.74627	0.76088	0.56545	4.65002	4.23107	3.90775	6.09200	3.96748	2.20506	3.18042	2.99479	2.80764	1.77190	1.44132	1.20182	8.74926	6.81950	5.13359
27980	0.77264	0.77778	0.57434	4.63105	4.32272	3.96454	6.09771	3.97357	2.19946	3.14026	2.98924	2.79140	1.76040	1.44303	1.20194	8.70648	6.79601	5.11272	19.85	6.0	0.00	7.08	0.01286	0.01296	0.01710	0.00786	0.00586	0.00642	0.00473	0.01276	0.01703	0.00684	0.00697	0.00917	0.01502	0.01107	0.01208	0.00220	0.00622	0.00877
28150	0.74804	0.79299	0.57854	4.69202	4.30046	3.91389	6.11490	3.98314	2.18397	3.14769	2.99699	2.80285	1.77265	1.45846	1.17820	8.70754	6.79766	5.09141
28310	0.75073	0.80303	0.57802	4.63344	4.25740	3.91910	6.12944	3.96220	2.20919	3.11829	2.97238	2.79948	1.75145	1.43914	1.19569	8.72401	6.81955	5.12033
28480	0.75007	0.75741	0.55494	4.64144	4.28933	3.92756	6.10026	3.94233	2.19016	3.08942	2.96146	2.74975	1.75861	1.42849	1.18435	8.69552	6.78442	5.15804
28640	0.74823	0.76852	0.54414	4.66963	4.24691	3.90050	6.08859	3.99871	2.23645	3.16425	2.99314	2.79174	1.77366	1.45716	1.21448	8.73988	6.84294	5.16680
28810	0.75991	0.77992	0.60915	4.70034	4.37796	4.01282	6.12397	3.99013	2.23005	3.16544	2.96023	2.77894	1.83380	1.47907	1.23919	8.71329	6.79311	5.13150
28970	0.76601	0.82016	0.61231	4.68837	4.31820	4.03122	6.11874	3.96939	2.19464	3.10171	2.94779	2.74449	1.76408	1.44642	1.21542	8.66158	6.76096	5.11237
29140	0.74640	0.78693	0.58427	4.64205	4.25522	3.90409	6.11916	3.96284	2.19168	3.13307	2.94587	2.73076	1.75992	1.45325	1.19313	8.68026	6.73564	5.04201
29300	0.75615	0.78113	0.57698	4.62727	4.27116	3.94355	6.09263	3.96206	2.21906	3.11344	3.01443	2.80531	1.74671	1.43226	1.23498	8.66739	6.79624	5.10787
29470	0.73718	0.74633	0.56057	4.59105	4.23948	3.92600	6.10793	3.98097	2.19581	3.04247	2.89664	2.77017	1.77529	1.43541	1.18790	8.64733	6.77151	5.09542
29630	0.76231	0.77913	0.56336	4.60056	4.24921	3.93663	6.06940	3.92877	2.19555	3.07647	3.03835	2.78856	1.75488	1.42933	1.18348	8.67776	6.80758	5.06868	19.85	6.0	0.00	7.10	0.01286	0.01296	0.01710	0.00785	0.00586	0.00642	0.00473	0.01276	0.01703	0.00684	0.00697	0.00917	0.01502	0.01107	0.01208	0.00220	0.00622	0.00876
29800	0.74151	0.77760	0.55981	4.60278	4.23203	3.84308	6.07722	3.96816	2.20734	3.07162	2.93718	2.70991	1.76382	1.46479	1.19443	8.62508	6.73917	5.02230
29960	0.74092	0.75290	0.57407	4.51880	4.18097	3.90851	6.07173	4.00441	2.19851	3.19864	2.95566	2.74905	1.76913	1.42750	1.18787	8.59233	6.68130	5.11459
30130	0.75154	0.76388	0.55563	4.59002	4.19824	3.87227	6.09404	3.93508	2.19469	3.03679	2.91649	2.69030	1.78563	1.44539	1.19071	8.58315	6.68356	5.00020
30290	0.71827	0.74359	0.53659	4.55085	4.14212	3.79726	6.06271	3.93020	2.15204	3.03826	2.86898	2.66793	1.74908	1.41001	1.15105	8.55210	6.68602	4.95133
30460	0.73060	0.73999	0.55086	4.52100	4.19356	3.76221	6.04465	3.90987	2.16988	2.98568	2.91962	2.72236	1.73849	1.41980	1.16793	8.61920	6.66563	5.00219
30620	0.72854	0.74757	0.53376	4.53237	4.12411	3.77479	6.09325	3.95117	2.16067	3.00797	2.87174	2.70798	1.74237	1.40032	1.17301	8.57267	6.70225	4.99938
30790	0.71051	0.74187	0.55277	4.52978	4.23348	3.76114	6.05910	3.92858	2.19666	2.98614	2.89809	2.68923	1.74162	1.39414	1.17340	8.58053	6.64767	4.99559
30950	0.72804	0.73241	0.54967	4.45819	4.14434	3.79033	6.05669	3.98387	2.17643	2.96148	2.88440	2.69012	1.75666	1.42110	1.16630	8.60028	6.62993	5.07032
31120	0.72968	0.75301	0.54174	4.51987	4.21673	3.80505	6.08662	3.92286	2.16683	3.02062	2.85347	2.68752	1.71855	1.40867	1.16714	8.58131	6.72401	4.93901
31280	0.71913	0.74868	0.53924	4.47486	4.14013	3.79996	6.04638	3.93833	2.18031	3.02817	2.86260	2.70184	1.75849	1.39488	1.16916	8.58864	6.67421	4.98871	19.85	6.1	0.00	7.04	0.01285	0.01296	0.01709	0.00785	0.00586	0.00642	0.00473	0.01276	0.01703	0.00684	0.00697	0.00918	0.01502	0.01107	0.01207	0.00220	0.00622	0.00876
31450	0.74780	0.76269	0.56432	4.49959	4.14745	3.83761	6.05501	3.91454	2.15358	3.07018	2.86199	2.66614	1.73604	1.41115	1.16366	8.60868	6.66663	5.04974
31610	0.71881	0.75395	0.53570	4.55135	4.15573	3.79207	6.09261	3.93793	2.16664	3.01547	2.87505	2.63935	1.72549	1.40007	1.17442	8.53304	6.63450	5.00204
31780	0.80239	0.75895	0.53771	4.51738	4.16174	3.82599	6.10566	4.00621	2.16865	3.00902	2.94655	2.67818	1.73916	1.44623	1.19290	8.58122	6.64079	4.94786
31940	0.71870	0.74850	0.55928	4.48760	4.13691	3.80031	6.05605	3.98429	2.16635	2.98435	2.84154	2.65683	1.74461	1.40969	1.16981	8.54756	6.62055	5.00754
32110	0.73856	0.75366	0.54022	4.49195	4.15457	3.78254	6.04227	3.95679	2.17562	3.03247	2.83527	2.67465	1.73567	1.42023	1.17509	8.56359	6.65384	4.96021
32270	0.71973	0.75943	0.56542	4.49380	4.16997	3.77829	6.04289	3.94162	2.20105	2.98579	2.82092	2.63486	1.74721	1.42682	1.17004	8.55314	6.62285	4.93454
32440	0.72722	0.73975	0.57605	4.48597	4.13515	3.80580	6.06651	3.95405	2.18667	2.99858	2.81824	2.68843	1.76341	1.42194	1.16801	8.53182	6.61831	5.02913
32600	0.70349	0.74437	0.55144	4.58403	4.17015	3.76718	6.06082	3.91284	2.17117	3.08793	2.84936	2.68670	1.75782	1.41901	1.19509	8.58620	6.63941	5.04113
32770	0.73087	0.73971	0.55814	4.56254	4.21117	3.79298	6.02901	3.93502	2.15983	3.02279	2.83983	2.63195	1.72157	1.41128	1.15439	8.56647	6.61529	4.91924
32930	0.71277	0.73777	0.55105	4.47947	4.14207	3.82548	6.05889	3.94007	2.14277	3.00108	2.85453	2.62369	1.71798	1.42000	1.18465	8.50509	6.66253	4.98009	19.91	6.2	0.00	7.05	0.01285	0.01296	0.01709	0.00785	0.00586	0.00642	0.00473	0.01276	0.01703	0.00684	0.00697	0.00917	0.01502	0.01107	0.01207	0.00220	0.00622	0.00877
33100	0.75715	0.77256	0.53793	4.50151	4.14223	3.82996	6.03918	3.88866	2.13231	2.98530	2.86434	2.65359	1.72026	1.40634	1.14415	8.56866	6.65634	4.97818
33260	0.70773	0.73414	0.55964	4.48246	4.15079	3.80634	6.05748	3.93761	2.15037	2.97127	2.87406	2.66405	1.76371	1.41645	1.15304	8.57189	6.64146	5.02118
33430	0.72726	0.76620	0.57437	4.53038	4.21352	3.82520	6.06030	3.95751	2.17495	3.01313	2.86096	2.65562	1.75919	1.42579	1.18311	8.54061	6.68144	4.94839
33590	0.74168	0.75193	0.54872	4.49030	4.12464	3.81536	6.05960	3.96686	2.18241	2.98356	2.83109	2.62158	1.77228	1.42403	1.17860	8.59819	6.62098	4.94634
33760	0.71500	0.75107	0.53993	4.49674	4.15171	3.82010	6.04349	3.91328	2.15825	3.02278	2.89828	2.67452	1.72557	1.40082	1.16448	8.55175	6.60286	4.91161
33920	0.70891	0.74209	0.54173	4.47538	4.11917	3.77979	6.05075	3.92780	2.16429	2.97686	2.83125	2.66117	1.73246	1.41585	1.17084	8.55219	6.64471	4.93199
34090	0.74561	0.75658	0.54814	4.48344	4.13532	3.79308	6.05756	3.94075	2.16138	3.00352	2.84936	2.68341	1.74844	1.41446	1.16553	8.56517	6.68358	5.06517
34250	0.71987	0.74918	0.55389	4.50072	4.14891	3.84621	6.05980	3.95658	2.18054	3.01278	2.88492	2.67970	1.74265	1.41193	1.17556	8.59399	6.67194	5.03281
34420	0.72999	0.74383	0.57547	4.51546	4.16168	3.80339	6.08267	3.95027	2.16902	3.01414	2.88875	2.69654	1.77327	1.44548	1.16389	8.59015	6.66334	4.97302
34580	0.72107	0.74557	0.55493	4.55616	4.14098	3.84122	6.09159	3.96330	2.18035	3.02971	2.90255	2.66670	1.74985	1.41726	1.16827	8.57322	6.69218	4.97954	19.91	6.1	0.00	7.09	0.01285	0.01296	0.01709	0.00785	0.00586	0.00642	0.00473	0.01276	0.01703	0.00684	0.00697	0.00917	0.01502	0.01107	0.01207	0.00220	0.00622	0.00876
34750	0.72729	0.75119	0.53021	4.49432	4.14180	3.85702	6.06999	3.93167	2.19131	3.02167	2.84291	2.60834	1.76517	1.43039	1.15941	8.53959	6.63082	5.03257
34910	0.72001	0.74428	0.52571	4.53617	4.14172	3.81550	6.06201	3.91858	2.16144	2.98923	2.83988	2.65366	1.73296	1.40466	1.15792	8.58265	6.65762	4.98691
35080	0.73327	0.75805	0.54808	4.48827	4.13371	3.79460	6.03670	3.89714	2.15723	2.97076	2.86430	2.66794	1.72944	1.39835	1.16773	8.53394	6.69890	4.98870
35240	0.73889	0.76719	0.53823	4.51466	4.19283	3.84738	6.06197	3.92428	2.19980	2.97583	2.89786	2.63110	1.74659	1.41727	1.20421	8.55404	6.75934	5.05669
35410	0.71449	0.74100	0.54596	4.55003	4.19888	3.84782	6.05217	3.92931	2.14337	2.97164	2.84239	2.65345	1.73235	1.39981	1.16060	8.57243	6.65526	4.97564
35570	0.72867	0.73105	0.53659	4.50199	4.19801	3.77707	6.08793	3.93813	2.15029	3.11213	2.85290	2.65885	1.74575	1.38862	1.16216	8.52299	6.62047	4.97782
35740	0.72774	0.74138	0.54127	4.46743	4.13918	3.77289	6.04918	3.95459	2.18803	3.03548	2.88364	2.65354	1.76088	1.43730	1.16757	8.55378	6.63262	5.00584
35900	0.73149	0.75196	0.55075	4.48534	4.18018	3.78098	6.05296	3.91794	2.17142	2.99364	2.85418	2.64388	1.74438	1.41218	1.17278	8.55404	6.64641	4.95966
36070	0.73022	0.75245	0.52914	4.45780	4.11750	3.80126	6.02863	3.92288	2.16894	2.98360	2.83155	2.61137	1.72443	1.40561	1.16993	8.55125	6.64912	4.95789
36230	0.72184	0.74279	0.55881	4.50998	4.15877	3.83447	6.04586	3.93350	2.18134	3.02889	2.89747	2.69347	1.75553	1.42145	1.15424	8.53738	6.67227	4.99039	19.91	6.2	0.00	7.05	0.01285	0.01296	0.01709	0.00785	0.00586	0.00642	0.00473	0.01276	0.01703	0.00684	0.00697	0.00918	0.01502	0.01107	0.01208	0.00220	0.00622	0.00876
36400	0.73039	0.75318	0.55151	4.55728	4.20746	3.80731	6.05407	3.94027	2.16187	3.06258	2.85569	2.63551	1.75628	1.41949	1.17517	8.52087	6.67549	4.97860
36560	0.72364	0.74107	0.53592	4.50255	4.14137	3.80296	6.06192	3.91582	2.15906	3.04674	2.84154	2.71834	1.74036	1.41714	1.19363	8.56090	6.69748	5.04441
36730	0.72461	0.75933	0.55144	4.50972	4.17047	3.79955	6.06812	3.93060	2.17983	3.02445	2.88922	2.66102	1.74149	1.42536	1.19055	8.62835	6.68940	5.00323
36890	0.73088	0.74152	0.56080	4.59406	4.15433	3.83473	6.06483	3.92164	2.15128	3.04198	2.93708	2.73193	1.72404	1.40458	1.16696	8.62335	6.65486	4.97832
37050	0.73524	0.75457	0.55635	4.47575	4.14669	3.80761	6.04714	3.95885	2.19690	3.05471	2.88225	2.69178	1.75086	1.42472	1.18549	8.59838	6.70478	4.99622
37220	0.74280	0.74315	0.53562	4.49633	4.18387	3.81903	6.03098	3.92507	2.17093	3.01333	2.89853	2.63045	1.74371	1.42216	1.18006	8.53425	6.64533	4.93908
37380	0.72063	0.73146	0.53716	4.52119	4.16424	3.80432	6.04308	3.93156	2.15591	2.96804	2.84635	2.62485	1.73423	1.46106	1.20467	8.56430	6.66705	4.99842
37550	0.71860	0.75152	0.55308	4.54684	4.16564	3.79372	6.05399	3.93826	2.19085	2.99943	2.81928	2.63956	1.75220	1.42738	1.14836	8.57495	6.63729	4.96592
37710	0.71795	0.75205	0.54155	4.55532	4.18285	3.77828	6.05976	3.93730	2.17080	3.00665	2.88221	2.71295	1.72825	1.40957	1.18229	8.69785	6.75813	5.09557
37880	0.73020	0.74415	0.53511	4.55448	4.17455	3.86760	6.04570	3.92404	2.14575	3.00273	2.86605	2.65986	1.74405	1.39968	1.17080	8.57778	6.66897	4.96785	19.91	6.1	0.00	7.10	0.01285	0.01296	0.01709	0.00785	0.00586	0.00642	0.00473	0.01276	0.01703	0.00684	0.00697	0.00918	0.01502	0.01107	0.01207	0.00219	0.00622	0.00876
38040	0.70420	0.72737	0.54514	4.48147	4.13411	3.79533	6.03583	3.92791	2.16420	3.00166	2.92933	2.73563	1.72440	1.41442	1.17455	8.56345	6.66960	5.03236
38200	0.74811	0.76354	0.54328	4.54407	4.15930	3.86208	6.03691	3.92136	2.18505	3.02054	2.88549	2.67763	1.77900	1.49290	1.19523	8.55525	6.65916	4.99923
38370	0.75497	0.76010	0.56049	4.54894	4.26068	3.84222	6.13795	3.94796	2.16838	3.01358	2.87892	2.71710	1.72755	1.39023	1.18431	8.61070	6.58845	4.95317
38530	0.72203	0.73227	0.53220	4.46998	4.12898	3.81799	6.02958	3.92406	2.16401	3.01801	2.87750	2.67817	1.73287	1.37911	1.15773	8.52216	6.62884	4.99800
38690	0.72330	0.75906	0.53023	4.43766	4.11764	3.76779	6.07107	3.95120	2.17458	2.94532	2.80810	2.63963	1.72436	1.39405	1.15317	8.56206	6.67689	5.02401
38860	0.75270	0.74183	0.55102	4.52693	4.16970	3.78889	6.07715	3.96540	2.21980	2.98095	2.80806	2.66146	1.75363	1.43411	1.17596	8.59756	6.67254	5.00421
39020	0.72285	0.74356	0.54326	4.46679	4.16433	3.85377	6.05886	3.92613	2.16565	3.04564	2.87318	2.65566	1.77016	1.45605	1.19223	8.54540	6.66496	4.99489
39190	0.72929	0.74584	0.55689	4.53896	4.16918	3.80251	6.07532	3.91837	2.15607	3.06845	2.91924	2.68415	1.74670	1.40168	1.16113	8.52008	6.62960	4.96903
39350	0.72849	0.73153	0.55997	4.48898	4.17004	3.84348	6.06978	3.90371	2.16567	3.00709	2.91780	2.70841	1.77619	1.39675	1.18013	8.55656	6.66895	5.01613
39520	0.72122	0.76881	0.56035	4.57770	4.17883	3.80779	6.06869	3.91630	2.17459	3.04138	2.87095	2.65611	1.73914	1.43482	1.19977	8.60093	6.65152	4.96774	19.91	6.1	0.00	7.07	0.01285	0.01296	0.01709	0.00785	0.00586	0.00642	0.00473	0.01276	0.01703	0.00684	0.00697	0.00918	0.01502	0.01107	0.01208	0.00219	0.00622	0.00876
39680	0.74312	0.77149	0.54716	4.52294	4.22415	3.84850	6.06690	3.93294	2.16405	3.09661	2.86355	2.71969	1.75561	1.44425	1.18269	8.53300	6.64270	5.05619
39840	0.71964	0.75885	0.55507	4.58650	4.21010	3.85797	6.06204	3.94505	2.16033	3.06410	2.87509	2.69961	1.75026	1.41701	1.19666	8.55644	6.81087	5.00437
40010	0.73447	0.76325	0.55492	4.46375	4.15562	3.80749	6.04822	3.95897	2.18427	3.08514	2.87635	2.68616	1.74843	1.41415	1.16611	8.50528	6.61996	5.04657
40170	0.72334	0.76921	0.54907	4.49912	4.15860	3.75771	6.04681	3.91465	2.15861	2.97395	2.88049	2.67382	1.75725	1.40320	1.19195	8.52691	6.63767	4.91870
40340	0.75550	0.73743	0.54886	4.46130	4.12531	3.78152	6.05116	3.94754	2.18962	2.99916	2.84794	2.64499	1.74315	1.40963	1.16860	8.53474	6.62221	4.97051
40500	0.73453	0.77592	0.54290	4.48807	4.16060	3.79875	6.09154	3.94426	2.17952	3.02456	2.89225	2.70685	1.73909	1.41840	1.17943	8.55426	6.63897	4.95699
40660	0.72885	0.74992	0.54582	4.51681	4.13589	3.80760	6.06416	3.92491	2.17732	3.03334	2.89326	2.67793	1.72958	1.39938	1.15828	8.55277	6.65471	4.97800
40830	0.73852	0.72812	0.54259	4.50327	4.12497	3.83190	6.04502	3.91048	2.18802	2.99640	2.84375	2.64548	1.73369	1.41759	1.15638	8.50719	6.66600	5.00019
40990	0.73159	0.77105	0.54516	4.48770	4.10437	3.78569	6.04614	3.94643	2.20077	2.98232	2.87200	2.66272	1.74029	1.42106	1.17914	8.61057	6.64440	4.98583
41160	0.71553	0.73804	0.52755	4.46645	4.16759	3.80586	6.02390	3.94663	2.16405	3.01694	2.84338	2.65648	1.73474	1.41037	1.15696	8.56173	6.62789	4.91658	19.98	6.2	0.00	6.21	0.01285	0.01296	0.01709	0.00785	0.00586	0.00642	0.00473	0.01276	0.01703	0.00684	0.00697	0.00918	0.01502	0.01107	0.01207	0.00220	0.00622	0.00876
41320	0.73180	0.75187	0.55137	4.52632	4.14026	3.81655	6.04690	3.92489	2.15478	3.00713	2.89089	2.70222	1.72951	1.39519	1.16009	8.56313	6.71454	5.15144
41490	0.71150	0.75535	0.53406	4.51141	4.18677	3.99240	6.08277	3.92138	2.15948	3.12966	2.98479	2.66866	1.72895	1.40496	1.16270	8.55641	6.65258	5.02078
41650	0.72542	0.74424	0.55059	4.54636	4.15052	3.78623	6.04984	3.96350	2.16047	3.01702	2.87878	2.65521	1.73325	1.42086	1.17587	8.55807	6.66320	4.99835
41820	0.73230	0.74607	0.53240	4.47395	4.17573	3.82608	6.06488	3.90735	2.16809	3.01530	2.86303	2.68293	1.72290	1.40619	1.16590	8.50789	6.57048	4.94641
41980	0.74713	0.75798	0.55859	4.52796	4.25001	3.81263	6.04889	3.92628	2.16879	3.02307	2.84723	2.65459	1.72514	1.39721	1.17440	8.55424	6.62897	4.92552
42150	0.72968	0.73631	0.54194	4.47920	4.10027	3.80247	6.05482	3.93247	2.18469	2.94756	2.78693	2.61409	1.72579	1.39810	1.17285	8.54265	6.63780	5.10190
42310	0.71674	0.75429	0.53903	4.46643	4.14868	3.99312	6.08173	3.94392	2.17080	3.05859	2.88406	2.65570	1.74224	1.41978	1.17250	8.57221	6.70150	5.02581
42480	0.72765	0.74907	0.53477	4.48127	4.13494	3.80611	6.04914	3.92527	2.15004	3.01194	2.86216	2.68244	1.72623	1.39801	1.16478	8.55441	6.65439	4.96950
42640	0.71332	0.72474	0.53676	4.50478	4.13888	3.80486	6.03367	3.93448	2.16525	2.98621	2.91274	2.72955	1.74461	1.43526	1.15404	8.60019	6.72405	4.98399
42810	0.73323	0.75623	0.54533	4.51119	4.12548	3.81608	6.02310	3.90468	2.15518	3.08779	2.92551	2.66836	1.72730	1.40922	1.16927	8.64056	6.71347	5.05322	19.98	5.9	0.00	7.04	0.01285	0.01296	0.01709	0.00785	0.00586	0.00642	0.00473	0.01276	0.01702	0.00684	0.00697	0.00918	0.01502	0.01107	0.01207	0.00219	0.00622	0.00876
42970	0.70994	0.74103	0.55679	4.53938	4.14314	3.81505	6.06063	3.92737	2.16203	3.00044	2.87844	2.72060	1.76075	1.40123	1.16970	8.57019	6.64916	5.01961
43140	0.72504	0.74509	0.53890	4.46309	4.20933	3.78707	6.06907	3.96309	2.16096	2.98492	2.79986	2.64851	1.75600	1.44031	1.17029	8.54925	6.62187	5.05546
43300	0.72371	0.77631	0.55730	4.46642	4.15831	3.77319	6.07177	3.94244	2.17147	2.99032	2.86137	2.65391	1.73751	1.40986	1.18715	8.54098	6.65485	5.06600
43470	0.71390	0.73686	0.54703	4.55252	4.19392	3.80655	6.06708	3.94200	2.15387	3.02239	2.89053	2.66975	1.72965	1.40873	1.15593	8.65508	6.66185	5.02400
43630	0.71431	0.74241	0.54491	4.51826	4.17974	3.84032	6.02952	3.92544	2.17819	3.06333	2.90194	2.76439	1.74821	1.41345	1.17589	8.59362	6.67899	5.07919
43800	0.70487	0.74474	0.53097	4.53484	4.17079	3.85204	6.05033	3.92793	2.15765	3.02643	2.87551	2.66690	1.73900	1.41405	1.19116	8.54133	6.63621	5.02218
43960	0.71906	0.82049	0.55704	4.47337	4.16714	3.77854	6.07294	3.97141	2.34076	2.96556	2.84763	2.67825	1.75430	1.42495	1.17740	8.54046	6.64756	4.98571
44130	0.71887	0.74830	0.56262	4.54219	4.17079	3.79184	6.04560	3.91268	2.15416	3.00182	2.87203	2.67538	1.73365	1.40138	1.16445	8.52349	6.63811	4.97559
44290	0.75640	0.74937	0.54505	4.49146	4.14276	3.82161	6.09589	3.92068	2.15919	2.98330	2.85034	2.69338	1.73419	1.40719	1.18108	8.51125	6.63716	4.94517
44460	0.71476	0.77097	0.54049	4.52957	4.18550	3.79966	6.04990	3.94121	2.16325	3.01438	2.93640	2.69208	1.72167	1.44588	1.16033	8.60323	6.69247	4.98849	19.98	6.0	0.00	6.30	0.01285	0.01296	0.01709	0.00785	0.00586	0.00642	0.00473	0.01276	0.01702	0.00684	0.00697	0.00918	0.01502	0.01107	0.01207	0.00219	0.00622	0.00876
44620	0.71936	0.76931	0.54933	4.47195	4.19945	3.77986	6.03936	3.91616	2.15194	2.99676	2.83384	2.67449	1.78441	1.42115	1.15631	8.55646	6.66437	4.98374
44790	0.71958	0.72481	0.53166	4.47383	4.09164	3.80810	6.02577	3.93006	2.18221	3.00175	2.83757	2.65002	1.73270	1.43180	1.18510	8.56719	6.65225	5.02495
44950	0.72151	0.74239	0.54976	4.58266	4.17619	3.80328	6.06493	3.92965	2.17589	3.01558	2.91725	2.69790	1.72593	1.41864	1.19116	8.58178	6.65112	5.00490
45120	0.74062	0.78485	0.55947	4.45981	4.16752	3.78824	6.05824	3.94114	2.17810	3.02519	2.86257	2.66602	1.76242	1.45535	1.19096	8.56772	6.72202	4.98282
45280	0.77565	0.74970	0.56303	4.49519	4.14300	3.84504	6.07924	3.95694	2.17800	2.99197	2.85835	2.64612	1.74172	1.41314	1.17330	8.60752	6.70603	4.99905
45450	0.82978	0.87328	0.53666	4.56375	4.20442	3.84518	6.08119	3.97416	2.16132	3.02815	2.85038	2.67159	1.75608	1.44159	1.16658	8.60682	6.67889	5.02222
45610	0.72875	0.75355	0.55459	4.49448	4.17811	3.79966	6.03824	3.93151	2.18662	3.08488	2.92863	2.70991	1.74788	1.44815	1.19478	8.62551	6.68500	5.00732
45780	0.73905	0.77570	0.54807	4.51979	4.14988	3.81314	6.06747	3.93718	2.19471	3.02160	2.89712	2.69372	1.79306	1.46088	1.23231	8.58327	6.71165	5.06805
45940	0.73646	0.75561	0.55627	4.54507	4.17717	3.89756	6.11012	3.91866	2.15862	3.06923	2.88428	2.74927	1.75798	1.44239	1.18275	8.62252	6.68515	5.04642
46110	0.73480	0.75109	0.54235	4.54138	4.19256	3.82081	6.06474	3.94304	2.17733	3.03828	2.86114	2.66382	1.74882	1.41670	1.19419	8.59710	6.67526	4.99466	19.98	6.1	0.00	7.11	0.01285	0.01296	0.01709	0.00785	0.00586	0.00642	0.00473	0.01276	0.01702	0.00684	0.00697	0.00917	0.01502	0.01107	0.01207	0.00220	0.00622	0.00876
46270	0.74236	0.77417	0.56328	4.57132	4.21697	3.83195	6.07547	3.95561	2.18173	3.08358	2.89983	2.69305	1.74013	1.41083	1.18231	8.58215	6.70209	5.05357
46430	0.73297	0.75602	0.54901	4.54795	4.23521	3.83370	6.06599	3.93428	2.16945	3.05078	2.88935	2.73759	1.74731	1.42907	1.17297	8.54995	6.65892	5.08754
46600	0.74504	0.76809	0.55488	4.56636	4.23584	3.81030	6.12218	3.98898	2.21735	3.04890	2.90747	2.69864	1.76477	1.46222	1.18576	8.57935	6.67999	5.07298
46760	0.75133	0.75709	0.55413	4.49956	4.15491	3.81001	6.06058	3.93834	2.18541	3.00006	2.85974	2.67327	1.75329	1.42247	1.18327	8.56294	6.64919	5.02387
46930	0.72319	0.73498	0.52683	4.49189	4.13569	3.80439	6.07222	3.91584	2.14739	2.98765	2.86934	2.69172	1.74280	1.41303	1.15765	8.62674	6.66449	4.95802
47090	0.71384	0.73122	0.54156	4.51047	4.15626	3.84739	6.06021	3.92854	2.17014	3.03923	2.88466	2.70311	1.74704	1.42835	1.17961	8.56512	6.67974	5.07145
47260	0.71606	0.76251	0.55250	4.57411	4.17680	3.84047	6.06241	3.92266	2.17102	3.05617	2.87604	2.66618	1.82443	1.40755	1.16626	8.58634	6.68444	4.99232
47420	0.73030	0.74274	0.54914	4.52333	4.19107	3.82545	6.07256	3.92582	2.16176	2.99283	2.86946	2.64360	1.74330	1.40674	1.17044	8.56529	6.61273	4.95858
47580	0.72496	0.73824	0.54263	4.52859	4.10969	3.79857	6.06728	3.93406	2.17234	3.02759	2.88450	2.67246	1.72135	1.40063	1.14851	8.59150	6.66715	5.06872
47750	0.72702	0.77552	0.54262	4.53532	4.17747	3.82183	6.10297	3.92921	2.16881	3.00901	2.89095	2.67000	1.73825	1.39830	1.18079	8.63394	6.70416	5.00927	20.11	6.1	0.00	7.21	0.01285	0.01296	0.01709	0.00785	0.00586	0.00642	0.00473	0.01276	0.01702	0.00684	0.00697	0.00917	0.01502	0.01107	0.01207	0.00220	0.00622	0.00876
47920	0.74581	0.74993	0.53828	4.62189	4.24192	3.99037	6.09076	3.95888	2.18987	3.05493	2.96909	2.80654	1.75070	1.46254	1.20077	8.61946	6.68454	5.02010
48080	0.75603	0.77436	0.60782	4.62491	4.21337	3.87783	6.08501	3.99425	2.18704	3.06421	2.88925	2.70263	1.76189	1.42905	1.17576	8.60211	6.70794	5.03151
48240	0.75362	0.77976	0.56062	4.55262	4.21136	3.79987	6.09789	3.92372	2.18279	3.01890	2.88115	2.65426	1.76705	1.43204	1.18507	8.62727	6.72209	5.05807
48410	0.73440	0.76272	0.54503	4.52936	4.18594	3.83462	6.07298	3.92665	2.15979	3.04570	2.93213	2.69909	1.74556	1.42283	1.16440	8.60815	6.69874	5.02444
48570	0.73193	0.74797	0.54687	4.58467	4.21748	3.77180	6.04705	3.93286	2.14214	3.04756	2.91610	2.70650	1.71663	1.43873	1.17778	8.67770	6.76292	5.05004
48740	0.73274	0.74203	0.54464	4.61354	4.19780	3.88239	6.06109	3.94009	2.16888	3.10637	2.95293	2.71412	1.77145	1.41524	1.19657	8.63526	6.72689	5.04716
48900	0.73152	0.74766	0.55389	4.58502	4.25172	3.85944	6.08043	3.94943	2.20145	3.07221	2.95563	2.78678	1.75464	1.43066	1.17062	8.61911	6.73070	5.11428
49070	0.71867	0.73927	0.54604	4.69203	4.39102	3.81510	6.08338	3.92733	2.17749	3.03960	2.90347	2.73815	1.75801	1.43159	1.18255	8.59012	6.71059	5.04727
49240	0.73096	0.75725	0.55880	4.70231	4.31040	3.91879	6.10314	3.94483	2.18399	3.04045	2.87148	2.66769	1.76629	1.41876	1.18780	8.58601	6.67286	5.02274
49400	0.74461	0.76462	0.55178	4.51547	4.21570	3.80746	6.08823	3.98384	2.19615	3.02807	2.93975	2.70753	1.73820	1.45382	1.18254	8.63662	6.75194	5.08969	20.05	6.0	0.00	7.08	0.01285	0.01296	0.01709	0.00785	0.00586	0.00642	0.00473	0.01275	0.01702	0.00684	0.00697	0.00917	0.01501	0.01107	0.01207	0.00220	0.00622	0.00876
49570	0.75413	0.76175	0.54343	4.51160	4.19332	3.83200	6.07824	3.93081	2.16523	2.99394	2.86181	2.68163	1.73171	1.40519	1.18289	8.60977	6.64038	5.03542
49730	0.74790	0.73707	0.53792	4.50101	4.19824	3.83344	6.07354	3.95904	2.17544	2.98791	2.87659	2.68803	1.73736	1.41915	1.19377	8.68321	6.70516	4.96980
49900	0.74952	0.75946	0.54881	4.54843	4.15250	3.82468	6.04242	3.93534	2.15796	2.99059	2.90388	2.66729	1.74937	1.41509	1.16591	8.61459	6.66324	4.98857
50060	0.75228	0.74511	0.53003	4.49437	4.16145	3.84427	6.06023	3.92478	2.15385	3.03522	2.92866	2.75561	1.74997	1.41852	1.15892	8.60276	6.69702	4.98112
50230	0.72872	0.75081	0.55028	4.50895	4.18410	3.78782	6.05928	3.94381	2.17285	3.06120	2.86066	2.68863	1.76074	1.43377	1.20529	8.57006	6.69735	4.99540
50390	0.74655	0.78341	0.57455	4.52127	4.18545	3.83537	6.07795	3.96108	2.19185	3.00394	2.87433	2.68795	1.74906	1.42623	1.22525	8.56972	6.66206	5.00356
50560	0.73700	0.75052	0.55980	4.53806	4.16722	3.83863	6.07221	3.94383	2.23050	3.05318	2.82229	2.65054	1.74232	1.43380	1.19225	8.57094	6.73694	5.03800
50720	0.72616	0.77329	0.54126	4.55951	4.25468	3.85512	6.07782	3.99106	2.17370	3.00289	2.86168	2.69043	1.74981	1.43470	1.19522	8.62643	6.71979	5.05429
50890	0.72446	0.75749	0.54758	4.55434	4.20795	3.82626	6.09449	3.93738	2.18699	2.99622	2.89027	2.71198	1.74028	1.43106	1.16375	8.61275	6.71419	5.02733
51050	0.72872	0.75065	0.53774	4.55647	4.22351	3.87158	6.12011	3.96130	2.17014	3.05735	2.90805	2.70041	1.76558	1.41529	1.18320	8.57168	6.67793	5.02329	20.05	6.1	0.00	7.11	0.01285	0.01296	0.01709	0.00785	0.00586	0.00642	0.00473	0.01275	0.01702	0.00684	0.00697	0.00917	0.01501	0.01107	0.01207	0.00220	0.00622	0.00876
51220	0.75638	0.78151	0.55825	4.57410	4.20273	3.81519	6.06604	3.93678	2.17070	3.08610	2.86590	2.68875	1.74494	1.43979	1.16858	8.72880	6.71310	5.10192
51380	0.76022	0.75060	0.55885	4.49451	4.15252	3.79317	6.06608	3.95198	2.17216	3.05995	2.87839	2.69196	1.75584	1.42601	1.20542	8.69119	6.72041	5.03125
51550	0.73954	0.77135	0.53479	4.58166	4.24586	3.86366	6.05848	3.92833	2.16958	3.02551	2.83112	2.66908	1.72745	1.42590	1.16070	8.58968	6.67796	4.98120
51710	0.72863	0.76313	0.55049	4.53168	4.18724	3.79994	6.06504	3.94636	2.15930	3.00989	2.84389	2.68160	1.72621	1.41456	1.15560	8.65345	6.68590	4.96389
51880	0.73159	0.75405	0.55992	4.55773	4.15861	3.80945	6.06538	3.94226	2.17303	3.03001	2.86750	2.67780	1.72459	1.40336	1.18240	8.60429	6.71948	5.02660
52040	0.73872	0.76370	0.56455	4.60991	4.19174	3.86975	6.08123	3.97660	2.18611	3.10950	2.98912	2.71842	1.74604	1.42429	1.18333	8.69304	6.74723	5.20639
52210	0.73432	0.76862	0.56769	4.57817	4.30363	3.85463	6.06563	3.93103	2.17138	3.04392	2.87512	2.73481	1.73730	1.46541	1.17129	8.86063	6.86116	4.99298
52370	0.71945	0.76760	0.54500	4.66177	4.38954	4.12823	6.09690	3.94805	2.19157	3.02303	2.84934	2.66718	1.78712	1.43215	1.17011	8.56104	6.66638	4.98522
52540	0.70387	0.74620	0.54570	4.48359	4.15627	3.77759	6.06554	3.91130	2.16532	3.01440	2.85714	2.66703	1.75744	1.40982	1.15190	8.53857	6.64917	4.98072
52700	0.71173	0.73448	0.53388	4.47215	4.13231	3.75887	6.05004	3.90217	2.13940	2.97342	2.82299	2.63463	1.73095	1.39582	1.15756	8.60086	6.66512	5.00743	20.11	5.9	0.00	7.07	0.01285	0.01296	0.01709	0.00785	0.00586	0.00642	0.00473	0.01275	0.01702	0.00684	0.00697	0.00917	0.01501	0.01107	0.01207	0.00219	0.00622	0.00876
52870	0.72878	0.73334	0.53627	4.51672	4.15969	3.80836	6.04830	3.91780	2.16503	3.03512	2.87157	2.67359	1.74778	1.41754	1.17129	8.61866	6.71004	5.09934
53030	0.73014	0.75110	0.54922	4.50228	4.15995	3.86052	6.07577	3.95203	2.17537	3.05773	2.85909	2.69685	1.75571	1.44070	1.17087	8.59097	6.67291	5.02517
53200	0.75029	0.78868	0.56528	4.50653	4.18936	3.78923	6.08164	3.98159	2.18450	3.04942	2.91588	2.75082	1.75367	1.42661	1.18340	8.66139	6.75974	5.07883
53360	0.75035	0.76797	0.56342	4.58627	4.19818	3.84573	6.10502	3.94293	2.18169	3.04982	2.95059	2.76273	1.78327	1.44536	1.17648	8.65522	6.71062	5.02677
53530	0.74341	0.76587	0.56141	4.54403	4.25848	3.91346	6.08780	3.97055	2.19345	3.01498	2.86136	2.71072	1.76737	1.43334	1.18614	8.68336	6.72275	5.02755
53690	0.74290	0.76240	0.56469	4.55007	4.21658	3.90602	6.09664	3.96167	2.18244	3.03753	2.92068	2.70572	1.73613	1.41786	1.17146	8.60296	6.70363	5.03743
53860	0.76511	0.75189	0.54895	4.53244	4.20721	3.88443	6.07161	3.93731	2.18337	3.00255	2.86994	2.64073	1.74747	1.43092	1.18708	8.57611	6.65880	4.99327
54020	0.72624	0.74793	0.54144	4.54850	4.16250	3.78738	6.06641	3.93261	2.16367	2.96192	2.87272	2.67648	1.72976	1.41019	1.16630	8.56135	6.68799	4.96068
54190	0.73103	0.76535	0.54290	4.49820	4.13676	3.81413	6.05050	3.90990	2.19921	3.07456	2.92662	2.72069	1.74526	1.39991	1.17922	8.58983	6.68113	5.00854
54350	0.74740	0.76338	0.55021	4.59529	4.18429	3.83693	6.08290	3.93230	2.18013	3.05329	2.90756	2.71619	1.72897	1.41195	1.15835	8.54851	6.69139	5.03317	20.05	6.2	0.00	7.12	0.01285	0.01296	0.01709	0.00785	0.00586	0.00642	0.00473	0.01275	0.01702	0.00684	0.00697	0.00917	0.01501	0.01107	0.01207	0.00219	0.00622	0.00876
54520	0.73529	0.76305	0.55469	4.55403	4.17151	3.82359	6.02675	3.91641	2.16433	3.02356	2.85809	2.68435	1.76157	1.41245	1.18622	8.54729	6.68834	5.05704
54680	0.73715	0.77652	0.55142	4.59501	4.15403	3.83861	6.10437	3.94952	2.21519	3.03789	2.90323	2.69936	1.75015	1.41513	1.19447	8.62884	6.68311	4.98028
54850	0.73373	0.75744	0.55190	4.53864	4.16096	3.83481	6.05807	3.97151	2.20714	3.01182	2.87024	2.67214	1.75718	1.43929	1.19944	8.58746	6.64759	4.97422
55010	0.73988	0.76232	0.56598	4.50798	4.16738	3.84955	6.06177	3.94986	2.18133	3.00465	2.89443	2.70059	1.74288	1.41513	1.18847	8.59428	6.67434	5.02694
55180	0.73296	0.75491	0.54818	4.52966	4.13671	3.80376	6.08048	3.96605	2.18664	2.99287	2.87283	2.67459	1.73107	1.40786	1.16236	8.68886	6.74074	5.07983
55340	0.72670	0.74871	0.54987	4.57360	4.20422	3.82792	6.07083	3.94419	2.19377	3.02784	2.87444	2.71207	1.74205	1.42423	1.16579	8.63236	6.67771	5.03688
55510	0.75311	0.77396	0.55559	4.55388	4.22999	3.81860	6.08407	3.96172	2.16498	3.01451	2.94048	2.69598	1.75857	1.45484	1.21091	8.58028	6.76705	5.01290
55670	0.76187	0.77449	0.56564	4.56171	4.23060	3.79906	6.09819	3.97617	2.18614	3.05501	2.92655	2.74091	1.76505	1.43951	1.19355	8.70212	6.69670	5.12054
55840	0.75530	0.82357	0.60440	4.67946	4.31139	3.98198	6.13371	4.01889	2.28696	3.21565	3.04277	2.89637	1.85933	1.57148	1.29507	8.84628	6.92322	5.18881
56000	0.81816	0.87121	0.62828	4.72821	4.37948	4.07285	6.12199	4.04311	2.31515	3.29373	3.10085	2.93865	1.85877	1.50683	1.27805	8.73502	6.83439	5.20699	20.05	6.1	0.00	7.09	0.01285	0.01296	0.01709	0.00785	0.00586	0.00641	0.00473	0.01275	0.01702	0.00684	0.00697	0.00917	0.01501	0.01107	0.01207	0.00219	0.00621	0.00876
56170	0.84383	0.83174	0.63152	4.71745	4.36474	3.90801	6.17443	4.01896	2.26308	3.17628	2.98228	2.80876	1.80474	1.47782	1.22874	8.84382	6.84702	5.09187
56330	0.76479	0.79798	0.60276	4.56877	4.27487	3.93119	6.08756	3.97492	2.21397	3.07672	2.90186	2.83231	1.78546	1.47055	1.21938	8.66437	6.72579	5.08031
56490	0.75899	0.77533	0.58128	4.56344	4.21421	3.89307	6.07969	3.97997	2.21096	3.31526	2.99617	2.90064	1.76902	1.45218	1.20371	8.68088	6.82102	5.13366
56660	0.74679	0.76306	0.56853	4.56355	4.20821	3.89595	6.05137	3.94264	2.16554	3.10425	2.90891	2.74463	1.76091	1.43141	1.18051	8.62590	6.69743	5.03574
56820	0.71706	0.75167	0.56595	4.53421	4.14880	3.79050	6.05931	3.92026	2.17046	2.99712	2.88467	2.67416	1.74310	1.41151	1.15946	8.56152	6.69655	5.00799
56990	0.71958	0.73871	0.53989	4.50913	4.16809	3.78109	6.05083	3.91746	2.17846	2.99329	2.84655	2.62729	1.74167	1.40570	1.15516	8.55864	6.65944	5.02834
57150	0.71272	0.73609	0.59628	4.48366	4.14104	3.79024	6.15877	4.07625	2.33574	2.93705	2.81287	2.66376	1.73469	1.41862	1.16615	8.58950	6.62429	5.18165
57320	0.74441	0.77086	0.56357	4.52065	4.14622	3.83519	6.06654	3.92770	2.16640	3.06893	2.86100	2.69031	1.75028	1.44422	1.17396	8.65732	6.73421	5.05867
57480	0.73452	0.75092	0.54681	4.49182	4.16041	3.80686	6.05341	3.92285	2.18875	3.00125	2.90204	2.66004	1.74904	1.43610	1.20233	8.60711	6.71854	5.11626
57650	0.75192	0.75447	0.55457	4.57206	4.15526	3.78790	6.09820	3.92799	2.16129	3.04563	2.92290	2.74611	1.74079	1.43645	1.22402	8.67963	6.64764	5.11204	20.11	6.1	0.00	7.17	0.01285	0.01296	0.01709	0.00785	0.00586	0.00641	0.00473	0.01275	0.01702	0.00684	0.00697	0.00917	0.01501	0.01107	0.01207	0.00219	0.00621	0.00876
57810	0.74222	0.78547	0.56620	4.66453	4.37822	3.93678	6.08648	3.98952	2.25146	3.17929	3.10422	2.90800	1.82711	1.50712	1.25864	8.83850	6.92095	5.25276
57980	0.82154	0.85315	0.62307	4.73428	4.40078	4.00733	6.18750	4.06434	2.27636	3.23738	3.19882	2.83394	1.83785	1.50365	1.25450	8.76766	6.83196	5.07381
58140	0.80984	0.81276	0.65059	4.67393	4.26703	3.95940	6.11979	3.98337	2.32967	3.24902	3.08587	2.80181	1.81269	1.52331	1.26575	8.83948	6.81007	5.11147
58310	0.82594	0.81202	0.61719	4.68387	4.28306	3.92127	6.13527	3.98651	2.22732	3.08169	2.90641	2.75050	1.78737	1.44947	1.22734	8.62738	6.67362	5.02121
58470	0.75249	0.79284	0.57354	4.62200	4.26087	3.87058	6.10488	3.96731	2.21159	3.02836	2.90837	2.68795	1.81857	1.44745	1.22217	8.59360	6.69821	5.01047
58640	0.74019	0.76272	0.54482	4.55833	4.22394	3.87525	6.08882	3.96711	2.19196	3.08207	2.95060	2.70618	1.76704	1.43039	1.17911	8.65052	6.75363	5.02047
58800	0.75262	0.77239	0.56186	4.56039	4.18809	3.85475	6.05088	3.94728	2.19610	3.08317	2.92646	2.70697	1.74661	1.43577	1.20135	8.58283	6.69436	5.06834
58960	0.73301	0.75881	0.56342	4.52949	4.20903	3.80163	6.04615	3.90607	2.16593	3.04916	2.86348	2.71539	1.73605	1.42577	1.18749	8.54371	6.63270	5.00707
59130	0.72579	0.74399	0.53706	4.55063	4.15856	3.84481	6.06655	3.93070	2.17366	3.02667	2.90190	2.70051	1.74741	1.41728	1.18423	8.63863	6.69922	5.04875
59290	0.73794	0.77481	0.56495	4.55805	4.17388	3.83836	6.06077	3.95289	2.15574	3.05042	2.91006	2.68362	1.72642	1.41976	1.15488	8.52446	6.60693	4.97076	20.11	6.0	0.00	7.08	0.01285	0.01296	0.01708	0.00785	0.00586	0.00641	0.00473	0.01275	0.01702	0.00684	0.00696	0.00917	0.01501	0.01107	0.01207	0.00219	0.00621	0.00876
59460	0.72703	0.74482	0.55243	4.56081	4.14242	3.83118	6.05113	3.91432	2.14963	3.12166	2.88078	2.73635	1.75272	1.41313	1.17720	8.58049	6.68476	5.06246
59620	0.71411	0.73080	0.56296	4.47242	4.15229	3.79345	6.06538	3.92945	2.20006	3.00295	2.89550	2.67543	1.77430	1.42005	1.18862	8.55628	6.65016	4.94396
59790	0.75581	0.74788	0.55096	4.45888	4.10621	3.81214	6.04038	3.95801	2.18398	2.95711	2.81182	2.65609	1.73673	1.42671	1.17251	8.58697	6.65379	5.12220
59950	0.73887	0.75556	0.57276	4.54157	4.22579	3.79299	6.08503	3.91709	2.16859	2.98206	2.88679	2.70232	1.75446	1.43666	1.17341	8.61767	6.72001	5.06612
60110	0.72274	0.75633	0.54834	4.51471	4.15731	3.85675	6.07866	3.91790	2.16262	2.98346	2.84624	2.63670	1.77701	1.39492	1.17980	8.54363	6.63492	4.99071
60280	0.72728	0.75203	0.54986	4.48620	4.13916	3.93082	6.07578	3.93729	2.18893	2.96979	2.85830	2.64987	1.74914	1.41849	1.19826	8.57638	6.67857	5.00777
60450	0.74437	0.75315	0.54082	4.53006	4.15453	3.76345	6.05661	3.93946	2.15923	3.00961	2.88353	2.68761	1.74512	1.40221	1.16460	8.59389	6.70595	5.06244
60610	0.73285	0.77154	0.56500	4.58364	4.14568	3.79361	6.03835	3.94363	2.16960	2.99707	2.85107	2.65455	1.76121	1.39652	1.17036	8.56729	6.68551	5.03377
60780	0.70508	0.73906	0.54428	4.56648	4.20029	3.88546	6.07125	3.94275	2.15454	2.98939	2.87835	2.67357	1.74262	1.42630	1.20347	8.56204	6.63224	4.98380
60940	0.73425	0.76601	0.56069	4.49041	4.15220	3.78814	6.08971	3.95195	2.16401	3.00857	2.88349	2.71576	1.74831	1.42256	1.18837	8.55029	6.59481	4.95833	20.18	6.0	0.00	7.08	0.01285	0.01296	0.01708	0.00785	0.00586	0.00641	0.00473	0.01275	0.01702	0.00684	0.00696	0.00917	0.01501	0.01107	0.01207	0.00219	0.00621	0.00876
61110	0.76116	0.76006	0.55976	4.50295	4.15924	3.78758	6.11161	3.94012	2.16878	3.09552	2.91575	2.66784	1.77249	1.42999	1.17687	8.60240	6.71249	4.97184
61270	0.73808	0.74196	0.54123	4.51296	4.16387	3.79798	6.03268	3.91850	2.15172	2.98081	2.84306	2.64084	1.73443	1.40665	1.18004	8.52842	6.62846	4.96937
61440	0.73228	0.75494	0.55483	4.45890	4.09608	3.74893	6.02418	3.92457	2.15470	2.98152	2.87447	2.68592	1.73799	1.41501	1.15295	8.56591	6.67296	4.99815
61600	0.72031	0.74581	0.53894	4.51418	4.12514	3.78423	6.05646	3.92977	2.17212	3.00423	2.82146	2.63552	1.75499	1.39749	1.16437	8.53669	6.68202	4.97530
61770	0.72652	0.73950	0.53349	4.58957	4.14704	3.77116	6.01698	3.90093	2.15248	2.99710	2.83085	2.63181	1.73851	1.41634	1.14961	8.47616	6.66085	4.98325
61930	0.72520	0.74843	0.55959	4.44015	4.09437	3.78631	6.03956	3.94143	2.16561	2.96555	2.84229	2.63101	1.73723	1.42107	1.15773	8.52537	6.57915	4.96037
62100	0.73367	0.76456	0.56054	4.47186	4.19200	3.81878	6.05695	3.88964	2.16120	3.03159	2.85804	2.76397	1.74919	1.43387	1.16933	8.50504	6.69093	4.98317
62260	0.73524	0.75077	0.54944	4.46801	4.12564	3.78887	6.04952	3.91255	2.18290	2.99020	2.80168	2.62289	1.71716	1.41164	1.17133	8.56539	6.68874	5.00809
62430	0.72716	0.75036	0.54699	4.51050	4.13859	3.79539	6.03624	3.91150	2.14890	3.00384	2.85214	2.64054	1.73512	1.41599	1.15872	8.51398	6.63317	4.98020
62590	0.71450	0.74079	0.53261	4.56461	4.17043	3.85106	6.05629	3.90296	2.15700	2.99034	2.85162	2.66956	1.71573	1.38908	1.14286	8.53514	6.64227	5.00986	20.11	6.2	0.00	7.09	0.01285	0.01296	0.01708	0.00785	0.00586	0.00641	0.00473	0.01275	0.01702	0.00684	0.00697	0.00917	0.01501	0.01107	0.01207	0.00219	0.00621	0.00876
62760	0.71204	0.74995	0.53998	4.49908	4.13710	3.78708	6.02874	3.94477	2.15053	3.05027	2.88279	2.70182	1.71397	1.43167	1.16210	8.56539	6.60072	4.97637
62920	0.74369	0.76943	0.55438	4.49459	4.17734	3.80566	6.04782	3.94894	2.17743	3.01057	2.85557	2.66570	1.75244	1.41910	1.17408	8.56967	6.60656	4.96789
63080	0.72888	0.73480	0.54363	4.51587	4.12645	3.79781	6.02766	3.90942	2.17045	2.96211	2.89220	2.69957	1.72481	1.40371	1.15653	8.60809	6.67233	5.03558
63250	0.72135	0.75251	0.53205	4.58132	4.26317	3.88704	6.02882	3.91449	2.19365	3.01499	2.90641	2.69933	1.74403	1.40778	1.16224	8.56740	6.61215	4.99459
63410	0.75161	0.74635	0.55236	4.49386	4.13906	3.79585	6.04437	3.93312	2.16011	2.97153	2.88022	2.68414	1.71726	1.41968	1.16406	8.57553	6.60851	5.03182
63580	0.70593	0.73414	0.54890	4.55374	4.14963	3.82840	6.02791	3.93320	2.16286	2.98450	2.85468	2.62979	1.72864	1.39627	1.16639	8.53488	6.61285	4.98976
63740	0.72248	0.75086	0.52913	4.55153	4.14889	3.81288	6.03441	3.91859	2.14289	2.99976	2.86493	2.64754	1.73004	1.40025	1.17715	8.53506	6.60603	4.96700
63910	0.74915	0.73773	0.53597	4.46914	4.14613	3.82080	6.07093	3.95033	2.18192	3.03898	2.88114	2.65237	1.75313	1.42882	1.16601	8.57544	6.64884	5.03666
64080	0.76877	0.79141	0.55723	4.54790	4.17228	3.88577	6.03918	3.95641	2.19142	3.02969	2.92169	2.71511	1.76730	1.44289	1.22557	8.65811	6.69818	5.03938
64240	0.76284	0.77798	0.57141	4.62284	4.27433	3.91947	6.10957	3.97634	2.18551	3.11014	2.93691	2.75797	1.77745	1.45163	1.22047	8.67312	6.72833	5.09873	20.11	5.9	0.00	7.43	0.01285	0.01296	0.01708	0.00785	0.00586	0.00641	0.00473	0.01275	0.01702	0.00684	0.00697	0.00917	0.01501	0.01107	0.01207	0.00219	0.00621	0.00876
64410	0.76333	0.79360	0.58567	4.65904	4.28734	3.92770	6.10878	3.98715	2.23482	3.16895	3.05989	2.78565	1.79491	1.50487	1.24370	8.66086	6.76152	5.05827
64570	0.76884	0.79562	0.59078	4.65902	4.37308	3.96164	6.18380	3.97121	2.22380	3.19598	2.98154	2.74690	1.83878	1.47120	1.22137	8.71353	6.75131	5.08763
64730	0.78107	0.83846	0.58738	4.58845	4.24211	3.91220	6.09079	3.95227	2.19835	3.07411	2.93643	2.72032	1.76416	1.43769	1.18466	8.61100	6.72563	5.02428
64900	0.75006	0.76874	0.56815	4.54444	4.20935	3.88110	6.06451	3.93318	2.19428	3.03516	2.96902	2.74149	1.75296	1.41514	1.17663	8.57336	6.76446	5.02164
65060	0.73831	0.77802	0.56601	4.55415	4.23924	3.90059	6.08074	3.94921	2.17059	3.03757	2.89107	2.71903	1.78138	1.41389	1.17877	8.64395	6.75528	5.00626
65230	0.74782	0.76467	0.55255	4.49272	4.15308	3.87199	6.05748	3.90003	2.15498	2.97169	2.84303	2.67008	1.72773	1.40397	1.16642	8.58516	6.69357	5.02895
65400	0.75372	0.75607	0.55925	4.50856	4.17983	3.83233	6.09300	3.94007	2.17996	3.10286	2.88147	2.67635	1.72513	1.43387	1.18656	8.57397	6.74217	5.04325
65560	0.74126	0.77998	0.55347	4.58122	4.20814	3.85813	6.03685	3.94445	2.17794	3.04201	2.91308	2.75799	1.75314	1.42668	1.20338	8.63480	6.67757	5.01062
65730	0.74130	0.74710	0.55442	4.60686	4.11168	3.80218	6.08333	3.92308	2.16576	2.97973	2.86212	2.68253	1.74843	1.41178	1.18225	8.55581	6.65195	4.95896
65890	0.73235	0.74999	0.55079	4.50532	4.13982	3.79779	6.09821	3.93229	2.18310	2.99737	2.85211	2.65105	1.73608	1.42469	1.18441	8.56872	6.63665	4.98890	20.11	6.0	0.00	7.14	0.01285	0.01296	0.01708	0.00785	0.00586	0.00641	0.00472	0.01275	0.01702	0.00684	0.00697	0.00917	0.01501	0.01107	0.01207	0.00219	0.00621	0.00876
66060	0.74454	0.75957	0.54338	4.50213	4.20583	3.80474	6.04845	3.92467	2.16669	3.05255	2.88725	2.77864	1.75588	1.41686	1.17067	8.55773	6.79736	4.99606
66220	0.72925	0.73902	0.53880	4.49329	4.15487	3.79047	6.06791	3.90817	2.14362	2.99804	2.85181	2.63629	1.71138	1.40435	1.16381	8.52003	6.61616	4.93799
66390	0.74286	0.75507	0.54755	4.50891	4.12200	3.79031	6.06175	3.91619	2.15564	3.04571	2.91461	2.68649	1.73850	1.41446	1.15506	8.54404	6.63642	4.97161
66550	0.72704	0.73659	0.54013	4.49742	4.11777	3.78865	6.04451	3.90756	2.15387	2.95916	2.84321	2.65510	1.73101	1.39141	1.15986	8.55319	6.61283	4.93152
66720	0.71523	0.73127	0.54319	4.49359	4.15844	3.80543	6.03812	3.91087	2.17112	2.96057	2.85612	2.64463	1.73317	1.40243	1.16361	8.57230	6.63737	4.98444
66880	0.72112	0.77502	0.56477	4.52396	4.17675	3.79967	6.06396	3.91980	2.17428	3.00520	2.90254	2.69613	1.75485	1.43835	1.20044	8.54404	6.63600	4.99372
67050	0.73057	0.74622	0.52882	4.52392	4.23082	3.88474	6.04812	3.92929	2.17471	3.03490	2.94288	2.74388	1.77128	1.39980	1.16492	8.67017	6.75148	5.08623
67210	0.73154	0.75021	0.53753	4.61100	4.26401	3.84780	6.04173	3.94254	2.17451	3.04826	2.91457	2.72506	1.74898	1.43567	1.18996	8.57772	6.67328	5.03157
67380	0.74388	0.76228	0.55244	4.72152	4.25151	3.87556	6.05930	3.94058	2.15736	3.03342	2.84970	2.72639	1.75256	1.43823	1.16723	8.56994	6.68976	5.00069
67540	0.73722	0.75055	0.53982	4.54716	4.21762	3.85386	6.05481	3.92230	2.15639	3.07060	2.95149	2.70860	1.72120	1.39577	1.15343	8.55253	6.62989	4.97065	20.18	5.9	0.00	7.09	0.01285	0.01296	0.01708	0.00785	0.00586	0.00641	0.00473	0.01275	0.01702	0.00684	0.00697	0.00917	0.01501	0.01107	0.01207	0.00219	0.00621	0.00876
67700	0.71456	0.74081	0.54031	4.54271	4.15611	3.86435	6.07881	3.95332	2.17394	2.96976	2.88237	2.69739	1.72330	1.40915	1.16530	8.72755	6.67789	4.96271
67870	0.71732	0.73940	0.52830	4.49295	4.13130	3.76318	6.03779	3.93318	2.17663	2.99153	2.84846	2.65635	1.72174	1.42785	1.17394	8.54251	6.66311	4.95972
68030	0.71159	0.74025	0.54228	4.46302	4.15828	3.81641	6.03319	3.91747	2.15440	3.01162	2.85776	2.69075	1.73469	1.40413	1.16221	8.58240	6.65112	4.98809
68200	0.71848	0.76725	0.55185	4.57342	4.20312	3.82404	6.06005	3.92945	2.17439	3.00812	2.84522	2.66261	1.74663	1.42404	1.16417	8.55925	6.71549	4.99039
68360	0.74821	0.75891	0.54541	4.77242	4.32483	3.88677	6.05614	3.91463	2.18017	3.01959	2.88035	2.68406	1.75916	1.41749	1.18942	8.57374	6.69932	4.99134
68520	0.73043	0.73958	0.54932	4.55623	4.20401	3.80468	6.03281	3.93751	2.19160	3.00657	2.94925	2.70016	1.73387	1.41302	1.20970	8.63922	6.68675	4.94897
68690	0.73017	0.73449	0.55155	4.56156	4.15974	3.81931	6.12013	3.92185	2.16733	2.99514	2.85480	2.68236	1.74422	1.44557	1.18754	8.64194	6.67789	4.98087
68850	0.71592	0.75525	0.55419	4.53126	4.19600	3.83679	6.07598	3.96833	2.17904	2.96843	2.90331	2.68257	1.75879	1.44007	1.18226	8.58362	6.69272	4.96016
69020	0.72751	0.75829	0.54763	4.50891	4.15589	3.82324	6.08394	3.94869	2.18313	2.98651	2.87117	2.66389	1.74692	1.41875	1.16746	8.57593	6.65960	4.96704
69180	0.72026	0.75140	0.55306	4.53170	4.18421	3.80425	6.05408	3.95213	2.18294	3.06114	2.88831	2.72388	1.77741	1.43503	1.20187	8.57068	6.74418	5.04416	20.24	6.1	0.00	7.06	0.01285	0.01296	0.01708	0.00785	0.00586	0.00641	0.00473	0.01275	0.01702	0.00684	0.00697	0.00917	0.01501	0.01106	0.01207	0.00219	0.00621	0.00876
69350	0.74547	0.79450	0.56402	4.54132	4.17665	3.83421	6.06672	3.94126	2.17807	3.04982	2.94803	2.67046	1.74209	1.43539	1.15870	8.56841	6.64251	5.02581
69510	0.74785	0.75610	0.55824	4.52101	4.17408	3.81085	6.05383	3.94059	2.16038	2.99465	2.86481	2.67163	1.76974	1.42482	1.18046	8.56029	6.70539	5.00077
69680	0.74182	0.73677	0.53843	4.54185	4.14587	3.76777	6.07421	3.92410	2.15350	3.00767	2.83750	2.71385	1.75684	1.42460	1.18307	8.58520	6.64750	5.01243
69840	0.73979	0.74482	0.54253	4.56423	4.17808	3.81843	6.07625	3.93143	2.17720	3.02923	2.89560	2.66568	1.75985	1.43278	1.18580	8.60184	6.67602	5.02738
70010	0.74370	0.75838	0.55346	4.54359	4.18826	3.84207	6.06227	3.93175	2.17635	3.05533	2.93530	2.68302	1.73785	1.40508	1.16187	8.58170	6.63772	5.02410
70170	0.71957	0.72680	0.52692	4.46673	4.13367	3.90275	6.10218	3.91090	2.18104	3.01266	2.87735	2.65679	1.72502	1.40581	1.16603	8.63530	6.66836	4.98789
70340	0.73063	0.86254	0.54869	4.50346	4.10857	3.78594	6.04839	3.95083	2.16545	3.00270	2.85889	2.65114	1.73427	1.40134	1.16718	8.56221	6.65994	5.01920
70500	0.69836	0.73411	0.54754	4.49160	4.13243	3.82383	6.06069	3.93315	2.16712	2.97939	2.85005	2.70913	1.75790	1.42726	1.17241	8.54755	6.65219	5.01985
70670	0.72241	0.74786	0.54988	4.51274	4.13828	3.78797	6.04200	3.95523	2.19817	3.00200	2.85958	2.62009	1.72974	1.43586	1.25862	8.56553	6.67004	5.02838
70830	0.74329	0.75094	0.55923	4.51758	4.17005	3.82466	6.08465	3.95605	2.16949	3.00985	2.89346	2.67231	1.74490	1.40334	1.17278	8.57962	6.65683	4.98165	20.18	6.1	0.00	7.10	0.01285	0.01296	0.01708	0.00785	0.00586	0.00641	0.00473	0.01275	0.01702	0.00684	0.00697	0.00916	0.01501	0.01106	0.01207	0.00219	0.00621	0.00876
71000	0.72571	0.74276	0.53871	4.51020	4.19226	3.88620	6.09257	3.94429	2.20862	3.07881	2.89346	2.67420	1.74684	1.41005	1.17745	8.56083	6.73209	5.04471
71160	0.72970	0.74402	0.54406	4.53205	4.18073	3.85296	6.07311	3.93976	2.16365	2.98308	2.89096	2.65012	1.72942	1.40467	1.18008	8.63145	6.68155	5.01038
71330	0.72249	0.75218	0.54727	4.53678	4.19122	3.82999	6.04854	3.93767	2.16372	3.01842	2.84329	2.64880	1.73478	1.44186	1.17406	8.59581	6.74667	4.99553
71490	0.71112	0.73827	0.52905	4.45756	4.20049	3.92924	6.05336	3.94195	2.16928	3.00403	2.84009	2.63297	1.78881	1.42206	1.15671	8.60195	6.71656	4.94038
71660	0.71252	0.73255	0.54150	4.46251	4.14668	3.80617	6.04526	3.90975	2.15708	2.99316	2.81877	2.64761	1.72164	1.41088	1.15279	8.56668	6.66024	4.99455
71820	0.69553	0.73816	0.52517	4.54823	4.11207	3.82017	6.04153	3.91900	2.16025	3.01824	2.85677	2.68231	1.72112	1.40061	1.14873	8.58907	6.60497	4.96708
71990	0.70987	0.72907	0.53363	4.52189	4.16889	3.86476	6.07216	3.93124	2.15589	2.95037	2.86853	2.75073	1.74267	1.40380	1.15993	8.61370	6.68752	5.01370
72150	0.72642	0.74496	0.54724	4.59286	4.23383	3.88530	6.08298	3.94579	2.16161	3.00192	2.87895	2.69797	1.74799	1.43645	1.17667	8.57419	6.71772	5.04431
72320	0.71459	0.74106	0.54849	4.53605	4.20313	3.83297	6.12076	3.94376	2.19090	3.03438	2.85035	2.67091	1.74614	1.40486	1.16658	8.58732	6.67987	4.97052
72480	0.73680	0.74534	0.54311	4.54325	4.15170	3.84572	6.06781	3.94338	2.15789	3.00561	2.81403	2.67473	1.72359	1.40627	1.15851	8.59618	6.68902	5.04171	20.24	6.1	0.00	7.10	0.01285	0.01296	0.01708	0.00785	0.00586	0.00641	0.00473	0.01275	0.01702	0.00684	0.00697	0.00916	0.01501	0.01106	0.01207	0.00219	0.00621	0.00876
72650	0.73198	0.75161	0.55453	4.53442	4.15995	3.82800	6.09155	3.93351	2.16292	3.01502	2.91133	2.70392	1.72902	1.42301	1.17403	8.61862	6.70225	5.00741
72810	0.73131	0.75569	0.53679	4.50897	4.16894	3.82625	6.06024	3.92294	2.15988	2.96853	2.87695	2.68358	1.72882	1.43788	1.17997	8.56915	6.69366	4.97817
72980	0.72958	0.74855	0.54821	4.50330	4.15765	3.82903	6.03143	3.93104	2.19245	3.02434	2.88027	2.68008	1.74464	1.42711	1.17221	8.54385	6.62803	4.94911
73140	0.72526	0.74855	0.53885	4.49121	4.15476	3.78663	6.03574	3.94178	2.16547	2.98805	2.82544	2.64010	1.74010	1.40480	1.18377	8.56836	6.64636	4.95718
73310	0.74520	0.73858	0.53595	4.49483	4.18179	3.80111	6.05301	3.90732	2.16768	3.00093	2.87226	2.65849	1.74818	1.39516	1.18300	8.53235	6.64626	5.02766
73470	0.72757	0.73820	0.53979	4.54368	4.18918	3.80793	6.07601	3.91613	2.16611	3.01349	2.93949	2.69101	1.74451	1.40899	1.15844	8.56452	6.66061	5.01091
73630	0.71673	0.75685	0.53698	4.55061	4.13543	3.81395	6.06826	3.94088	2.17993	3.01621	2.91168	2.67166	1.75801	1.43849	1.18235	8.58725	6.66395	5.01431
73800	0.73712	0.78608	0.57443	4.47991	4.12018	3.84014	6.09618	3.96346	2.17683	3.02423	2.84352	2.69492	1.75600	1.42144	1.17290	8.56268	6.67564	5.05004
73970	0.72181	0.75551	0.55694	4.55389	4.17542	3.85280	6.08713	3.93570	2.17364	3.07466	2.95878	2.77067	1.74196	1.41787	1.18105	8.62240	6.65384	4.97149
74130	0.75138	0.74431	0.54559	4.48857	4.14743	3.82161	6.07982	3.96231	2.16214	3.02903	2.90968	2.65817	1.72911	1.41452	1.19541	8.61561	6.67587	5.07041	20.18	6.1	0.00	7.20	0.01285	0.01296	0.01708	0.00785	0.00586	0.00641	0.00473	0.01275	0.01702	0.00684	0.00697	0.00917	0.01501	0.01106	0.01207	0.00219	0.00621	0.00876
74300	0.75441	0.78236	0.55282	4.47352	4.16856	3.85286	6.09657	3.95519	2.20163	3.04281	2.89788	2.70180	1.72544	1.42287	1.17008	8.59334	6.70363	5.00571
74460	0.74388	0.74337	0.54756	4.60428	4.26930	3.97254	6.12808	3.97067	2.20902	3.16281	3.03012	2.81735	1.79254	1.46861	1.23187	8.70581	6.80658	5.07450
74630	0.80035	0.81053	0.62129	4.64020	4.34053	4.04155	6.12247	4.00341	2.22928	3.20727	3.06882	2.81889	1.82478	1.47921	1.23744	8.72674	6.79179	5.18898
74790	0.80603	0.79797	0.58216	4.62992	4.29278	3.94246	6.06595	3.94551	2.19479	3.09892	2.96954	2.78970	1.81153	1.45014	1.22884	8.71166	6.77770	5.08756
74960	0.78426	0.78964	0.57882	4.59848	4.23851	3.95799	6.15184	3.98799	2.20722	3.08367	2.89816	2.64856	1.78657	1.44027	1.17991	8.68732	6.83843	5.05137
75120	0.74956	0.78398	0.55602	4.54242	4.21514	3.85193	6.10880	3.98092	2.22299	3.07604	2.94240	2.73349	1.76964	1.44222	1.20385	8.65123	6.68405	5.01445
75290	0.75615	0.76956	0.55912	4.57217	4.18559	3.86432	6.09411	3.98065	2.18974	3.10001	2.94265	2.71471	1.77538	1.44240	1.19311	8.64823	6.69465	4.97119
75450	0.74881	0.77643	0.55930	4.59557	4.23297	3.88138	6.07586	3.94563	2.18652	2.99020	2.89721	2.70589	1.72103	1.41712	1.17080	8.55820	6.68352	5.04232
75620	0.74577	0.74846	0.54109	4.51470	4.19232	3.79505	6.06479	3.94337	2.16135	2.99067	2.83556	2.67237	1.74195	1.41181	1.16120	8.66533	6.66047	4.98997
75780	0.73071	0.75354	0.54998	4.53791	4.13493	3.82318	6.06190	3.96148	2.16884	2.97724	2.85465	2.64872	1.73164	1.41262	1.16502	8.58043	6.68716	5.06778	20.18	6.1	0.00	7.13	0.01285	0.01296	0.01708	0.00785	0.00586	0.00641	0.00472	0.01275	0.01702	0.00684	0.00697	0.00916	0.01501	0.01106	0.01207	0.00219	0.00621	0.00876
75950	0.71602	0.74491	0.53641	4.55813	4.16237	3.83658	6.07443	3.93761	2.18567	2.98418	2.90771	2.74360	1.73505	1.40573	1.17378	8.57947	6.72479	5.06368
76110	0.75394	0.77839	0.56077	4.67763	4.26318	3.89338	6.13502	3.98989	2.26213	3.16552	3.01749	2.90469	1.81828	1.48981	1.25831	8.77129	6.93268	5.15133
76280	0.82187	0.83154	0.63564	4.68766	4.45229	4.00559	6.11669	4.05106	2.27120	3.20248	3.05131	2.85966	1.83221	1.54048	1.27109	8.85316	6.83513	5.13379
76440	0.82897	0.85756	0.63000	4.71974	4.36073	3.97700	6.18037	4.00271	2.25028	3.09344	2.92892	2.76746	1.80320	1.44907	1.22406	8.68256	6.69961	5.02680
76600	0.76225	0.78149	0.58317	4.61508	4.22548	3.80002	6.11858	3.98574	2.18451	3.12461	2.95918	2.75200	1.75378	1.43454	1.18362	8.67002	6.73888	5.03644
76770	0.75198	0.79713	0.56948	4.56265	4.21431	3.86819	6.10704	3.95912	2.21147	3.04619	2.92643	2.69621	1.77113	1.42693	1.19251	8.55586	6.71720	5.04944
76930	0.73529	0.74874	0.54863	4.48878	4.19468	3.78471	6.07368	3.93352	2.18733	2.98978	2.84804	2.63737	1.75041	1.44768	1.18898	8.55717	6.65055	4.98719
77100	0.73115	0.74626	0.53918	4.45132	4.16023	3.79260	6.03201	3.90805	2.13553	3.03009	2.89804	2.66320	1.73873	1.42291	1.15727	8.53894	6.69051	4.97871
77260	0.71568	0.73973	0.54546	4.51501	4.13685	3.82446	6.08005	3.93392	2.19084	3.00462	2.88128	2.70325	1.74127	1.42861	1.17430	8.57238	6.66524	5.05131
77430	0.74364	0.76144	0.57011	4.56221	4.17361	3.76460	6.09888	3.94199	2.17400	3.03563	2.85288	2.68541	1.74076	1.42857	1.16964	8.61300	6.68335	5.03292	20.37	6.0	0.00	5.31	0.01285	0.01296	0.01708	0.00785	0.00586	0.00641	0.00472	0.01275	0.01702	0.00684	0.00696	0.00917	0.01501	0.01106	0.01207	0.00219	0.00621	0.00876
77590	0.75201	0.76216	0.57797	4.56115	4.24912	3.83884	6.09454	3.96404	2.19408	3.03556	2.86898	2.66536	1.77192	1.42714	1.18026	8.59363	6.67590	5.03732
77760	0.73299	0.73799	0.54784	4.56500	4.19342	3.86007	6.06975	3.94634	2.19484	3.04000	2.92794	2.67522	1.76700	1.43389	1.17289	8.58007	6.69804	5.04645
77920	0.73832	0.76876	0.54712	4.57954	4.23237	3.81447	6.07728	3.92956	2.15606	3.01207	2.86629	2.67418	1.74619	1.40839	1.17882	8.62160	6.67351	4.95102
78090	0.72578	0.74178	0.53077	4.47395	4.14696	3.83382	6.06850	3.93887	2.19002	2.97995	2.86739	2.68537	1.74140	1.38992	1.17312	8.56617	6.68290	5.00114
78250	0.71008	0.73145	0.53559	4.50855	4.17357	3.77560	6.08220	3.93892	2.16497	3.00676	2.87766	2.68368	1.72841	1.41256	1.17493	8.60519	6.63361	4.98982
78410	0.72720	0.73846	0.54971	4.55148	4.18729	3.85191	6.04423	3.93048	2.18489	3.02997	2.83954	2.67306	1.74621	1.42850	1.17390	8.60949	6.75188	4.99953
78580	0.71611	0.74518	0.53800	4.55511	4.16469	3.83296	6.06991	3.94906	2.19753	3.01498	2.88059	2.72072	1.76773	1.41075	1.17971	8.57054	6.65550	4.97773
78740	0.71828	0.74764	0.55416	4.52462	4.15190	3.81514	6.07378	3.96035	2.18820	3.02794	2.87264	2.63577	1.75268	1.41165	1.17170	8.56906	6.65399	4.97899
78910	0.73100	0.74185	0.54427	4.49374	4.11115	3.76606	6.04634	3.95549	2.15391	3.01517	2.85989	2.72264	1.76803	1.43261	1.17062	8.67725	6.63804	4.95978
79080	0.72162	0.74894	0.55273	4.48092	4.13544	3.79234	6.06713	3.94515	2.16800	2.99633	2.85181	2.63180	1.74812	1.40264	1.20065	8.57965	6.68190	4.96891	20.24	5.9	0.00	7.11	0.01285	0.01296	0.01708	0.00785	0.00586	0.00641	0.00472	0.01275	0.01702	0.00684	0.00697	0.00916	0.01501	0.01106	0.01206	0.00219	0.00621	0.00876
79240	0.73411	0.74499	0.54934	4.56675	4.18332	3.86218	6.08357	3.93888	2.15463	3.09132	2.86306	2.67354	1.73268	1.41239	1.19006	8.62374	6.70518	5.01789
79400	0.74484	0.75967	0.56559	4.52380	4.18123	3.79839	6.10995	3.95809	2.18398	3.12117	2.91544	2.67732	1.73972	1.43234	1.18098	8.62769	6.77531	5.06046
79570	0.73751	0.76069	0.57386	4.56182	4.21778	3.97380	6.09871	3.94574	2.19099	3.09177	2.89943	2.73301	1.74854	1.44684	1.20178	8.70897	6.72740	5.05847
79730	0.74712	0.77645	0.55237	4.53594	4.19227	3.85153	6.08637	3.96903	2.19281	3.06357	2.93777	2.73272	1.75207	1.42017	1.18209	8.65850	6.76034	5.07172
79900	0.74463	0.77290	0.55854	4.63588	4.26318	3.85601	6.05445	3.95047	2.16990	3.03882	2.88883	2.70638	1.74480	1.42527	1.16196	8.62805	6.68830	5.09394
80060	0.73054	0.74528	0.55520	4.59296	4.16742	3.88469	6.05777	3.91916	2.17894	3.02344	2.88055	2.64784	1.72799	1.40909	1.17491	8.57781	6.68885	5.02418
80230	0.74521	0.75195	0.54433	4.54302	4.22798	3.87767	6.08557	3.95180	2.18967	3.01767	2.96272	2.69552	1.77612	1.42601	1.18666	8.59628	6.71797	5.05000
80390	0.76351	0.77942	0.55313	4.53067	4.16471	3.82548	6.05391	3.95766	2.20462	3.07565	2.89016	2.66220	1.74573	1.43726	1.18967	8.74945	6.75687	5.05797
80560	0.76449	0.76034	0.56440	4.55961	4.22296	3.87843	6.06447	3.94762	2.18206	3.02536	2.92268	2.76384	1.73747	1.41918	1.18666	8.65409	6.74215	5.10128
80720	0.73641	0.75892	0.56421	4.69897	4.25086	3.88773	6.08984	3.97758	2.18218	3.09246	2.94404	2.78116	1.75796	1.44706	1.19299	8.68908	6.76877	5.07372	20.24	6.1	0.00	7.12	0.01285	0.01296	0.01708	0.00785	0.00586	0.00641	0.00473	0.01275	0.01702	0.00684	0.00697	0.00916	0.01501	0.01106	0.01206	0.00219	0.00621	0.00875
80890	0.75727	0.75617	0.55211	4.60749	4.19223	3.85314	6.09622	3.96421	2.20117	3.10504	2.96437	2.74215	1.75194	1.42807	1.17238	8.66161	6.72842	5.11868
81050	0.72860	0.76396	0.54991	4.60261	4.19631	3.83444	6.07913	3.94657	2.16138	3.21947	2.91748	2.71090	1.75005	1.40707	1.16355	8.61998	6.65081	4.99873
81210	0.72723	0.74114	0.55355	4.57980	4.20010	3.83619	6.03910	3.94361	2.18608	2.98523	2.86290	2.68633	1.73898	1.43463	1.17612	8.63316	6.69569	5.04020
81380	0.73913	0.75479	0.54736	4.52559	4.14086	3.84518	6.07796	3.93359	2.20131	3.07314	2.89065	2.69675	1.75080	1.41681	1.17182	8.57895	6.69440	4.97803
81540	0.72030	0.75368	0.53680	4.56737	4.18335	3.80935	6.07838	3.91322	2.16929	3.02320	2.86136	2.64939	1.73468	1.41773	1.15870	8.60725	6.64597	5.04372
81710	0.72791	0.73311	0.54029	4.57868	4.21891	3.85927	6.08329	3.95922	2.17876	3.00602	2.88473	2.69625	1.78038	1.41945	1.17814	8.65227	6.67580	5.03321
81870	0.73973	0.76168	0.55364	4.55769	4.17017	3.83658	6.08458	3.95093	2.16863	3.00249	2.89764	2.68058	1.73577	1.42862	1.15716	8.60540	6.66600	4.97955
82030	0.74572	0.78213	0.54428	4.50148	4.14184	3.78962	6.06922	3.96636	2.18713	2.99690	2.83468	2.66193	1.71215	1.40828	1.14629	8.62586	6.74649	5.07561
82200	0.72791	0.74678	0.54044	4.53230	4.16338	3.76688	6.06460	3.95737	2.17737	2.99244	2.87282	2.68483	1.74164	1.40975	1.16440	8.63316	6.67019	4.98528
82360	0.74475	0.76334	0.54156	4.51276	4.21068	3.80355	6.06725	3.91035	2.17023	3.02742	2.87823	2.66492	1.76005	1.42612	1.17939	8.56634	6.67721	5.03509	20.31	6.1	0.00	7.03	0.01285	0.01296	0.01707	0.00785	0.00586	0.00642	0.00473	0.01275	0.01702	0.00684	0.00697	0.00917	0.01501	0.01106	0.01206	0.00219	0.00621	0.00875
82530	0.72594	0.74942	0.55039	4.54554	4.17960	3.87277	6.09370	3.91964	2.17986	3.03369	2.92949	2.68437	1.72735	1.41446	1.18076	8.56913	6.70602	5.02518
82690	0.71884	0.75196	0.54843	4.54235	4.21765	3.83939	6.08524	3.92419	2.16652	3.06798	2.86615	2.68059	1.73578	1.40997	1.16022	8.56695	6.72639	5.04126
82860	0.71999	0.75454	0.54659	4.52587	4.20482	3.89508	6.03395	3.91986	2.16528	3.02567	2.88031	2.66608	1.72196	1.40113	1.16308	8.58182	6.72085	5.08063
83020	0.71049	0.72608	0.53687	4.50620	4.18820	3.84316	6.04615	3.92639	2.17928	3.08146	2.87608	2.69972	1.73232	1.42146	1.15489	8.57622	6.68722	5.01206
83180	0.73323	0.75870	0.53637	4.54908	4.18520	3.80510	6.04598	3.97083	2.15363	3.03953	2.85829	2.69913	1.73244	1.40886	1.17069	8.57648	6.73275	4.98357
83350	0.72533	0.74888	0.54502	4.50233	4.16791	3.83046	6.08016	3.95158	2.19320	3.02719	2.91411	2.65213	1.74003	1.44184	1.15579	8.55829	6.70397	5.04159
83510	0.72331	0.74782	0.54193	4.63040	4.17652	3.81781	6.08112	3.94543	2.15821	3.02568	2.92295	2.70457	1.72179	1.40543	1.16660	8.61375	6.67359	5.03284
83670	0.73432	0.74704	0.54479	4.53626	4.20965	3.82879	6.08791	3.91840	2.19380	3.12832	2.87458	2.72682	1.71254	1.39994	1.15644	8.61076	6.66615	5.00815
83840	0.72894	0.72689	0.53493	4.60747	4.18130	3.86133	6.10342	3.94951	2.17083	3.01228	2.86443	2.65859	1.73686	1.41161	1.17195	8.53160	6.66003	4.98042
84000	0.72059	0.73465	0.55182	4.50939	4.20023	3.85084	6.03807	3.93739	2.18341	2.99688	2.88380	2.68361	1.71489	1.39915	1.16815	8.59581	6.63830	5.00766	20.24	6.1	0.00	7.14	0.01285	0.01296	0.01707	0.00785	0.00586	0.00641	0.00473	0.01275	0.01702	0.00684	0.00697	0.00917	0.01501	0.01106	0.01206	0.00219	0.00621	0.00875
84170	0.74336	0.75148	0.52845	4.57346	4.16979	3.82871	6.04031	3.92309	2.17021	2.97500	2.85361	2.64300	1.72414	1.40214	1.15982	8.57462	6.64075	4.94837
