WetView ver 7.1	07-17-2018	22:06:36
AC9 Absorption and Attenuation Meter
00000266		; Serial number
2	; structure version number
Reserved
0.000000	0.000000		; Depth calibration
19200			; Baud rate
0.100000			; Path length (meters)
31			; number of temperature calibration bins
				12.59339	13.44920	14.48425	15.49668	16.50852	17.49564	18.50545	19.52458	20.50176	21.48889	22.47318	23.48707	24.50962	25.49370	26.49784	27.51372	28.50746	29.47237	30.47938	31.50214	32.50470	33.49235	34.50337	35.50914	36.50618	37.52058	38.51018	39.51308	40.49994	41.49866	42.47204	; temperature bins
a650	Blue	20.34952		-0.00383	-0.00415	-0.00430	-0.00391	-0.00363	-0.00317	-0.00269	-0.00237	-0.00179	-0.00130	-0.00099	-0.00071	-0.00015	0.00000	0.00004	-0.00001	0.00015	0.00036	0.00058	0.00101	0.00161	0.00132	0.00160	0.00169	0.00242	0.00273	0.00336	0.00365	0.00427	0.00566	0.00670		; offset and temperature correction info
a676	Green	20.51193		-0.00398	-0.00384	-0.00360	-0.00306	-0.00302	-0.00255	-0.00235	-0.00212	-0.00163	-0.00136	-0.00118	-0.00089	-0.00029	0.00000	0.00068	0.00082	0.00099	0.00137	0.00145	0.00212	0.00260	0.00252	0.00321	0.00354	0.00457	0.00535	0.00617	0.00648	0.00742	0.00887	0.01002		; offset and temperature correction info
a715	Brown	20.23230		-0.00421	-0.00394	-0.00391	-0.00291	-0.00264	-0.00192	-0.00204	-0.00179	-0.00188	-0.00239	-0.00180	-0.00187	-0.00099	0.00000	0.00084	0.00162	0.00188	0.00224	0.00321	0.00381	0.00466	0.00528	0.00588	0.00696	0.00859	0.01041	0.01148	0.01282	0.01333	0.01456	0.01617		; offset and temperature correction info
c510	Red	20.40042		-0.00261	-0.00247	-0.00258	-0.00225	-0.00203	-0.00197	-0.00199	-0.00203	-0.00154	-0.00103	-0.00069	-0.00019	-0.00007	0.00000	0.00011	-0.00021	-0.00042	-0.00056	-0.00040	0.00011	0.00036	0.00050	0.00077	0.00079	0.00050	0.00042	0.00043	0.00092	0.00147	0.00200	0.00232		; offset and temperature correction info
c532	Magenta	20.40760		-0.00248	-0.00265	-0.00278	-0.00279	-0.00296	-0.00292	-0.00238	-0.00206	-0.00129	-0.00096	-0.00092	-0.00052	-0.00009	0.00000	0.00007	-0.00049	-0.00136	-0.00107	-0.00079	-0.00065	-0.00074	-0.00105	-0.00152	-0.00192	-0.00236	-0.00269	-0.00252	-0.00233	-0.00172	-0.00128	-0.00067		; offset and temperature correction info
c555	Black	20.50654		-0.00053	-0.00063	-0.00106	-0.00094	-0.00068	-0.00055	-0.00053	-0.00039	-0.00028	-0.00025	-0.00011	-0.00035	-0.00007	0.00000	-0.00037	-0.00055	-0.00036	-0.00014	0.00019	0.00044	0.00032	0.00040	0.00050	0.00028	0.00014	0.00013	0.00030	0.00073	0.00117	0.00176	0.00241		; offset and temperature correction info
a412	LtBlue	17.15231		-0.01972	-0.01823	-0.01612	-0.01381	-0.01272	-0.01080	-0.00959	-0.00866	-0.00710	-0.00532	-0.00354	-0.00148	-0.00028	0.00000	0.00176	0.00297	0.00394	0.00440	0.00453	0.00487	0.00804	0.00856	0.01065	0.01248	0.01388	0.01439	0.01659	0.01881	0.02256	0.02450	0.02719		; offset and temperature correction info
a440	LtGreen	18.00171		-0.00729	-0.00642	-0.00581	-0.00502	-0.00426	-0.00349	-0.00244	-0.00218	-0.00179	-0.00101	-0.00046	-0.00006	0.00036	0.00000	0.00040	0.00045	0.00030	-0.00015	-0.00024	-0.00035	0.00012	-0.00013	-0.00033	-0.00089	-0.00142	-0.00189	-0.00231	-0.00205	-0.00140	-0.00140	-0.00146		; offset and temperature correction info
a488	Yellow	18.86491		-0.00113	-0.00102	-0.00106	-0.00064	-0.00027	-0.00020	-0.00030	-0.00037	-0.00047	-0.00059	-0.00052	-0.00012	0.00008	0.00000	0.00025	0.00012	-0.00013	-0.00043	-0.00065	-0.00076	-0.00025	0.00010	0.00090	0.00111	0.00113	0.00104	0.00073	0.00068	0.00120	0.00186	0.00258		; offset and temperature correction info
c650	Blue	20.46075		-0.00145	-0.00097	-0.00092	-0.00139	-0.00185	-0.00196	-0.00237	-0.00266	-0.00238	-0.00163	-0.00083	-0.00041	-0.00010	0.00000	0.00005	-0.00001	0.00015	0.00034	0.00029	0.00065	0.00101	0.00164	0.00126	0.00156	0.00175	0.00270	0.00287	0.00371	0.00407	0.00473	0.00534		; offset and temperature correction info
c676	Green	20.10118		-0.00170	-0.00144	-0.00149	-0.00177	-0.00188	-0.00194	-0.00198	-0.00196	-0.00177	-0.00156	-0.00140	-0.00091	-0.00033	0.00000	0.00050	0.00092	0.00110	0.00141	0.00167	0.00199	0.00216	0.00265	0.00269	0.00289	0.00315	0.00374	0.00367	0.00408	0.00486	0.00561	0.00646		; offset and temperature correction info
c715	Brown	19.91219		-0.01201	-0.01097	-0.00859	-0.00680	-0.00651	-0.00592	-0.00535	-0.00440	-0.00387	-0.00303	-0.00222	-0.00153	-0.00028	0.00000	0.00093	0.00149	0.00247	0.00322	0.00330	0.00427	0.00373	0.00464	0.00536	0.00551	0.00643	0.00733	0.00779	0.00884	0.00899	0.01021	0.01120		; offset and temperature correction info
a510	Red	19.21192		0.00201	0.00193	0.00158	0.00098	0.00089	0.00049	0.00011	-0.00016	-0.00016	-0.00005	0.00028	0.00025	0.00006	0.00000	0.00035	-0.00022	-0.00023	-0.00080	-0.00144	-0.00154	-0.00153	-0.00204	-0.00220	-0.00219	-0.00190	-0.00128	-0.00069	-0.00018	0.00068	0.00152	0.00241		; offset and temperature correction info
a532	Magenta	19.41084		-0.00097	-0.00072	-0.00060	-0.00081	-0.00062	-0.00071	-0.00040	0.00020	0.00028	0.00043	0.00000	-0.00035	0.00007	0.00000	-0.00011	-0.00059	-0.00080	-0.00098	-0.00137	-0.00162	-0.00163	-0.00130	-0.00073	-0.00018	0.00090	0.00185	0.00175	0.00247	0.00291	0.00327	0.00349		; offset and temperature correction info
a555	Black	19.69776		0.00171	0.00183	0.00183	0.00186	0.00191	0.00170	0.00115	0.00131	0.00097	0.00073	0.00060	0.00013	0.00015	0.00000	0.00014	-0.00029	-0.00066	-0.00082	-0.00116	-0.00139	-0.00134	-0.00167	-0.00119	-0.00093	-0.00048	0.00053	0.00111	0.00095	0.00178	0.00206	0.00273		; offset and temperature correction info
c412	LtBlue	19.91180		-0.02051	-0.01853	-0.01589	-0.01311	-0.01059	-0.00877	-0.00705	-0.00581	-0.00413	-0.00231	-0.00098	-0.00066	-0.00011	0.00000	-0.00013	-0.00085	-0.00170	-0.00170	-0.00302	-0.00330	-0.00429	-0.00551	-0.00626	-0.00775	-0.00978	-0.01181	-0.01113	-0.01108	-0.01116	-0.01192	-0.01291		; offset and temperature correction info
c440	LtGreen	20.06241		-0.01064	-0.00992	-0.00892	-0.00766	-0.00639	-0.00531	-0.00478	-0.00384	-0.00287	-0.00187	-0.00102	-0.00063	-0.00023	0.00000	-0.00007	-0.00053	-0.00090	-0.00119	-0.00169	-0.00197	-0.00226	-0.00257	-0.00260	-0.00289	-0.00394	-0.00470	-0.00481	-0.00493	-0.00520	-0.00580	-0.00620		; offset and temperature correction info
c488	Yellow	20.35984		-0.01125	-0.01082	-0.00966	-0.00833	-0.00726	-0.00661	-0.00579	-0.00500	-0.00389	-0.00278	-0.00167	-0.00113	-0.00041	0.00000	0.00055	0.00121	0.00187	0.00226	0.00222	0.00251	0.00281	0.00359	0.00414	0.00427	0.00401	0.00404	0.00486	0.00563	0.00638	0.00684	0.00718		; offset and temperature correction info
0.003500	0.004000	0.015000	0.020000	0.015000	0.020000	2500.000000	2000.000000	1000.000000	; maxANoise	maxCNoise	maxADifference	maxCDifference	minACounts	minCCounts	minRCounts	maxTempSdev	maxDepthSdev
0			; auxilliary capabilities
1			; acquisition binsize
0	0.11960	0.11799	0.06562	0.61275	0.59590	0.50445	2.10382	1.22180	0.57520	0.39387	0.38337	0.35480	0.42969	0.34723	0.26182	1.60805	1.08808	0.71978	29.20	6.1	0.00	7.39	0.01273	0.01296	0.01642	0.00796	0.00592	0.00648	0.00471	0.01273	0.01690	0.00687	0.00709	0.00892	0.01496	0.01099	0.01201	0.00223	0.00632	0.00885
170	0.11653	0.11398	0.06170	0.60911	0.59253	0.50219	2.09961	1.21756	0.57101	0.39041	0.38192	0.35185	0.42478	0.34530	0.26213	1.60539	1.08550	0.71724
330	0.11427	0.11424	0.06116	0.60748	0.59128	0.50066	2.09383	1.21535	0.56902	0.38975	0.38135	0.35079	0.42493	0.34591	0.26571	1.60475	1.08765	0.71878
490	0.11519	0.11382	0.06393	0.60880	0.59326	0.50156	2.09529	1.21862	0.57185	0.39003	0.38219	0.35193	0.42561	0.34767	0.26259	1.60398	1.08564	0.71769
660	0.11539	0.11260	0.06259	0.60710	0.59139	0.49972	2.09197	1.21485	0.56971	0.38918	0.38111	0.35161	0.42806	0.34696	0.26343	1.60497	1.08851	0.72023
820	0.11541	0.11294	0.06346	0.61047	0.59429	0.50356	2.09877	1.21882	0.57238	0.39193	0.38325	0.35348	0.42402	0.34698	0.26125	1.60522	1.08675	0.71753
980	0.11454	0.11414	0.06398	0.60879	0.59323	0.50221	2.09624	1.22086	0.57242	0.39102	0.38225	0.35290	0.42525	0.34721	0.26078	1.60295	1.08549	0.71622
1150	0.11419	0.11294	0.06200	0.60687	0.59318	0.50050	2.09458	1.21766	0.57010	0.39041	0.38109	0.35155	0.42424	0.34475	0.26090	1.60432	1.08455	0.71582
1310	0.11452	0.11013	0.06087	0.60542	0.58922	0.49815	2.09470	1.21468	0.56681	0.38701	0.37839	0.34897	0.42785	0.34876	0.26397	1.60557	1.08908	0.72067
1480	0.11710	0.11435	0.06375	0.61075	0.59408	0.50335	2.10115	1.22114	0.57294	0.39090	0.38287	0.35330	0.42820	0.34812	0.26095	1.60720	1.08546	0.71734
1640	0.11670	0.11475	0.06482	0.60979	0.59465	0.50485	2.10410	1.22029	0.57327	0.39197	0.38340	0.35379	0.42819	0.35019	0.26487	1.60583	1.08727	0.71832	29.15	6.1	0.00	7.39	0.01273	0.01296	0.01642	0.00796	0.00592	0.00648	0.00471	0.01273	0.01690	0.00687	0.00709	0.00892	0.01496	0.01099	0.01201	0.00223	0.00632	0.00885
1800	0.11648	0.11426	0.06293	0.60709	0.59124	0.50088	2.09972	1.21624	0.56915	0.38859	0.38107	0.35038	0.42655	0.34224	0.25870	1.59892	1.08232	0.71396
1970	0.11794	0.11557	0.06488	0.60806	0.59317	0.50325	2.10520	1.22117	0.57300	0.39056	0.38336	0.35319	0.42756	0.34782	0.26189	1.60553	1.08635	0.71821
2130	0.11512	0.11320	0.06238	0.60770	0.59135	0.50091	2.09433	1.21520	0.57050	0.38854	0.38001	0.35015	0.42557	0.34462	0.25868	1.60034	1.08227	0.71380
2290	0.11494	0.11393	0.06349	0.60789	0.59186	0.50225	2.09492	1.21861	0.57264	0.39014	0.38151	0.35260	0.42811	0.34759	0.26175	1.60394	1.08617	0.71686
2460	0.11468	0.11285	0.06136	0.60647	0.59021	0.50061	2.09806	1.21422	0.57050	0.38973	0.37980	0.35052	0.42432	0.34390	0.26136	1.60068	1.08183	0.71469
2620	0.11418	0.11148	0.06118	0.60456	0.58826	0.49802	2.08995	1.21733	0.56741	0.38692	0.38011	0.34855	0.42839	0.34754	0.26519	1.60561	1.08822	0.72009
2780	0.11808	0.11620	0.06366	0.60929	0.59338	0.50290	2.10160	1.22085	0.57311	0.39053	0.38276	0.35169	0.42761	0.34580	0.26297	1.60694	1.08492	0.71725
2950	0.11570	0.11492	0.06501	0.60970	0.59354	0.50297	2.10275	1.21890	0.57491	0.39253	0.38444	0.35379	0.42931	0.34548	0.26500	1.60686	1.08726	0.71921
3110	0.11626	0.11215	0.06041	0.60780	0.59139	0.50143	2.10023	1.21901	0.57214	0.38934	0.38119	0.35171	0.42753	0.34477	0.26079	1.60248	1.08383	0.71618
3270	0.11717	0.11501	0.06428	0.60945	0.59314	0.50351	2.10392	1.22288	0.57502	0.39165	0.38384	0.35426	0.42949	0.34930	0.26330	1.60318	1.08629	0.71917	29.15	6.1	0.00	7.39	0.01273	0.01296	0.01642	0.00796	0.00592	0.00648	0.00471	0.01273	0.01690	0.00687	0.00709	0.00892	0.01496	0.01099	0.01201	0.00223	0.00632	0.00885
3440	0.11670	0.11244	0.06292	0.60851	0.59146	0.50123	2.10701	1.21814	0.57062	0.38825	0.38100	0.35148	0.42668	0.34817	0.26442	1.60108	1.08687	0.71908
3600	0.11582	0.11399	0.06446	0.60911	0.59309	0.50250	2.10201	1.22110	0.57407	0.39078	0.38302	0.35146	0.42675	0.34807	0.26391	1.60142	1.08484	0.71769
3760	0.11450	0.11200	0.06220	0.60751	0.59019	0.50012	2.10142	1.22002	0.57048	0.38728	0.37969	0.34947	0.42285	0.34476	0.26087	1.59701	1.08180	0.71452
3930	0.11299	0.11265	0.06397	0.60641	0.59246	0.50458	2.11080	1.22319	0.57663	0.39282	0.38477	0.35342	0.43257	0.35189	0.26597	1.60481	1.08839	0.72063
4090	0.11790	0.11548	0.06273	0.60958	0.59187	0.50252	2.09712	1.22114	0.57419	0.38998	0.38194	0.35092	0.42780	0.34724	0.26229	1.60151	1.08400	0.71670
4250	0.11535	0.11488	0.06409	0.60675	0.59208	0.50336	2.10327	1.22333	0.57637	0.39171	0.38404	0.35302	0.42956	0.34987	0.26628	1.60400	1.08679	0.71896
4420	0.11556	0.11388	0.06544	0.60874	0.59097	0.50096	2.09903	1.22023	0.57179	0.38898	0.38101	0.34979	0.42719	0.34333	0.26318	1.60078	1.08218	0.71503
4580	0.11597	0.11207	0.06441	0.60638	0.59119	0.50230	2.10797	1.22267	0.57401	0.39028	0.38349	0.35065	0.42942	0.34939	0.26592	1.60181	1.08528	0.71829
4740	0.11740	0.11408	0.06273	0.60759	0.59089	0.50025	2.09808	1.22025	0.57221	0.38863	0.38126	0.34842	0.42637	0.34578	0.26000	1.59864	1.08226	0.71408
4910	0.11565	0.11654	0.06328	0.60948	0.59401	0.50254	2.10652	1.22209	0.57396	0.39085	0.38391	0.35175	0.42895	0.34982	0.26541	1.60679	1.08638	0.71860	29.15	6.1	0.00	7.32	0.01273	0.01295	0.01642	0.00796	0.00592	0.00648	0.00471	0.01273	0.01690	0.00687	0.00709	0.00892	0.01496	0.01099	0.01201	0.00223	0.00632	0.00885
5070	0.11825	0.11685	0.06284	0.60836	0.59107	0.50025	2.09615	1.21896	0.57029	0.38925	0.38175	0.34914	0.42527	0.34533	0.26002	1.59967	1.08217	0.71567
5230	0.11534	0.11391	0.06543	0.60919	0.59311	0.50267	2.10037	1.22230	0.57460	0.39032	0.38495	0.35188	0.42875	0.34882	0.26353	1.60521	1.08607	0.71893
5400	0.11697	0.11529	0.06341	0.60886	0.59196	0.50093	2.10023	1.21839	0.57296	0.38857	0.38182	0.35020	0.42827	0.34682	0.26226	1.60147	1.08267	0.71634
5560	0.11751	0.11555	0.06448	0.61026	0.59404	0.50253	2.10205	1.21756	0.57464	0.39111	0.38545	0.35222	0.42922	0.35035	0.26285	1.60422	1.08709	0.71873
5720	0.11795	0.11607	0.06473	0.60901	0.59354	0.50093	2.09091	1.22214	0.57252	0.38800	0.38329	0.34947	0.42512	0.34735	0.26052	1.59972	1.08319	0.71535
5890	0.11622	0.11581	0.06463	0.60903	0.59396	0.50254	2.10253	1.22433	0.57345	0.39075	0.38446	0.35191	0.42725	0.34721	0.26292	1.60508	1.08668	0.71824
6050	0.11641	0.11640	0.06461	0.60828	0.59330	0.50121	2.09955	1.21973	0.57100	0.38797	0.38246	0.35013	0.42788	0.34562	0.26177	1.60195	1.08402	0.71573
6210	0.11851	0.11709	0.06515	0.60993	0.59443	0.50282	2.10315	1.22348	0.57687	0.39015	0.38492	0.35198	0.42730	0.35024	0.26362	1.60452	1.08595	0.71843
6380	0.11817	0.11349	0.06394	0.60875	0.59316	0.50223	2.09916	1.22074	0.57305	0.38922	0.38385	0.35101	0.42775	0.34708	0.26330	1.60057	1.08350	0.71649
6540	0.11866	0.11503	0.06564	0.60953	0.59335	0.50200	2.09940	1.22269	0.57362	0.38972	0.38313	0.35205	0.43072	0.34945	0.26312	1.60358	1.08583	0.71740	29.20	6.1	0.00	7.49	0.01273	0.01295	0.01642	0.00795	0.00592	0.00648	0.00471	0.01273	0.01690	0.00687	0.00709	0.00892	0.01496	0.01099	0.01201	0.00223	0.00632	0.00884
6700	0.11537	0.11498	0.06411	0.60781	0.59329	0.50209	2.10709	1.21977	0.57307	0.38825	0.38353	0.35178	0.42687	0.34859	0.26117	1.60280	1.08364	0.71503
6870	0.11704	0.11835	0.06601	0.61059	0.59495	0.50401	2.09948	1.22292	0.57581	0.39128	0.38550	0.35296	0.42898	0.34872	0.26346	1.60503	1.08736	0.71841
7030	0.11835	0.11634	0.06524	0.60839	0.59287	0.50169	2.09709	1.22298	0.57402	0.38818	0.38204	0.35148	0.42891	0.34826	0.26259	1.60117	1.08287	0.71524
7190	0.11752	0.11768	0.06570	0.61062	0.59438	0.50281	2.10769	1.22331	0.57467	0.39040	0.38406	0.35230	0.42997	0.35067	0.26584	1.60366	1.08627	0.71835
7360	0.11719	0.11262	0.06431	0.60917	0.59262	0.50069	2.09614	1.21913	0.57140	0.38907	0.38107	0.35036	0.42932	0.35043	0.26320	1.60491	1.08676	0.71902
7520	0.11893	0.11584	0.06504	0.61066	0.59498	0.50365	2.09709	1.22289	0.57365	0.39058	0.38383	0.35251	0.43063	0.35040	0.26576	1.60323	1.08511	0.71788
7680	0.11775	0.11652	0.06149	0.60868	0.59211	0.50085	2.10108	1.21891	0.57003	0.38776	0.38179	0.34926	0.42593	0.34552	0.26157	1.59642	1.08133	0.71376
7850	0.11378	0.11446	0.06680	0.60776	0.59497	0.50519	2.10268	1.22568	0.57794	0.39330	0.38649	0.35394	0.43052	0.35240	0.26627	1.60684	1.08852	0.72037
8010	0.11879	0.11429	0.06576	0.61167	0.59410	0.50289	2.09987	1.22018	0.57479	0.39005	0.38370	0.35217	0.42849	0.35002	0.26212	1.60371	1.08525	0.71674
8170	0.11488	0.11576	0.06432	0.60872	0.59226	0.50357	2.09635	1.22239	0.57532	0.39042	0.38435	0.35352	0.42870	0.34942	0.26386	1.60269	1.08708	0.71864	29.20	6.2	0.00	7.38	0.01273	0.01295	0.01642	0.00795	0.00592	0.00648	0.00471	0.01273	0.01690	0.00687	0.00709	0.00892	0.01496	0.01099	0.01201	0.00223	0.00632	0.00884
8330	0.11578	0.11704	0.06467	0.60949	0.59141	0.50123	2.08706	1.21964	0.57157	0.38831	0.38243	0.35058	0.42933	0.34544	0.26172	1.59664	1.08228	0.71465
8500	0.11529	0.11187	0.06201	0.60593	0.58903	0.49956	2.09523	1.21402	0.56659	0.38525	0.38091	0.34863	0.42853	0.35202	0.26570	1.60364	1.08867	0.72211
8660	0.11961	0.11902	0.06628	0.61259	0.59452	0.50578	2.10874	1.22368	0.57412	0.39035	0.38545	0.35404	0.42998	0.34812	0.26383	1.60308	1.08863	0.71989
8820	0.11877	0.11583	0.06523	0.61060	0.59277	0.50386	2.09438	1.22197	0.57421	0.38958	0.38387	0.35239	0.42891	0.34777	0.26228	1.60016	1.08594	0.71688
8990	0.11638	0.11422	0.06314	0.60786	0.59103	0.50201	2.09907	1.22137	0.57204	0.38794	0.38247	0.35097	0.42669	0.34564	0.26350	1.60149	1.08467	0.71638
9150	0.11565	0.11236	0.06288	0.60648	0.58993	0.49969	2.09843	1.21690	0.57085	0.38620	0.38020	0.34904	0.42689	0.34854	0.26606	1.60179	1.08734	0.71965
9310	0.12031	0.11671	0.06476	0.60938	0.59245	0.50326	2.09542	1.22048	0.57245	0.38848	0.38355	0.35120	0.42773	0.34531	0.26433	1.60321	1.08578	0.71806
9480	0.11901	0.11509	0.06255	0.60803	0.59028	0.50114	2.09778	1.21757	0.57023	0.38699	0.38078	0.34953	0.42983	0.34794	0.26782	1.60621	1.08891	0.72145
9640	0.12111	0.11714	0.06505	0.61159	0.59437	0.50428	2.08970	1.21993	0.57273	0.38969	0.38416	0.35198	0.43080	0.34673	0.26260	1.60115	1.08646	0.71801
9810	0.11881	0.11657	0.06665	0.61081	0.59469	0.50526	2.10721	1.22175	0.57485	0.39060	0.38536	0.35293	0.42891	0.34856	0.26495	1.60288	1.08695	0.72006	29.15	6.1	0.00	7.36	0.01273	0.01295	0.01642	0.00795	0.00592	0.00648	0.00471	0.01273	0.01690	0.00687	0.00709	0.00892	0.01496	0.01099	0.01201	0.00223	0.00632	0.00884
9970	0.11808	0.11563	0.06411	0.60834	0.59198	0.50150	2.09600	1.21741	0.57164	0.38715	0.38156	0.35092	0.42655	0.34477	0.25917	1.59958	1.08326	0.71514
10130	0.11755	0.11751	0.06548	0.61084	0.59410	0.50481	2.10465	1.22454	0.57600	0.39047	0.38508	0.35414	0.42933	0.34955	0.26263	1.60421	1.08725	0.72015
10300	0.11784	0.11553	0.06433	0.60972	0.59292	0.50283	2.10656	1.22139	0.57340	0.38851	0.38182	0.35134	0.42746	0.34627	0.26024	1.60177	1.08477	0.71651
10460	0.11888	0.11876	0.06893	0.61002	0.59423	0.50521	2.10420	1.22592	0.57604	0.39090	0.38415	0.35388	0.43007	0.34904	0.26381	1.60512	1.08884	0.72077
10620	0.11825	0.11702	0.06462	0.60952	0.59320	0.50192	2.10161	1.21718	0.57237	0.38866	0.38230	0.35129	0.42603	0.34645	0.26106	1.59885	1.08285	0.71636
10790	0.11492	0.11280	0.06211	0.60585	0.59058	0.50005	2.09622	1.21705	0.57057	0.38595	0.37969	0.35001	0.42830	0.34859	0.26290	1.60499	1.08929	0.72157
10950	0.11979	0.11609	0.06437	0.61082	0.59437	0.50487	2.09560	1.22298	0.57316	0.38909	0.38332	0.35286	0.42748	0.34688	0.26294	1.60143	1.08595	0.71810
11110	0.11829	0.11369	0.06274	0.60648	0.59027	0.49956	2.09892	1.21493	0.56795	0.38634	0.37924	0.34927	0.42610	0.34560	0.26121	1.60095	1.08511	0.71953
11280	0.11847	0.11552	0.06306	0.60894	0.59109	0.50190	2.09951	1.21699	0.57154	0.38842	0.38163	0.35117	0.42843	0.34679	0.26145	1.59881	1.08543	0.71896
11440	0.11775	0.11687	0.06418	0.60892	0.59275	0.50336	2.09730	1.21974	0.57231	0.38898	0.38232	0.35135	0.42616	0.34722	0.25978	1.60045	1.08476	0.71766	29.20	6.1	0.00	7.42	0.01273	0.01295	0.01642	0.00795	0.00592	0.00648	0.00471	0.01273	0.01690	0.00687	0.00709	0.00892	0.01496	0.01099	0.01201	0.00223	0.00632	0.00884
11600	0.11606	0.11424	0.06459	0.60814	0.59204	0.50233	2.10337	1.21743	0.57218	0.38789	0.38121	0.35129	0.42646	0.34799	0.26532	1.60225	1.08732	0.72034
11770	0.11836	0.11623	0.06605	0.61079	0.59386	0.50350	2.10596	1.22333	0.57275	0.38990	0.38299	0.35175	0.42710	0.34658	0.26341	1.60096	1.08507	0.71757
11930	0.11656	0.11466	0.06360	0.60667	0.59084	0.50017	2.09652	1.21797	0.56905	0.38708	0.37990	0.34892	0.42651	0.34957	0.26451	1.60165	1.08858	0.72080
12090	0.11865	0.11811	0.06496	0.61087	0.59377	0.50395	2.09989	1.22253	0.57422	0.39074	0.38287	0.35278	0.42689	0.34676	0.26260	1.60251	1.08556	0.71786
12260	0.11666	0.11426	0.06331	0.60736	0.59037	0.50038	2.09163	1.21913	0.57148	0.38739	0.38081	0.34983	0.42776	0.34961	0.26347	1.60414	1.08703	0.71972
12420	0.11747	0.11755	0.06668	0.61006	0.59444	0.50295	2.10227	1.22288	0.57399	0.38969	0.38416	0.35231	0.42604	0.34840	0.26322	1.60139	1.08510	0.71769
12580	0.11775	0.11268	0.06357	0.60717	0.59096	0.50061	2.09559	1.21564	0.56969	0.38712	0.38067	0.34969	0.42750	0.34645	0.26160	1.60285	1.08512	0.71812
12750	0.11751	0.11551	0.06343	0.60774	0.59172	0.50058	2.09365	1.22034	0.57187	0.38763	0.38110	0.35068	0.42673	0.34533	0.25935	1.60066	1.08332	0.71636
12910	0.11710	0.11413	0.06411	0.60664	0.59066	0.50089	2.09941	1.21954	0.57028	0.38709	0.38167	0.35109	0.42525	0.34400	0.25854	1.59775	1.08237	0.71542
13070	0.11654	0.11706	0.06650	0.60998	0.59543	0.50417	2.09167	1.22510	0.57438	0.39157	0.38353	0.35347	0.43014	0.34839	0.26083	1.60707	1.08741	0.71937	29.20	6.1	0.00	7.32	0.01273	0.01295	0.01642	0.00795	0.00592	0.00648	0.00471	0.01273	0.01690	0.00687	0.00709	0.00892	0.01496	0.01099	0.01201	0.00223	0.00632	0.00884
13240	0.11706	0.11559	0.06391	0.60875	0.59213	0.50206	2.08844	1.22105	0.57092	0.38881	0.38102	0.35064	0.42727	0.34434	0.25920	1.60308	1.08307	0.71535
13400	0.11731	0.11654	0.06654	0.60948	0.59431	0.50380	2.11508	1.22117	0.57406	0.39068	0.38292	0.35293	0.42794	0.34810	0.26316	1.60510	1.08655	0.71816
13560	0.11606	0.11408	0.06430	0.60794	0.59211	0.50123	2.09470	1.21859	0.56928	0.38792	0.38027	0.35032	0.42668	0.34473	0.26019	1.60175	1.08360	0.71565
13730	0.11790	0.11332	0.06553	0.60934	0.59407	0.50344	2.09218	1.22187	0.57297	0.39023	0.38198	0.35285	0.42836	0.34701	0.26221	1.60621	1.08631	0.71904
13890	0.11725	0.11626	0.06474	0.60796	0.59172	0.50149	2.09726	1.22019	0.57214	0.38937	0.37958	0.35091	0.42705	0.34448	0.25928	1.60291	1.08399	0.71565
14050	0.11251	0.11183	0.06190	0.60530	0.58881	0.49890	2.09493	1.21856	0.56916	0.38613	0.37770	0.34783	0.42890	0.34885	0.26508	1.61093	1.08932	0.72137
14220	0.12140	0.11651	0.06564	0.61083	0.59421	0.50274	2.10156	1.22300	0.57360	0.39009	0.38180	0.35212	0.42829	0.34797	0.26093	1.60574	1.08543	0.71748
14380	0.11647	0.11502	0.06662	0.60927	0.59433	0.50446	2.09642	1.22314	0.57515	0.39067	0.38235	0.35227	0.43102	0.34925	0.26391	1.60823	1.08896	0.71876
14540	0.11686	0.11632	0.06300	0.60791	0.59106	0.50175	2.09577	1.21887	0.57214	0.38860	0.38101	0.35074	0.42799	0.34548	0.26218	1.60343	1.08402	0.71643
14710	0.11735	0.11829	0.06688	0.61067	0.59463	0.50388	2.10177	1.22331	0.57548	0.39089	0.38197	0.35236	0.42939	0.34817	0.26229	1.60997	1.08837	0.71927	29.20	6.1	0.00	7.32	0.01273	0.01295	0.01642	0.00795	0.00592	0.00648	0.00471	0.01273	0.01690	0.00687	0.00709	0.00892	0.01496	0.01099	0.01201	0.00223	0.00632	0.00884
14870	0.11756	0.11535	0.06213	0.60864	0.59279	0.50044	2.09710	1.22187	0.57080	0.38809	0.38088	0.35019	0.42617	0.34632	0.26173	1.60413	1.08293	0.71576
15030	0.11787	0.11716	0.06598	0.60957	0.59438	0.50288	2.10050	1.22546	0.57522	0.39078	0.38414	0.35189	0.42855	0.34898	0.26449	1.60825	1.08779	0.71880
15200	0.11733	0.11625	0.06248	0.60785	0.59237	0.50088	2.08905	1.21950	0.57323	0.38844	0.38135	0.35054	0.42955	0.34687	0.26557	1.60594	1.08690	0.71842
15360	0.11868	0.11611	0.06451	0.60901	0.59338	0.50213	2.10281	1.22137	0.57518	0.38931	0.38304	0.35282	0.42778	0.34601	0.26133	1.60606	1.08529	0.71674
15520	0.11834	0.11526	0.06278	0.60714	0.59074	0.49921	2.09716	1.21666	0.57071	0.38622	0.38025	0.34944	0.42394	0.34209	0.26156	1.59946	1.08113	0.71382
15690	0.11393	0.11459	0.06602	0.60520	0.59262	0.50237	2.10627	1.22561	0.57515	0.39110	0.38423	0.35277	0.42914	0.34942	0.26446	1.60667	1.08761	0.71974
15850	0.11668	0.11846	0.06465	0.60832	0.59186	0.50055	2.10376	1.21801	0.57258	0.38795	0.38158	0.34992	0.42643	0.34590	0.25713	1.60272	1.08280	0.71581
16010	0.11600	0.11697	0.06641	0.60601	0.59369	0.50270	2.10306	1.22330	0.57498	0.39050	0.38366	0.35231	0.42958	0.34971	0.26488	1.60709	1.08684	0.71846
16180	0.11985	0.11588	0.06462	0.60827	0.59251	0.50054	2.09154	1.21708	0.57172	0.38804	0.38068	0.35000	0.42742	0.34644	0.26146	1.60263	1.08363	0.71565
16340	0.11580	0.11711	0.06641	0.60567	0.59346	0.50315	2.10558	1.22565	0.57521	0.39062	0.38319	0.35221	0.43152	0.34919	0.26622	1.60696	1.08667	0.71946	29.20	6.2	0.00	7.49	0.01273	0.01295	0.01642	0.00795	0.00592	0.00648	0.00471	0.01273	0.01690	0.00687	0.00709	0.00892	0.01496	0.01099	0.01201	0.00223	0.00632	0.00884
16500	0.11935	0.11779	0.06598	0.60800	0.59221	0.50088	2.09684	1.22052	0.57077	0.38740	0.38050	0.35020	0.42718	0.34703	0.26277	1.60061	1.08220	0.71433
16670	0.11883	0.11759	0.06523	0.60955	0.59455	0.50370	2.10246	1.22433	0.57445	0.39097	0.38358	0.35272	0.43042	0.35033	0.26394	1.60704	1.08704	0.71901
16830	0.11684	0.11558	0.06516	0.60819	0.59230	0.50052	2.10004	1.21818	0.57291	0.38699	0.38014	0.34905	0.42788	0.34741	0.26010	1.60211	1.08193	0.71476
16990	0.11815	0.11791	0.06519	0.60824	0.59339	0.50287	2.11247	1.22805	0.57585	0.39115	0.38303	0.35135	0.42736	0.35032	0.26579	1.60722	1.08494	0.71788
17160	0.11899	0.11613	0.06290	0.60674	0.59141	0.50042	2.09872	1.21786	0.56985	0.38726	0.37950	0.34943	0.42541	0.34395	0.26049	1.60074	1.08203	0.71367
17320	0.11776	0.11752	0.06453	0.60827	0.59394	0.50252	2.10083	1.22274	0.57445	0.38963	0.38138	0.35114	0.42955	0.34706	0.26282	1.60640	1.08510	0.71680
17480	0.11594	0.11468	0.06417	0.60678	0.59223	0.50063	2.09976	1.22058	0.57131	0.38785	0.38065	0.34931	0.42428	0.34620	0.26100	1.60095	1.08136	0.71390
17650	0.11775	0.11820	0.06582	0.60895	0.59315	0.50231	2.10476	1.22307	0.57530	0.38933	0.38324	0.35161	0.42776	0.34593	0.26359	1.60318	1.08545	0.71706
17810	0.11752	0.11662	0.06405	0.60662	0.59171	0.50091	2.10251	1.22231	0.57234	0.38834	0.38196	0.35054	0.42880	0.34304	0.26233	1.59855	1.08295	0.71429
17970	0.11986	0.11562	0.06675	0.60836	0.59475	0.50256	2.10121	1.22161	0.57686	0.39003	0.38325	0.35247	0.42946	0.34876	0.26199	1.60181	1.08556	0.71788	29.20	6.1	0.00	7.37	0.01273	0.01295	0.01642	0.00795	0.00592	0.00648	0.00471	0.01273	0.01690	0.00687	0.00709	0.00892	0.01495	0.01099	0.01201	0.00223	0.00632	0.00884
18140	0.11928	0.11438	0.06578	0.60739	0.59204	0.50097	2.09778	1.22006	0.57178	0.38727	0.38252	0.35017	0.42740	0.34437	0.26094	1.59971	1.08291	0.71482
18300	0.11943	0.12028	0.06585	0.60803	0.59327	0.50289	2.09691	1.21971	0.57416	0.38864	0.38322	0.35137	0.43110	0.34799	0.26191	1.60331	1.08647	0.71729
18460	0.11781	0.11683	0.06392	0.60699	0.59150	0.50085	2.09595	1.21708	0.57101	0.38738	0.38157	0.34962	0.42616	0.34612	0.26028	1.59988	1.08249	0.71457
18630	0.11815	0.11669	0.06851	0.60905	0.59419	0.50294	2.09842	1.22390	0.57599	0.38962	0.38379	0.35179	0.42872	0.34752	0.26152	1.60541	1.08747	0.71920
18790	0.11703	0.11737	0.06443	0.60757	0.59208	0.50077	2.10345	1.22081	0.57173	0.38751	0.38187	0.34986	0.42496	0.34534	0.26183	1.60134	1.08311	0.71509
18950	0.11870	0.11743	0.06637	0.60929	0.59454	0.50283	2.09682	1.22402	0.57565	0.38957	0.38434	0.35144	0.42978	0.35077	0.26670	1.60614	1.08705	0.71819
19120	0.11717	0.11597	0.06480	0.60819	0.59158	0.50028	2.10258	1.21759	0.57091	0.38738	0.38062	0.34896	0.42928	0.34906	0.26586	1.60408	1.08753	0.71974
19280	0.12102	0.11824	0.06537	0.61061	0.59440	0.50433	2.10674	1.22237	0.57553	0.39047	0.38270	0.35225	0.42855	0.35017	0.26569	1.60636	1.08741	0.71876
19440	0.11864	0.11521	0.06301	0.60800	0.59148	0.50041	2.09050	1.21759	0.57127	0.38818	0.38000	0.34960	0.42906	0.34948	0.26243	1.60494	1.08716	0.71831
19610	0.11856	0.11578	0.06382	0.60973	0.59458	0.50051	2.10108	1.22001	0.57167	0.38950	0.38134	0.35054	0.42680	0.34793	0.26153	1.60394	1.08385	0.71680	29.15	6.2	0.00	7.31	0.01273	0.01295	0.01642	0.00795	0.00592	0.00648	0.00471	0.01273	0.01690	0.00687	0.00709	0.00892	0.01496	0.01099	0.01201	0.00223	0.00632	0.00884
19770	0.11762	0.11519	0.06348	0.60705	0.59198	0.49923	2.09698	1.22046	0.57136	0.38770	0.38133	0.34944	0.42799	0.34642	0.26085	1.60111	1.08288	0.71488
19930	0.11354	0.11477	0.06447	0.60560	0.59269	0.50221	2.09257	1.22127	0.57515	0.39065	0.38326	0.35164	0.42940	0.34886	0.26423	1.60665	1.08695	0.71896
20100	0.11791	0.11681	0.06376	0.60831	0.59251	0.49972	2.09636	1.21696	0.57153	0.38846	0.38092	0.35017	0.42556	0.34745	0.25982	1.60484	1.08286	0.71557
20260	0.11568	0.11710	0.06565	0.60559	0.59362	0.50197	2.10915	1.22260	0.57441	0.39204	0.38490	0.35205	0.42970	0.34795	0.26541	1.60854	1.08728	0.71907
20420	0.11786	0.11641	0.06158	0.60798	0.59246	0.50036	2.09667	1.21965	0.57201	0.38827	0.38159	0.34973	0.42761	0.34693	0.26013	1.60214	1.08340	0.71610
20590	0.11763	0.11515	0.06448	0.61011	0.59487	0.50380	2.10276	1.22277	0.57383	0.39198	0.38451	0.35228	0.42986	0.34848	0.26334	1.60566	1.08835	0.71940
20750	0.11921	0.11496	0.06373	0.60835	0.59211	0.50063	2.10358	1.21765	0.57171	0.38913	0.38120	0.35030	0.42673	0.34478	0.26294	1.60124	1.08337	0.71593
20910	0.11822	0.11678	0.06454	0.60857	0.59465	0.50280	2.09226	1.22208	0.57306	0.39034	0.38353	0.35156	0.42835	0.35034	0.26402	1.60575	1.08565	0.71895
21080	0.11685	0.11594	0.06449	0.60865	0.59232	0.50214	2.09459	1.21853	0.57143	0.38930	0.38120	0.35082	0.42566	0.34770	0.26095	1.60287	1.08366	0.71686
21240	0.11909	0.11709	0.06640	0.61006	0.59644	0.50301	2.09744	1.22296	0.57495	0.39058	0.38371	0.35232	0.42866	0.34857	0.26623	1.60642	1.08831	0.71986	29.20	6.1	0.00	7.46	0.01273	0.01295	0.01642	0.00795	0.00592	0.00648	0.00471	0.01273	0.01690	0.00687	0.00709	0.00892	0.01495	0.01099	0.01201	0.00223	0.00632	0.00884
21400	0.11719	0.11524	0.06665	0.61002	0.59474	0.50177	2.10025	1.21912	0.57245	0.38894	0.38207	0.35063	0.42823	0.34604	0.26003	1.60604	1.08419	0.71715
21570	0.12037	0.11761	0.06828	0.61140	0.59630	0.50468	2.10385	1.22509	0.57438	0.39181	0.38419	0.35316	0.43102	0.35228	0.26625	1.60604	1.08844	0.71957
21730	0.11897	0.11722	0.06362	0.60988	0.59342	0.50034	2.09410	1.22018	0.57122	0.38812	0.38073	0.34974	0.42705	0.34661	0.26254	1.60209	1.08322	0.71546
21890	0.11956	0.11905	0.06497	0.61071	0.59568	0.50375	2.09359	1.22454	0.57548	0.39128	0.38479	0.35273	0.42909	0.34975	0.26440	1.60642	1.08784	0.71960
22060	0.11918	0.11565	0.06441	0.60910	0.59336	0.50062	2.10056	1.21642	0.57303	0.38793	0.38103	0.34958	0.42734	0.34713	0.26119	1.60003	1.08315	0.71524
22220	0.11893	0.11717	0.06651	0.60991	0.59525	0.50290	2.10691	1.22009	0.57434	0.39105	0.38328	0.35255	0.42862	0.34933	0.26515	1.60479	1.08585	0.71706
22380	0.11756	0.11470	0.06477	0.60797	0.59299	0.50034	2.09084	1.21838	0.57145	0.38902	0.38108	0.35034	0.42723	0.34719	0.26242	1.60072	1.08269	0.71502
22550	0.11299	0.11364	0.06131	0.60497	0.58979	0.49701	2.09899	1.21747	0.56942	0.38560	0.37943	0.34843	0.42643	0.35053	0.26664	1.60565	1.08907	0.72056
22710	0.11962	0.11617	0.06538	0.61124	0.59515	0.50241	2.10449	1.22111	0.57448	0.39007	0.38319	0.35199	0.42879	0.34756	0.26363	1.60436	1.08555	0.71687
22870	0.11748	0.11470	0.06405	0.60600	0.59047	0.49914	2.09748	1.21677	0.57007	0.38735	0.38025	0.34849	0.43168	0.35017	0.26461	1.60474	1.08976	0.72140	29.20	6.1	0.00	7.31	0.01273	0.01295	0.01642	0.00795	0.00592	0.00648	0.00471	0.01273	0.01690	0.00687	0.00709	0.00892	0.01495	0.01099	0.01201	0.00223	0.00632	0.00884
23040	0.12000	0.11744	0.06600	0.61031	0.59441	0.50292	2.10248	1.22299	0.57483	0.39092	0.38352	0.35223	0.42753	0.34802	0.26692	1.60410	1.08764	0.71918
23200	0.11881	0.11949	0.06768	0.61082	0.59467	0.50323	2.10499	1.22491	0.57580	0.39134	0.38299	0.35178	0.42952	0.34894	0.26284	1.60431	1.08672	0.71848
23360	0.11719	0.11629	0.06367	0.60702	0.59124	0.49988	2.10189	1.21605	0.57186	0.38781	0.38038	0.34914	0.42629	0.34818	0.26545	1.60354	1.08672	0.71782
23530	0.11719	0.11662	0.06528	0.60851	0.59177	0.50088	2.09776	1.21857	0.57264	0.38907	0.37987	0.35006	0.42833	0.34897	0.26431	1.60036	1.08448	0.71593
23690	0.11652	0.11501	0.06308	0.60654	0.59023	0.49961	2.09821	1.21741	0.56979	0.38820	0.37885	0.34894	0.42598	0.34589	0.26047	1.59728	1.08156	0.71359
23850	0.11480	0.11562	0.06516	0.60507	0.59255	0.50237	2.10378	1.22527	0.57500	0.39214	0.38271	0.35219	0.43105	0.35175	0.26712	1.60491	1.08795	0.71906
24020	0.11751	0.11784	0.06498	0.60817	0.59180	0.50060	2.09900	1.21968	0.57295	0.38973	0.38122	0.34941	0.43077	0.34988	0.26530	1.60547	1.08611	0.71749
24180	0.11915	0.11550	0.06401	0.60805	0.59188	0.49960	2.10167	1.22080	0.57227	0.38952	0.37940	0.34919	0.42819	0.34833	0.26363	1.60139	1.08406	0.71553
24340	0.11616	0.11328	0.06401	0.60510	0.58911	0.49812	2.09456	1.21826	0.57077	0.38715	0.37864	0.34723	0.43008	0.34785	0.26499	1.60281	1.08560	0.71723
24510	0.11882	0.11774	0.06430	0.60675	0.59095	0.49987	2.09726	1.21942	0.57026	0.38876	0.38056	0.34870	0.42914	0.34759	0.26379	1.60259	1.08514	0.71586	29.15	6.2	0.00	6.48	0.01273	0.01295	0.01642	0.00795	0.00592	0.00648	0.00471	0.01273	0.01690	0.00687	0.00709	0.00892	0.01495	0.01099	0.01201	0.00223	0.00632	0.00884
24670	0.11806	0.11559	0.06316	0.60509	0.58948	0.49756	2.09108	1.21603	0.56913	0.38712	0.37967	0.34745	0.43034	0.34793	0.26630	1.60504	1.08695	0.71874
24840	0.11935	0.11756	0.06477	0.60862	0.59245	0.49929	2.09203	1.22091	0.57369	0.38934	0.38144	0.34946	0.43039	0.34728	0.26298	1.60405	1.08311	0.71498
25000	0.11809	0.11783	0.06611	0.60756	0.59259	0.50068	2.10470	1.22330	0.57438	0.39021	0.38205	0.35018	0.43063	0.34827	0.26512	1.60345	1.08542	0.71715
25160	0.11772	0.11582	0.06491	0.60615	0.59070	0.50000	2.08984	1.21979	0.57295	0.38837	0.38157	0.34800	0.42673	0.34607	0.26226	1.60139	1.08228	0.71484
25330	0.12289	0.12077	0.06756	0.60931	0.59389	0.50300	2.10139	1.22690	0.57734	0.39174	0.38399	0.35206	0.43158	0.35033	0.26527	1.60800	1.08770	0.71927
25490	0.12015	0.11752	0.06539	0.60751	0.59103	0.49999	2.10243	1.22093	0.57105	0.38818	0.38104	0.34863	0.42618	0.34661	0.26163	1.60409	1.08326	0.71528
25650	0.12012	0.11820	0.06762	0.60790	0.59384	0.50264	2.10428	1.22223	0.57414	0.39114	0.38320	0.35143	0.43046	0.35137	0.26586	1.60641	1.08703	0.71910
25820	0.11745	0.11883	0.06508	0.60688	0.59118	0.49987	2.09877	1.22270	0.57058	0.38742	0.37979	0.34867	0.42639	0.34788	0.26154	1.60131	1.08243	0.71443
25980	0.11613	0.11294	0.06030	0.60237	0.58769	0.49699	2.09375	1.21856	0.56886	0.38479	0.37823	0.34542	0.42795	0.34862	0.26388	1.60547	1.08613	0.71884
26140	0.11910	0.11656	0.06395	0.60670	0.59063	0.50133	2.10088	1.22323	0.57064	0.38870	0.38117	0.34927	0.42759	0.34710	0.26319	1.60164	1.08280	0.71474	29.15	6.2	0.00	7.35	0.01273	0.01295	0.01642	0.00795	0.00592	0.00648	0.00471	0.01273	0.01690	0.00687	0.00709	0.00892	0.01495	0.01099	0.01201	0.00223	0.00632	0.00884
26310	0.11522	0.11401	0.06294	0.60454	0.58777	0.49788	2.09338	1.21608	0.56723	0.38522	0.37804	0.34640	0.42724	0.34743	0.26299	1.60288	1.08529	0.71706
26470	0.11662	0.11609	0.06574	0.60739	0.59043	0.49998	2.09538	1.21990	0.57283	0.38837	0.38059	0.34877	0.42902	0.34681	0.26434	1.60250	1.08354	0.71524
26630	0.11833	0.11555	0.06293	0.60450	0.58855	0.49813	2.08984	1.21830	0.57042	0.38707	0.37824	0.34709	0.42950	0.35056	0.26656	1.60400	1.08618	0.71757
26800	0.12027	0.11681	0.06543	0.60778	0.59217	0.50135	2.10054	1.22176	0.57380	0.38929	0.38189	0.34951	0.42924	0.34907	0.26418	1.60520	1.08675	0.71770
26960	0.11915	0.11760	0.06555	0.60883	0.59322	0.50256	2.10853	1.22415	0.57535	0.39088	0.38273	0.35104	0.42840	0.34754	0.26448	1.60524	1.08550	0.71583
27120	0.11609	0.11776	0.06422	0.60565	0.58981	0.49914	2.09375	1.21773	0.57130	0.38749	0.38039	0.34843	0.42899	0.35117	0.26700	1.60790	1.08744	0.71919
27290	0.12082	0.12048	0.06602	0.60990	0.59402	0.50257	2.09493	1.22189	0.57556	0.39097	0.38372	0.35155	0.43023	0.34995	0.26542	1.60631	1.08618	0.71684
27450	0.11570	0.11659	0.06419	0.60604	0.58955	0.50072	2.08706	1.21804	0.57106	0.38801	0.37984	0.34946	0.42930	0.35094	0.26519	1.60747	1.08624	0.71799
27610	0.11960	0.11604	0.06572	0.60795	0.59314	0.50247	2.09512	1.21814	0.57416	0.39004	0.38261	0.35135	0.42769	0.34768	0.26442	1.60292	1.08434	0.71577
27780	0.11664	0.11387	0.06291	0.60610	0.59035	0.50020	2.09602	1.21575	0.56972	0.38784	0.38017	0.34915	0.42409	0.34496	0.26024	1.60253	1.08171	0.71356	29.15	5.9	0.00	7.35	0.01273	0.01295	0.01642	0.00795	0.00592	0.00648	0.00471	0.01273	0.01690	0.00687	0.00709	0.00892	0.01495	0.01099	0.01200	0.00223	0.00632	0.00884
27940	0.11451	0.11632	0.06838	0.60559	0.59319	0.50476	2.09906	1.22104	0.57842	0.39303	0.38476	0.35402	0.42887	0.35186	0.26550	1.61420	1.08856	0.71949
28100	0.11794	0.11643	0.06338	0.60963	0.59312	0.50293	2.10296	1.22118	0.57553	0.38974	0.38187	0.35151	0.42723	0.34806	0.26222	1.60665	1.08481	0.71600
28270	0.11743	0.11851	0.06855	0.61002	0.59449	0.50501	2.10754	1.22469	0.57608	0.39241	0.38429	0.35322	0.42943	0.34950	0.26056	1.61103	1.08877	0.71922
28430	0.11807	0.11683	0.06524	0.60919	0.59291	0.50175	2.09712	1.22104	0.57415	0.38935	0.38264	0.35041	0.42658	0.34778	0.25993	1.60549	1.08364	0.71481
28590	0.11748	0.11219	0.06121	0.60529	0.58899	0.49836	2.08872	1.21359	0.56985	0.38589	0.37852	0.34762	0.42662	0.34856	0.26271	1.61004	1.08800	0.71882
28750	0.11807	0.11684	0.06392	0.60928	0.59262	0.50246	2.09434	1.21904	0.57312	0.38920	0.38106	0.35097	0.42661	0.34667	0.26306	1.60639	1.08306	0.71565
28920	0.11407	0.11548	0.06236	0.60550	0.58924	0.49991	2.09689	1.21754	0.56872	0.38761	0.37945	0.34798	0.42745	0.34644	0.26449	1.60884	1.08821	0.72009
29080	0.11988	0.11794	0.06567	0.60983	0.59331	0.50288	2.09816	1.21733	0.57103	0.39017	0.38193	0.35146	0.42733	0.34528	0.26191	1.60854	1.08488	0.71613
29250	0.11607	0.11561	0.06230	0.60673	0.58979	0.49967	2.09276	1.21516	0.56898	0.38707	0.38049	0.34905	0.43069	0.35137	0.26711	1.61339	1.09083	0.72240
29410	0.12178	0.11962	0.06698	0.61179	0.59524	0.50456	2.10025	1.22227	0.57548	0.39181	0.38360	0.35282	0.42981	0.34997	0.26512	1.60922	1.08776	0.71781	29.15	6.0	0.00	7.35	0.01273	0.01295	0.01642	0.00795	0.00592	0.00648	0.00471	0.01272	0.01690	0.00687	0.00709	0.00892	0.01495	0.01099	0.01200	0.00223	0.00632	0.00884
29570	0.12028	0.11683	0.06743	0.61081	0.59578	0.50402	2.09783	1.22346	0.57586	0.39252	0.38480	0.35373	0.43102	0.34816	0.26494	1.61132	1.08842	0.71931
29740	0.11559	0.11550	0.06276	0.60895	0.59318	0.50202	2.09435	1.21861	0.57103	0.38969	0.38158	0.35088	0.42739	0.34635	0.26005	1.60506	1.08380	0.71540
29900	0.11777	0.11788	0.06711	0.60909	0.59433	0.50432	2.10399	1.22507	0.57533	0.39088	0.38442	0.35311	0.42798	0.34721	0.26298	1.61025	1.08704	0.71822
30060	0.11564	0.11684	0.06413	0.60810	0.59182	0.50243	2.09171	1.21822	0.57245	0.38913	0.38127	0.35158	0.42653	0.34801	0.26142	1.60724	1.08419	0.71522
30230	0.11440	0.11322	0.06318	0.60599	0.58979	0.49979	2.09662	1.21673	0.56986	0.38796	0.37947	0.34911	0.42881	0.34839	0.26593	1.61119	1.09075	0.72186
30390	0.12150	0.11730	0.06518	0.61149	0.59369	0.50435	2.09825	1.21932	0.57316	0.39061	0.38331	0.35218	0.42785	0.34801	0.26320	1.60767	1.08702	0.71763
30550	0.11998	0.11652	0.06558	0.60893	0.59371	0.50416	2.10461	1.21921	0.57430	0.39062	0.38204	0.35154	0.42633	0.34877	0.26152	1.60699	1.08674	0.71794
30720	0.11685	0.11559	0.06465	0.60844	0.59285	0.50324	2.09261	1.22017	0.57234	0.38938	0.38051	0.34990	0.43016	0.35069	0.26521	1.60814	1.08888	0.72012
30880	0.11859	0.11777	0.06556	0.61095	0.59444	0.50448	2.09623	1.22481	0.57579	0.39134	0.38213	0.35298	0.43047	0.34902	0.26519	1.60982	1.08813	0.71937
31040	0.11819	0.11687	0.06419	0.60845	0.59161	0.50175	2.09574	1.21723	0.57107	0.38733	0.37980	0.34991	0.42749	0.35034	0.26217	1.60756	1.08838	0.71949	29.15	6.0	0.00	7.31	0.01273	0.01295	0.01642	0.00795	0.00592	0.00648	0.00471	0.01273	0.01690	0.00687	0.00709	0.00892	0.01495	0.01099	0.01200	0.00223	0.00632	0.00884
31210	0.11818	0.11747	0.06518	0.60984	0.59256	0.50302	2.10378	1.21954	0.57489	0.38934	0.38028	0.35082	0.42675	0.34807	0.26043	1.60297	1.08613	0.71685
31370	0.11659	0.11492	0.06357	0.60739	0.59093	0.50066	2.10293	1.21963	0.57136	0.38710	0.37912	0.34830	0.42391	0.34235	0.26166	1.60031	1.08344	0.71368
31530	0.11554	0.11465	0.06589	0.60585	0.59134	0.50294	2.09681	1.22178	0.57498	0.39023	0.38173	0.35153	0.42944	0.34983	0.26235	1.60653	1.08640	0.71758
31700	0.11626	0.11385	0.06307	0.60745	0.58998	0.50076	2.09723	1.22013	0.57118	0.38792	0.37824	0.34903	0.42755	0.34636	0.26155	1.60434	1.08367	0.71570
31860	0.11562	0.11507	0.06381	0.60581	0.58953	0.50035	2.09664	1.21994	0.57076	0.38695	0.37912	0.34904	0.42304	0.34620	0.26149	1.60022	1.08154	0.71397
32020	0.11571	0.11479	0.06196	0.60412	0.58785	0.49847	2.09327	1.21664	0.56979	0.38514	0.37819	0.34768	0.42491	0.34555	0.25788	1.59983	1.08008	0.71092
32190	0.11600	0.11731	0.06580	0.60830	0.59282	0.50378	2.09678	1.22318	0.57351	0.39051	0.38221	0.35241	0.42835	0.34860	0.26219	1.60773	1.08755	0.71840
32350	0.11652	0.11484	0.06471	0.60710	0.59017	0.50075	2.09170	1.21923	0.57173	0.38811	0.37994	0.34896	0.42766	0.34526	0.25804	1.60292	1.08393	0.71392
32510	0.11627	0.11719	0.06392	0.60778	0.59343	0.50280	2.09686	1.21883	0.57364	0.39026	0.38083	0.35122	0.42804	0.34769	0.26292	1.60700	1.08656	0.71719
32680	0.11715	0.11700	0.06257	0.60713	0.58854	0.50113	2.09052	1.21415	0.56772	0.38515	0.37773	0.34828	0.42522	0.34532	0.26090	1.60316	1.08147	0.71276	29.20	6.0	0.00	7.36	0.01273	0.01295	0.01642	0.00795	0.00592	0.00648	0.00471	0.01273	0.01690	0.00687	0.00709	0.00892	0.01495	0.01099	0.01200	0.00223	0.00632	0.00884
32840	0.11643	0.11747	0.06430	0.60611	0.59117	0.50250	2.09630	1.22003	0.57378	0.38905	0.38030	0.35016	0.42741	0.34907	0.25971	1.60517	1.08492	0.71543
33000	0.11525	0.11260	0.06265	0.60586	0.58888	0.50029	2.09498	1.21898	0.57027	0.38619	0.37916	0.34877	0.42428	0.34450	0.26099	1.60303	1.08194	0.71229
33170	0.11537	0.11163	0.06260	0.60311	0.58560	0.49718	2.08771	1.21491	0.56798	0.38378	0.37680	0.34623	0.42584	0.34907	0.26207	1.60921	1.08631	0.71864
33330	0.11814	0.11721	0.06599	0.60725	0.59000	0.50126	2.10431	1.21943	0.57338	0.38722	0.38052	0.34900	0.42857	0.34633	0.26170	1.60466	1.08379	0.71468
33490	0.11559	0.11451	0.06127	0.60365	0.58682	0.49745	2.09667	1.21641	0.56734	0.38408	0.37766	0.34636	0.43135	0.35204	0.26609	1.60796	1.08822	0.72016
33660	0.12102	0.11782	0.06481	0.60958	0.59121	0.50259	2.09835	1.22168	0.57392	0.38830	0.38028	0.35007	0.42894	0.34724	0.26375	1.60505	1.08443	0.71526
33820	0.11854	0.11894	0.06748	0.60809	0.59171	0.50292	2.09911	1.22450	0.57508	0.38947	0.38295	0.35145	0.42923	0.34907	0.26345	1.60835	1.08679	0.71698
33980	0.11633	0.11541	0.06395	0.60668	0.58807	0.49994	2.10125	1.22043	0.57107	0.38688	0.37945	0.34797	0.42729	0.34643	0.26187	1.60311	1.08077	0.71267
34150	0.11907	0.11755	0.06730	0.60845	0.59240	0.50406	2.09990	1.22523	0.57610	0.39021	0.38194	0.35131	0.43024	0.34960	0.26546	1.60741	1.08649	0.71714
34310	0.11764	0.11648	0.06403	0.60708	0.58942	0.50015	2.09664	1.21878	0.57309	0.38681	0.37869	0.34814	0.42796	0.34651	0.26262	1.60515	1.08241	0.71303	29.15	6.0	0.00	7.32	0.01273	0.01295	0.01642	0.00795	0.00592	0.00648	0.00471	0.01273	0.01690	0.00687	0.00709	0.00892	0.01495	0.01099	0.01200	0.00223	0.00632	0.00884
34470	0.11791	0.11588	0.06634	0.60644	0.59019	0.50183	2.09936	1.22198	0.57427	0.38743	0.38001	0.34986	0.42857	0.34815	0.26166	1.60751	1.08397	0.71510
34640	0.11739	0.11540	0.06519	0.60514	0.58847	0.49943	2.10021	1.21720	0.57264	0.38524	0.37756	0.34741	0.42669	0.34712	0.26158	1.60476	1.08318	0.71408
34800	0.11671	0.11582	0.06601	0.60527	0.58951	0.50033	2.09802	1.22086	0.57226	0.38672	0.37875	0.34838	0.42675	0.34681	0.26469	1.60579	1.08315	0.71358
34960	0.11637	0.11606	0.06455	0.60470	0.58769	0.50017	2.10825	1.21783	0.57216	0.38609	0.37877	0.34759	0.42739	0.34747	0.26167	1.60446	1.08023	0.71194
35130	0.11574	0.11508	0.06559	0.60399	0.58908	0.50171	2.09838	1.22120	0.57453	0.38937	0.37911	0.34929	0.42838	0.34794	0.26425	1.60738	1.08494	0.71525
35290	0.11802	0.11635	0.06487	0.60481	0.58867	0.49904	2.10010	1.21957	0.57222	0.38562	0.37768	0.34682	0.42784	0.34448	0.26057	1.60502	1.08151	0.71205
35450	0.11898	0.11414	0.06475	0.60358	0.58885	0.50117	2.09922	1.22514	0.57471	0.38794	0.38002	0.34900	0.42933	0.34939	0.26285	1.60738	1.08470	0.71447
35620	0.11831	0.11644	0.06599	0.60452	0.58831	0.49935	2.09928	1.22191	0.57107	0.38588	0.37779	0.34680	0.42812	0.34440	0.26227	1.60296	1.08062	0.71182
35780	0.11554	0.11694	0.06782	0.60346	0.59076	0.50181	2.10380	1.22580	0.57634	0.38865	0.38038	0.34985	0.43280	0.34971	0.26619	1.61008	1.08668	0.71735
35940	0.11850	0.11639	0.06568	0.60585	0.59068	0.50075	2.09588	1.21972	0.57169	0.38708	0.37953	0.34765	0.42665	0.34710	0.26549	1.60612	1.08525	0.71478	29.15	6.1	0.00	7.36	0.01273	0.01295	0.01642	0.00795	0.00592	0.00648	0.00471	0.01273	0.01690	0.00687	0.00709	0.00892	0.01495	0.01099	0.01201	0.00223	0.00632	0.00884
36110	0.11796	0.11583	0.06565	0.60415	0.58922	0.50026	2.09776	1.22232	0.57428	0.38691	0.37758	0.34742	0.42886	0.34684	0.26281	1.60620	1.08295	0.71405
36270	0.11687	0.11551	0.06227	0.60326	0.58864	0.49911	2.09288	1.21523	0.56938	0.38545	0.37793	0.34574	0.42591	0.34497	0.26047	1.60045	1.07949	0.71100
36430	0.12110	0.12108	0.06730	0.60702	0.59296	0.50296	2.10203	1.22413	0.57600	0.39057	0.38266	0.35105	0.43137	0.34980	0.26740	1.60942	1.08754	0.71781
36600	0.12013	0.11818	0.06502	0.60653	0.59137	0.50049	2.10378	1.22266	0.57316	0.38701	0.37948	0.34779	0.43130	0.34923	0.26591	1.61019	1.08615	0.71692
36760	0.11747	0.11560	0.06588	0.60577	0.59029	0.49807	2.10108	1.22123	0.57248	0.38585	0.37854	0.34704	0.42603	0.34899	0.26564	1.60586	1.08321	0.71417
36920	0.11624	0.11571	0.06388	0.60375	0.58774	0.49751	2.10116	1.21698	0.56968	0.38462	0.37766	0.34514	0.42982	0.34882	0.26402	1.60637	1.08476	0.71599
37090	0.11884	0.11621	0.06455	0.60469	0.59031	0.50057	2.10285	1.22261	0.57439	0.38604	0.38025	0.34735	0.42908	0.34680	0.26233	1.60530	1.08267	0.71302
37250	0.11895	0.11657	0.06408	0.60289	0.58868	0.49864	2.09925	1.22116	0.57088	0.38463	0.37825	0.34588	0.43013	0.34973	0.26574	1.60796	1.08615	0.71692
37420	0.11758	0.11720	0.06672	0.60568	0.59110	0.50055	2.10198	1.22168	0.57343	0.38711	0.37937	0.34771	0.42896	0.34806	0.26440	1.60650	1.08301	0.71368
37580	0.11659	0.11423	0.06344	0.60237	0.58717	0.49772	2.09376	1.21911	0.56997	0.38289	0.37650	0.34505	0.42904	0.35093	0.26661	1.60727	1.08765	0.71941	29.20	6.1	0.00	7.41	0.01273	0.01295	0.01642	0.00795	0.00592	0.00648	0.00471	0.01273	0.01689	0.00687	0.00709	0.00892	0.01495	0.01099	0.01200	0.00223	0.00632	0.00884
37740	0.12100	0.11699	0.06614	0.60766	0.59135	0.50089	2.11116	1.22349	0.57394	0.38639	0.38013	0.34784	0.42838	0.34849	0.26308	1.60546	1.08348	0.71529
37910	0.12062	0.11880	0.06763	0.60801	0.59396	0.50285	2.10098	1.22661	0.57839	0.38895	0.38217	0.35012	0.43047	0.35132	0.26662	1.60988	1.08869	0.71881
38070	0.11923	0.11814	0.06580	0.60678	0.59149	0.50078	2.10300	1.22541	0.57358	0.38608	0.37941	0.34789	0.42800	0.34938	0.26440	1.60782	1.08617	0.71676
38230	0.11926	0.11700	0.06371	0.60440	0.58906	0.49889	2.10047	1.21857	0.57260	0.38488	0.37769	0.34603	0.42701	0.34573	0.26272	1.60092	1.08303	0.71256
38400	0.11506	0.11104	0.06492	0.60164	0.58788	0.49763	2.09497	1.21961	0.57113	0.38378	0.37607	0.34437	0.43126	0.34845	0.26681	1.61066	1.08860	0.71963
38560	0.12055	0.11769	0.06681	0.60966	0.59380	0.50303	2.10222	1.22447	0.57848	0.38861	0.38197	0.34959	0.43194	0.35176	0.26658	1.60697	1.08842	0.71800
38720	0.11931	0.11663	0.06622	0.60572	0.59140	0.49953	2.09620	1.22318	0.57194	0.38492	0.37929	0.34661	0.42850	0.35127	0.26554	1.60782	1.08690	0.71785
38890	0.12097	0.11706	0.06366	0.60708	0.59158	0.50079	2.09910	1.22322	0.57428	0.38723	0.38023	0.34805	0.42912	0.35153	0.26387	1.60529	1.08456	0.71566
39050	0.11567	0.11403	0.06437	0.60369	0.58951	0.49782	2.09236	1.21959	0.57113	0.38326	0.37689	0.34521	0.42418	0.34758	0.25865	1.60092	1.07963	0.71184
39210	0.11467	0.11335	0.06252	0.60107	0.58669	0.49602	2.09445	1.21679	0.57008	0.38133	0.37641	0.34352	0.42783	0.34802	0.26560	1.60652	1.08733	0.71921	29.15	6.1	0.00	7.33	0.01273	0.01295	0.01642	0.00795	0.00592	0.00648	0.00471	0.01273	0.01689	0.00687	0.00709	0.00892	0.01495	0.01099	0.01200	0.00223	0.00632	0.00884
39370	0.12028	0.11907	0.06483	0.60786	0.59284	0.50096	2.09627	1.22443	0.57515	0.38663	0.38148	0.34878	0.42983	0.34969	0.26464	1.60643	1.08527	0.71614
39540	0.11895	0.11608	0.06416	0.60490	0.58862	0.49772	2.10040	1.22069	0.57170	0.38402	0.37799	0.34614	0.42702	0.34729	0.26629	1.60532	1.08644	0.71737
39700	0.11789	0.11797	0.06474	0.60652	0.59095	0.50017	2.09799	1.22226	0.57453	0.38603	0.38101	0.34800	0.42704	0.34558	0.26352	1.60180	1.08288	0.71486
39860	0.11614	0.11452	0.06418	0.60407	0.58803	0.49774	2.09990	1.21884	0.57275	0.38335	0.37848	0.34539	0.42397	0.34317	0.26041	1.59901	1.07888	0.71213
40030	0.11994	0.11838	0.06683	0.60775	0.59286	0.50289	2.10431	1.22584	0.57740	0.38819	0.38347	0.35076	0.43140	0.35096	0.26741	1.60875	1.08745	0.71865
40190	0.11871	0.11807	0.06506	0.60605	0.59002	0.49918	2.09776	1.21891	0.57278	0.38546	0.38122	0.34744	0.42654	0.34763	0.26321	1.60129	1.08204	0.71350
40350	0.11757	0.11811	0.06712	0.60608	0.59126	0.50112	2.10828	1.22564	0.57736	0.38683	0.38133	0.34804	0.42909	0.34992	0.26389	1.60467	1.08442	0.71631
40510	0.11796	0.11677	0.06359	0.60484	0.58880	0.49871	2.10378	1.22156	0.57224	0.38458	0.37930	0.34625	0.42708	0.34583	0.26287	1.60034	1.08122	0.71370
40680	0.11601	0.11300	0.06293	0.60198	0.58698	0.49628	2.09582	1.21968	0.57044	0.38229	0.37793	0.34448	0.42833	0.34976	0.26801	1.60613	1.08670	0.71971
40840	0.12118	0.11851	0.06703	0.60709	0.59231	0.50104	2.09696	1.22301	0.57432	0.38787	0.38093	0.34763	0.43053	0.34960	0.26568	1.60469	1.08320	0.71498	29.20	6.0	0.00	7.37	0.01273	0.01295	0.01642	0.00795	0.00592	0.00648	0.00471	0.01272	0.01689	0.00687	0.00709	0.00892	0.01495	0.01099	0.01200	0.00223	0.00632	0.00884
41010	0.12065	0.11744	0.06614	0.60687	0.59178	0.50141	2.10033	1.22254	0.57522	0.38820	0.38190	0.34829	0.42816	0.35026	0.26574	1.60507	1.08424	0.71617
41170	0.11784	0.11747	0.06393	0.60473	0.58966	0.49768	2.09924	1.22081	0.57328	0.38589	0.38037	0.34713	0.42497	0.34563	0.26234	1.59962	1.08218	0.71291
41330	0.11799	0.11713	0.06683	0.60490	0.59120	0.50009	2.09980	1.22127	0.57577	0.38805	0.38186	0.34814	0.42665	0.35009	0.26262	1.60198	1.08347	0.71620
41500	0.11670	0.11460	0.06464	0.60446	0.59062	0.49857	2.09772	1.22014	0.57164	0.38672	0.38110	0.34713	0.42753	0.34648	0.26411	1.60194	1.08150	0.71340
41660	0.11937	0.12101	0.06712	0.60702	0.59248	0.50196	2.10486	1.22619	0.57571	0.38837	0.38347	0.34979	0.42986	0.35021	0.26615	1.60722	1.08516	0.71708
41820	0.11621	0.11544	0.06482	0.60503	0.59005	0.49958	2.09868	1.22147	0.57254	0.38560	0.38076	0.34752	0.42717	0.34788	0.26200	1.60194	1.08127	0.71328
41990	0.11665	0.11781	0.06645	0.60588	0.59224	0.50136	2.09634	1.22190	0.57516	0.38742	0.38316	0.34905	0.42904	0.34751	0.26693	1.60640	1.08499	0.71571
42150	0.11515	0.11713	0.06578	0.60452	0.59070	0.49805	2.09766	1.22155	0.57362	0.38483	0.37988	0.34672	0.42581	0.34537	0.26408	1.60074	1.08065	0.71297
42310	0.11454	0.11487	0.06255	0.60175	0.58737	0.49574	2.09873	1.21775	0.56929	0.38355	0.37878	0.34469	0.42959	0.35073	0.26658	1.60250	1.08590	0.71794
42480	0.11848	0.11825	0.06539	0.60509	0.58957	0.49907	2.10622	1.22286	0.57339	0.38559	0.38078	0.34743	0.42821	0.34998	0.26402	1.60210	1.08226	0.71539	29.20	6.1	0.00	7.38	0.01273	0.01295	0.01642	0.00795	0.00592	0.00648	0.00471	0.01272	0.01689	0.00687	0.00709	0.00892	0.01495	0.01099	0.01200	0.00223	0.00631	0.00884
42640	0.11640	0.11541	0.06641	0.60407	0.58926	0.49915	2.10428	1.22167	0.57430	0.38600	0.38179	0.34734	0.42716	0.34599	0.26277	1.60197	1.08229	0.71439
42800	0.11814	0.11719	0.06491	0.60215	0.58783	0.49695	2.10232	1.21900	0.56946	0.38461	0.37884	0.34612	0.42794	0.34743	0.26323	1.60326	1.08393	0.71617
42970	0.11887	0.11623	0.06461	0.60533	0.58948	0.49862	2.10153	1.22221	0.57433	0.38605	0.38100	0.34739	0.42797	0.34746	0.26288	1.60137	1.08136	0.71409
43130	0.11767	0.11571	0.06408	0.60419	0.58839	0.49756	2.09934	1.22189	0.57133	0.38404	0.37911	0.34646	0.42775	0.34936	0.26447	1.60395	1.08465	0.71659
43290	0.11899	0.11901	0.06555	0.60607	0.59097	0.49942	2.09484	1.22273	0.57576	0.38662	0.38056	0.34825	0.42729	0.34790	0.26281	1.60081	1.08167	0.71459
43460	0.11655	0.11430	0.06343	0.60324	0.58739	0.49606	2.10046	1.21927	0.57209	0.38377	0.37990	0.34608	0.42915	0.35016	0.26653	1.60283	1.08583	0.71799
43620	0.12147	0.11845	0.06783	0.60728	0.59180	0.50075	2.09832	1.22263	0.57639	0.38780	0.38177	0.34927	0.42855	0.34679	0.26445	1.60476	1.08358	0.71518
43780	0.11835	0.11665	0.06496	0.60497	0.58904	0.49957	2.09723	1.22332	0.57429	0.38670	0.38144	0.34797	0.42701	0.34815	0.26365	1.60077	1.08154	0.71369
43950	0.11823	0.11719	0.06304	0.60332	0.58761	0.49819	2.09672	1.22220	0.57156	0.38546	0.38011	0.34784	0.42983	0.34717	0.26165	1.59794	1.08076	0.71295
44110	0.11644	0.11533	0.06389	0.60132	0.58646	0.49521	2.09223	1.21587	0.56934	0.38204	0.37736	0.34482	0.42866	0.34670	0.26745	1.60465	1.08394	0.71701	29.15	6.1	0.00	7.34	0.01273	0.01295	0.01642	0.00795	0.00592	0.00648	0.00471	0.01272	0.01689	0.00686	0.00709	0.00892	0.01495	0.01099	0.01200	0.00223	0.00631	0.00884
44280	0.11785	0.11839	0.06436	0.60543	0.58942	0.49888	2.09324	1.21865	0.57594	0.38521	0.38088	0.34921	0.42900	0.34590	0.26189	1.60255	1.08083	0.71400
44440	0.11677	0.11597	0.06393	0.60440	0.58945	0.49941	2.08903	1.21998	0.57355	0.38538	0.38024	0.34876	0.42854	0.34893	0.26615	1.60397	1.08161	0.71415
44600	0.11616	0.11691	0.06405	0.60412	0.58723	0.49810	2.09509	1.22096	0.57173	0.38448	0.37951	0.34741	0.42937	0.34615	0.26352	1.60053	1.07997	0.71266
44770	0.11665	0.11789	0.06583	0.60500	0.58892	0.50008	2.10366	1.22044	0.57655	0.38640	0.38117	0.34949	0.43080	0.34966	0.26467	1.60174	1.08346	0.71628
44930	0.11745	0.11666	0.06499	0.60335	0.58732	0.49873	2.09259	1.21954	0.57380	0.38412	0.37885	0.34789	0.42882	0.34557	0.26135	1.59929	1.07991	0.71316
45090	0.11608	0.11790	0.06708	0.60594	0.59124	0.50007	2.10608	1.22388	0.57653	0.38631	0.38131	0.35002	0.43230	0.34968	0.26625	1.60564	1.08448	0.71623
45260	0.11699	0.11537	0.06502	0.60366	0.58756	0.49783	2.10032	1.22035	0.57237	0.38412	0.37841	0.34629	0.42643	0.34540	0.26146	1.60135	1.07861	0.71262
45420	0.11673	0.11922	0.06741	0.60562	0.59110	0.50161	2.10513	1.22421	0.57754	0.38745	0.38118	0.34969	0.43013	0.34935	0.26804	1.60525	1.08507	0.71761
45580	0.11941	0.11609	0.06454	0.60436	0.58802	0.49846	2.10468	1.22047	0.57237	0.38436	0.37775	0.34786	0.42795	0.34800	0.25968	1.60049	1.08048	0.71292
45750	0.11785	0.11722	0.06567	0.60471	0.59045	0.49941	2.09904	1.22094	0.57518	0.38588	0.37958	0.34811	0.42950	0.34671	0.26386	1.60413	1.08275	0.71537	29.15	6.2	0.00	7.34	0.01273	0.01295	0.01642	0.00795	0.00592	0.00648	0.00471	0.01272	0.01689	0.00686	0.00709	0.00892	0.01495	0.01099	0.01200	0.00223	0.00631	0.00884
45910	0.11588	0.11381	0.06433	0.60296	0.58701	0.49601	2.10387	1.21772	0.57156	0.38337	0.37574	0.34567	0.42372	0.34692	0.25948	1.59889	1.07944	0.71129
46070	0.11468	0.11235	0.06162	0.59990	0.58579	0.49437	2.09758	1.21789	0.56897	0.38251	0.37654	0.34404	0.42891	0.34931	0.26297	1.60237	1.08403	0.71580
46240	0.11831	0.11666	0.06463	0.60502	0.58908	0.49741	2.09898	1.22288	0.57310	0.38486	0.37884	0.34648	0.42905	0.34551	0.26275	1.60233	1.08328	0.71506
46400	0.11786	0.11516	0.06503	0.60455	0.58901	0.49818	2.09196	1.22228	0.57276	0.38492	0.37855	0.34698	0.42689	0.34809	0.26054	1.60263	1.08243	0.71342
46560	0.11720	0.11339	0.06310	0.60377	0.58836	0.49733	2.09061	1.21965	0.57218	0.38298	0.37797	0.34609	0.42997	0.34777	0.26384	1.60349	1.08355	0.71549
46730	0.11788	0.11388	0.06482	0.60456	0.58955	0.49835	2.10132	1.22140	0.57247	0.38376	0.37843	0.34668	0.42808	0.34562	0.26062	1.60052	1.08193	0.71377
46890	0.11821	0.11537	0.06468	0.60344	0.58739	0.49622	2.09429	1.22049	0.57289	0.38354	0.37766	0.34550	0.42890	0.35081	0.26322	1.60010	1.08345	0.71636
47050	0.11684	0.11608	0.06654	0.60507	0.58931	0.49815	2.10638	1.22136	0.57473	0.38508	0.37896	0.34692	0.42891	0.34651	0.26389	1.60198	1.08107	0.71351
47220	0.11680	0.11318	0.06311	0.60245	0.58689	0.49657	2.10916	1.21958	0.57276	0.38199	0.37751	0.34556	0.43083	0.34980	0.26933	1.60585	1.08690	0.71961
47380	0.12097	0.11953	0.06632	0.60843	0.59160	0.50119	2.10354	1.22462	0.57664	0.38711	0.38094	0.34814	0.43103	0.34980	0.26711	1.60370	1.08436	0.71685	29.20	6.0	0.00	7.38	0.01273	0.01295	0.01642	0.00795	0.00592	0.00648	0.00471	0.01272	0.01689	0.00686	0.00709	0.00892	0.01495	0.01099	0.01200	0.00223	0.00631	0.00884
47550	0.11861	0.11665	0.06459	0.60619	0.59132	0.49984	2.10134	1.22335	0.57512	0.38521	0.37905	0.34852	0.42951	0.34886	0.26362	1.60297	1.08302	0.71548
47710	0.11717	0.11492	0.06240	0.60271	0.58708	0.49669	2.09496	1.22036	0.57093	0.38289	0.37680	0.34556	0.42758	0.34647	0.26053	1.60134	1.07864	0.71218
47870	0.11395	0.11271	0.06167	0.59982	0.58602	0.49400	2.08898	1.21536	0.56783	0.38180	0.37451	0.34366	0.42864	0.35022	0.26764	1.60533	1.08574	0.71846
48040	0.11808	0.11780	0.06433	0.60612	0.58953	0.49906	2.09634	1.21981	0.57273	0.38580	0.37851	0.34721	0.42835	0.34665	0.26186	1.60100	1.08151	0.71359
48200	0.11629	0.11474	0.06526	0.60471	0.58931	0.49861	2.10317	1.22036	0.57336	0.38584	0.37902	0.34707	0.42816	0.34778	0.26403	1.60271	1.08250	0.71445
48360	0.11533	0.11672	0.06498	0.60411	0.58852	0.49806	2.09851	1.21959	0.57210	0.38492	0.37885	0.34678	0.42875	0.34667	0.25978	1.60121	1.08040	0.71319
48530	0.11825	0.11674	0.06521	0.60531	0.59056	0.49954	2.09755	1.22325	0.57436	0.38702	0.38081	0.34829	0.43012	0.34831	0.26203	1.60413	1.08364	0.71475
48690	0.11594	0.11679	0.06498	0.60403	0.58773	0.49765	2.09364	1.21895	0.57204	0.38536	0.37950	0.34727	0.42627	0.34663	0.26363	1.60288	1.08081	0.71299
48850	0.11683	0.11751	0.06439	0.60491	0.58881	0.49836	2.10798	1.22311	0.57338	0.38687	0.37912	0.34826	0.43019	0.34713	0.26427	1.60473	1.08268	0.71518
49020	0.11492	0.11452	0.06477	0.60382	0.58822	0.49802	2.10475	1.21949	0.57036	0.38410	0.37845	0.34619	0.42652	0.34585	0.26289	1.59772	1.07932	0.71294	29.20	6.0	0.00	7.29	0.01273	0.01295	0.01642	0.00795	0.00592	0.00648	0.00471	0.01272	0.01689	0.00686	0.00709	0.00892	0.01495	0.01099	0.01200	0.00223	0.00631	0.00884
49180	0.11630	0.11568	0.06572	0.60465	0.59002	0.49988	2.10556	1.21909	0.57455	0.38713	0.37988	0.34854	0.43055	0.34919	0.26139	1.60338	1.08357	0.71526
49340	0.11763	0.11727	0.06558	0.60411	0.58818	0.49746	2.09966	1.21808	0.57192	0.38502	0.37952	0.34773	0.42862	0.35041	0.26270	1.60072	1.08152	0.71419
49510	0.11872	0.11863	0.06819	0.60613	0.59082	0.50173	2.10590	1.22165	0.57609	0.38756	0.38212	0.34977	0.43080	0.35094	0.26544	1.60398	1.08611	0.71840
49670	0.11991	0.11817	0.06457	0.60562	0.58811	0.49853	2.09199	1.22052	0.57260	0.38481	0.37890	0.34673	0.42698	0.34574	0.26257	1.60162	1.08163	0.71390
49830	0.11802	0.11835	0.06555	0.60566	0.59050	0.50056	2.10042	1.21956	0.57568	0.38629	0.37979	0.34903	0.42972	0.34992	0.26191	1.60136	1.08454	0.71663
50000	0.11598	0.11354	0.06400	0.60420	0.58814	0.49851	2.09106	1.21848	0.57189	0.38419	0.37820	0.34664	0.42852	0.34694	0.26506	1.60432	1.08350	0.71619
50160	0.11577	0.11485	0.06458	0.60531	0.58882	0.49958	2.09387	1.21981	0.57269	0.38626	0.38030	0.34790	0.42646	0.34895	0.26134	1.60291	1.08331	0.71592
50320	0.11514	0.11426	0.06296	0.60367	0.58729	0.49764	2.09612	1.21771	0.57072	0.38429	0.37851	0.34613	0.42554	0.34586	0.26193	1.59973	1.08065	0.71404
50480	0.11303	0.11408	0.06355	0.60329	0.58914	0.49994	2.09997	1.21987	0.57473	0.38739	0.38122	0.34899	0.42565	0.34728	0.26315	1.60424	1.08488	0.71664
50650	0.11712	0.11557	0.06412	0.60520	0.58878	0.49745	2.10035	1.21977	0.57056	0.38411	0.37798	0.34593	0.42536	0.34688	0.26214	1.60211	1.08046	0.71250	29.15	6.1	0.00	7.72	0.01273	0.01295	0.01642	0.00795	0.00592	0.00648	0.00471	0.01272	0.01689	0.00686	0.00709	0.00892	0.01495	0.01099	0.01200	0.00223	0.00631	0.00884
50810	0.11332	0.11390	0.06422	0.60239	0.58810	0.49830	2.09262	1.22052	0.57167	0.38591	0.38152	0.34761	0.42654	0.34825	0.26197	1.60490	1.08275	0.71551
50980	0.11641	0.11485	0.06329	0.60458	0.58857	0.49803	2.09408	1.21854	0.56998	0.38456	0.37964	0.34645	0.42504	0.34619	0.26204	1.60361	1.08076	0.71336
51140	0.11551	0.11535	0.06601	0.60290	0.58896	0.49940	2.09950	1.21939	0.57477	0.38778	0.38115	0.34859	0.42832	0.34833	0.26473	1.60601	1.08340	0.71614
51300	0.11729	0.11628	0.06405	0.60499	0.58847	0.49938	2.10063	1.21943	0.57193	0.38544	0.38080	0.34749	0.42433	0.34362	0.26297	1.60297	1.08118	0.71407
51470	0.11904	0.11765	0.06594	0.60700	0.59165	0.50264	2.10825	1.22275	0.57401	0.38878	0.38390	0.35084	0.42902	0.35027	0.26539	1.60747	1.08737	0.71875
51630	0.11819	0.11733	0.06621	0.60683	0.59033	0.50009	2.10434	1.21660	0.57073	0.38536	0.37978	0.34663	0.42237	0.34353	0.25786	1.60074	1.08099	0.71312
51790	0.11659	0.11390	0.06324	0.60589	0.58978	0.50088	2.08973	1.21826	0.57274	0.38657	0.38089	0.34918	0.42713	0.34927	0.26296	1.60722	1.08584	0.71743
51960	0.11516	0.11442	0.06139	0.60491	0.58726	0.49780	2.09340	1.21475	0.56819	0.38443	0.37829	0.34670	0.42190	0.34540	0.25718	1.60044	1.08048	0.71281
52120	0.11444	0.11440	0.06427	0.60455	0.58873	0.49925	2.09855	1.21715	0.57068	0.38571	0.37890	0.34798	0.42507	0.34409	0.26135	1.60614	1.08326	0.71522
52280	0.11418	0.11424	0.06126	0.60329	0.58734	0.49818	2.09856	1.21831	0.56852	0.38425	0.37809	0.34654	0.42297	0.34454	0.25674	1.60119	1.08048	0.71205	29.20	6.1	0.00	7.29	0.01273	0.01295	0.01642	0.00795	0.00592	0.00648	0.00471	0.01272	0.01689	0.00686	0.00709	0.00892	0.01495	0.01099	0.01200	0.00223	0.00631	0.00884
52450	0.11497	0.11428	0.06251	0.60393	0.58688	0.49829	2.10000	1.21939	0.56991	0.38477	0.37927	0.34758	0.42611	0.34574	0.25999	1.60162	1.08140	0.71346
52610	0.11421	0.11260	0.06270	0.60294	0.58570	0.49676	2.09870	1.21533	0.57048	0.38409	0.37814	0.34568	0.42317	0.34424	0.25977	1.60106	1.07972	0.71144
52770	0.11397	0.11286	0.06280	0.60246	0.58691	0.49730	2.09758	1.21867	0.57079	0.38397	0.37751	0.34569	0.42528	0.34583	0.26090	1.60307	1.08164	0.71319
52940	0.11462	0.11410	0.06113	0.60192	0.58530	0.49606	2.09204	1.21689	0.56939	0.38318	0.37770	0.34489	0.42432	0.34407	0.25957	1.60110	1.08030	0.71125
53100	0.11361	0.11599	0.06612	0.60316	0.58770	0.49823	2.09994	1.21908	0.57229	0.38472	0.37825	0.34625	0.42755	0.34720	0.26341	1.60621	1.08337	0.71441
53260	0.11692	0.11332	0.06245	0.60294	0.58576	0.49606	2.09115	1.21701	0.56869	0.38283	0.37762	0.34526	0.42482	0.34525	0.25874	1.60402	1.08061	0.71188
53430	0.11882	0.11477	0.06393	0.60502	0.58906	0.49947	2.10649	1.22164	0.57261	0.38668	0.38060	0.34852	0.42967	0.34957	0.26237	1.60642	1.08465	0.71518
53590	0.11591	0.11149	0.06300	0.60251	0.58692	0.49550	2.09572	1.21527	0.56738	0.38290	0.37741	0.34491	0.42388	0.34676	0.25779	1.60110	1.07996	0.71139
53750	0.11329	0.11224	0.06152	0.60247	0.58678	0.49752	2.09828	1.21879	0.57115	0.38562	0.37819	0.34672	0.42690	0.34478	0.26237	1.60286	1.08269	0.71288
53920	0.11298	0.11231	0.06080	0.60163	0.58631	0.49518	2.08869	1.21359	0.56750	0.38228	0.37610	0.34471	0.42512	0.34702	0.26106	1.60922	1.08193	0.71427	29.15	6.1	0.00	7.34	0.01273	0.01295	0.01642	0.00795	0.00592	0.00648	0.00471	0.01272	0.01689	0.00686	0.00709	0.00892	0.01495	0.01099	0.01200	0.00223	0.00631	0.00884
54080	0.11592	0.11371	0.06201	0.60278	0.58748	0.49728	2.09282	1.21391	0.57027	0.38455	0.37815	0.34576	0.42414	0.34869	0.25942	1.60948	1.08209	0.71385
54240	0.11382	0.11289	0.06276	0.60242	0.58695	0.49666	2.09627	1.21613	0.56857	0.38381	0.37841	0.34506	0.42538	0.34539	0.26066	1.60540	1.08201	0.71273
54410	0.11439	0.11321	0.06288	0.60190	0.58956	0.49926	2.10361	1.21900	0.57416	0.38659	0.38132	0.34804	0.42701	0.34946	0.26366	1.61265	1.08624	0.71637
54570	0.11559	0.11362	0.06280	0.60422	0.58834	0.49707	2.09082	1.21443	0.56974	0.38383	0.37767	0.34484	0.42444	0.34277	0.25979	1.60613	1.08092	0.71229
54730	0.11142	0.11298	0.06419	0.60200	0.58868	0.49836	2.09560	1.21893	0.57232	0.38676	0.38215	0.34742	0.42777	0.34607	0.26441	1.60935	1.08491	0.71615
54900	0.11439	0.11368	0.06165	0.60440	0.58831	0.49728	2.09512	1.21238	0.56734	0.38359	0.37816	0.34503	0.42317	0.34365	0.25986	1.60738	1.07997	0.71163
55060	0.11223	0.11252	0.06383	0.60135	0.58972	0.49825	2.09860	1.21678	0.57148	0.38698	0.38225	0.34757	0.42664	0.34799	0.26233	1.61321	1.08694	0.71624
55220	0.11496	0.11462	0.06338	0.60526	0.58861	0.49709	2.09683	1.21534	0.56776	0.38388	0.37958	0.34465	0.42679	0.34960	0.26194	1.61094	1.08491	0.71569
55390	0.11521	0.11293	0.06354	0.60369	0.58834	0.49647	2.09697	1.21265	0.56912	0.38255	0.37834	0.34348	0.42491	0.34674	0.26022	1.60729	1.08161	0.71231
55550	0.11410	0.11238	0.06215	0.60230	0.58748	0.49565	2.09783	1.21157	0.56643	0.38301	0.37801	0.34369	0.42158	0.34304	0.25809	1.60371	1.07907	0.71025	29.15	5.9	0.00	7.39	0.01273	0.01295	0.01642	0.00795	0.00592	0.00648	0.00471	0.01272	0.01689	0.00686	0.00709	0.00892	0.01495	0.01099	0.01200	0.00223	0.00631	0.00884
55710	0.11476	0.11559	0.06653	0.60728	0.59345	0.50161	2.10576	1.22094	0.57421	0.38740	0.38192	0.34874	0.42696	0.34873	0.26351	1.61190	1.08602	0.71722
55880	0.11515	0.11393	0.06186	0.60581	0.59037	0.49901	2.09544	1.21460	0.56814	0.38485	0.37879	0.34600	0.41947	0.33592	0.24310	1.61276	1.08583	0.71623
56040	0.09108	0.08868	0.03839	0.60536	0.58991	0.49728	1.92247	1.12151	0.50463	0.38358	0.37885	0.34535	0.36161	0.26078	0.18572	1.60851	1.08069	0.71314
56200	0.03695	0.02097	-0.03023	0.60255	0.58707	0.49644	1.45141	1.00736	0.43438	0.38241	0.37705	0.34310	0.30116	0.18740	0.11975	1.60697	1.08337	0.71518
56370	-0.00954	0.00382	-0.02211	0.60536	0.58941	0.49904	1.69033	1.10031	0.49769	0.38374	0.37971	0.34552	0.36644	0.27878	0.21286	1.60568	1.08218	0.71437
56530	0.09249	0.08992	0.04148	0.60440	0.58904	0.49858	1.96494	1.17718	0.54394	0.38482	0.38031	0.34595	0.40642	0.33425	0.26724	1.60632	1.08472	0.71616
56700	0.15045	0.15344	0.09570	0.60604	0.59070	0.49941	2.29568	1.27888	0.61032	0.38443	0.38147	0.34639	0.46206	0.39391	0.30557	1.60645	1.08258	0.71391
56860	0.15525	0.15177	0.09221	0.60238	0.58846	0.49573	2.26143	1.26812	0.60084	0.38150	0.37720	0.34358	0.45823	0.39107	0.29960	1.61031	1.08497	0.71734
57020	0.15302	0.14551	0.09185	0.60624	0.59141	0.49853	2.24594	1.25891	0.59781	0.38398	0.38073	0.34607	0.44819	0.37790	0.28796	1.60675	1.08142	0.71356
57190	0.14454	0.14235	0.08532	0.60672	0.59142	0.50098	2.21499	1.25533	0.59606	0.38559	0.38182	0.34705	0.44585	0.37436	0.28575	1.60695	1.08222	0.71469	29.20	6.1	0.00	7.46	0.01273	0.01295	0.01642	0.00795	0.00592	0.00648	0.00471	0.01272	0.01689	0.00686	0.00709	0.00892	0.01495	0.01099	0.01200	0.00223	0.00631	0.00884
57350	0.13780	0.13568	0.08007	0.60480	0.58879	0.49799	2.17810	1.24115	0.58543	0.38248	0.37803	0.34501	0.43742	0.36398	0.27620	1.60292	1.08085	0.71274
57520	0.13136	0.12894	0.07417	0.60393	0.58930	0.49757	2.15948	1.23489	0.58114	0.38249	0.37852	0.34357	0.43358	0.35674	0.27088	1.60026	1.07907	0.71105
57680	0.12732	0.12590	0.07061	0.60206	0.58656	0.49601	2.13816	1.22766	0.57536	0.37997	0.37631	0.34127	0.43253	0.35469	0.26755	1.60185	1.07976	0.71249
57840	0.12673	0.12306	0.07002	0.60432	0.58906	0.49835	2.14048	1.22761	0.57447	0.38254	0.37902	0.34349	0.43378	0.35430	0.26764	1.60772	1.08441	0.71561
