WetView ver 7.1	07-19-2018	17:23:04
AC9 Absorption and Attenuation Meter
00000266		; Serial number
2	; structure version number
Reserved
0.000000	0.000000		; Depth calibration
19200			; Baud rate
0.100000			; Path length (meters)
31			; number of temperature calibration bins
				12.59339	13.44920	14.48425	15.49668	16.50852	17.49564	18.50545	19.52458	20.50176	21.48889	22.47318	23.48707	24.50962	25.49370	26.49784	27.51372	28.50746	29.47237	30.47938	31.50214	32.50470	33.49235	34.50337	35.50914	36.50618	37.52058	38.51018	39.51308	40.49994	41.49866	42.47204	; temperature bins
a650	Blue	20.34952		-0.00383	-0.00415	-0.00430	-0.00391	-0.00363	-0.00317	-0.00269	-0.00237	-0.00179	-0.00130	-0.00099	-0.00071	-0.00015	0.00000	0.00004	-0.00001	0.00015	0.00036	0.00058	0.00101	0.00161	0.00132	0.00160	0.00169	0.00242	0.00273	0.00336	0.00365	0.00427	0.00566	0.00670		; offset and temperature correction info
a676	Green	20.51193		-0.00398	-0.00384	-0.00360	-0.00306	-0.00302	-0.00255	-0.00235	-0.00212	-0.00163	-0.00136	-0.00118	-0.00089	-0.00029	0.00000	0.00068	0.00082	0.00099	0.00137	0.00145	0.00212	0.00260	0.00252	0.00321	0.00354	0.00457	0.00535	0.00617	0.00648	0.00742	0.00887	0.01002		; offset and temperature correction info
a715	Brown	20.23230		-0.00421	-0.00394	-0.00391	-0.00291	-0.00264	-0.00192	-0.00204	-0.00179	-0.00188	-0.00239	-0.00180	-0.00187	-0.00099	0.00000	0.00084	0.00162	0.00188	0.00224	0.00321	0.00381	0.00466	0.00528	0.00588	0.00696	0.00859	0.01041	0.01148	0.01282	0.01333	0.01456	0.01617		; offset and temperature correction info
c510	Red	20.40042		-0.00261	-0.00247	-0.00258	-0.00225	-0.00203	-0.00197	-0.00199	-0.00203	-0.00154	-0.00103	-0.00069	-0.00019	-0.00007	0.00000	0.00011	-0.00021	-0.00042	-0.00056	-0.00040	0.00011	0.00036	0.00050	0.00077	0.00079	0.00050	0.00042	0.00043	0.00092	0.00147	0.00200	0.00232		; offset and temperature correction info
c532	Magenta	20.40760		-0.00248	-0.00265	-0.00278	-0.00279	-0.00296	-0.00292	-0.00238	-0.00206	-0.00129	-0.00096	-0.00092	-0.00052	-0.00009	0.00000	0.00007	-0.00049	-0.00136	-0.00107	-0.00079	-0.00065	-0.00074	-0.00105	-0.00152	-0.00192	-0.00236	-0.00269	-0.00252	-0.00233	-0.00172	-0.00128	-0.00067		; offset and temperature correction info
c555	Black	20.50654		-0.00053	-0.00063	-0.00106	-0.00094	-0.00068	-0.00055	-0.00053	-0.00039	-0.00028	-0.00025	-0.00011	-0.00035	-0.00007	0.00000	-0.00037	-0.00055	-0.00036	-0.00014	0.00019	0.00044	0.00032	0.00040	0.00050	0.00028	0.00014	0.00013	0.00030	0.00073	0.00117	0.00176	0.00241		; offset and temperature correction info
a412	LtBlue	17.15231		-0.01972	-0.01823	-0.01612	-0.01381	-0.01272	-0.01080	-0.00959	-0.00866	-0.00710	-0.00532	-0.00354	-0.00148	-0.00028	0.00000	0.00176	0.00297	0.00394	0.00440	0.00453	0.00487	0.00804	0.00856	0.01065	0.01248	0.01388	0.01439	0.01659	0.01881	0.02256	0.02450	0.02719		; offset and temperature correction info
a440	LtGreen	18.00171		-0.00729	-0.00642	-0.00581	-0.00502	-0.00426	-0.00349	-0.00244	-0.00218	-0.00179	-0.00101	-0.00046	-0.00006	0.00036	0.00000	0.00040	0.00045	0.00030	-0.00015	-0.00024	-0.00035	0.00012	-0.00013	-0.00033	-0.00089	-0.00142	-0.00189	-0.00231	-0.00205	-0.00140	-0.00140	-0.00146		; offset and temperature correction info
a488	Yellow	18.86491		-0.00113	-0.00102	-0.00106	-0.00064	-0.00027	-0.00020	-0.00030	-0.00037	-0.00047	-0.00059	-0.00052	-0.00012	0.00008	0.00000	0.00025	0.00012	-0.00013	-0.00043	-0.00065	-0.00076	-0.00025	0.00010	0.00090	0.00111	0.00113	0.00104	0.00073	0.00068	0.00120	0.00186	0.00258		; offset and temperature correction info
c650	Blue	20.46075		-0.00145	-0.00097	-0.00092	-0.00139	-0.00185	-0.00196	-0.00237	-0.00266	-0.00238	-0.00163	-0.00083	-0.00041	-0.00010	0.00000	0.00005	-0.00001	0.00015	0.00034	0.00029	0.00065	0.00101	0.00164	0.00126	0.00156	0.00175	0.00270	0.00287	0.00371	0.00407	0.00473	0.00534		; offset and temperature correction info
c676	Green	20.10118		-0.00170	-0.00144	-0.00149	-0.00177	-0.00188	-0.00194	-0.00198	-0.00196	-0.00177	-0.00156	-0.00140	-0.00091	-0.00033	0.00000	0.00050	0.00092	0.00110	0.00141	0.00167	0.00199	0.00216	0.00265	0.00269	0.00289	0.00315	0.00374	0.00367	0.00408	0.00486	0.00561	0.00646		; offset and temperature correction info
c715	Brown	19.91219		-0.01201	-0.01097	-0.00859	-0.00680	-0.00651	-0.00592	-0.00535	-0.00440	-0.00387	-0.00303	-0.00222	-0.00153	-0.00028	0.00000	0.00093	0.00149	0.00247	0.00322	0.00330	0.00427	0.00373	0.00464	0.00536	0.00551	0.00643	0.00733	0.00779	0.00884	0.00899	0.01021	0.01120		; offset and temperature correction info
a510	Red	19.21192		0.00201	0.00193	0.00158	0.00098	0.00089	0.00049	0.00011	-0.00016	-0.00016	-0.00005	0.00028	0.00025	0.00006	0.00000	0.00035	-0.00022	-0.00023	-0.00080	-0.00144	-0.00154	-0.00153	-0.00204	-0.00220	-0.00219	-0.00190	-0.00128	-0.00069	-0.00018	0.00068	0.00152	0.00241		; offset and temperature correction info
a532	Magenta	19.41084		-0.00097	-0.00072	-0.00060	-0.00081	-0.00062	-0.00071	-0.00040	0.00020	0.00028	0.00043	0.00000	-0.00035	0.00007	0.00000	-0.00011	-0.00059	-0.00080	-0.00098	-0.00137	-0.00162	-0.00163	-0.00130	-0.00073	-0.00018	0.00090	0.00185	0.00175	0.00247	0.00291	0.00327	0.00349		; offset and temperature correction info
a555	Black	19.69776		0.00171	0.00183	0.00183	0.00186	0.00191	0.00170	0.00115	0.00131	0.00097	0.00073	0.00060	0.00013	0.00015	0.00000	0.00014	-0.00029	-0.00066	-0.00082	-0.00116	-0.00139	-0.00134	-0.00167	-0.00119	-0.00093	-0.00048	0.00053	0.00111	0.00095	0.00178	0.00206	0.00273		; offset and temperature correction info
c412	LtBlue	19.91180		-0.02051	-0.01853	-0.01589	-0.01311	-0.01059	-0.00877	-0.00705	-0.00581	-0.00413	-0.00231	-0.00098	-0.00066	-0.00011	0.00000	-0.00013	-0.00085	-0.00170	-0.00170	-0.00302	-0.00330	-0.00429	-0.00551	-0.00626	-0.00775	-0.00978	-0.01181	-0.01113	-0.01108	-0.01116	-0.01192	-0.01291		; offset and temperature correction info
c440	LtGreen	20.06241		-0.01064	-0.00992	-0.00892	-0.00766	-0.00639	-0.00531	-0.00478	-0.00384	-0.00287	-0.00187	-0.00102	-0.00063	-0.00023	0.00000	-0.00007	-0.00053	-0.00090	-0.00119	-0.00169	-0.00197	-0.00226	-0.00257	-0.00260	-0.00289	-0.00394	-0.00470	-0.00481	-0.00493	-0.00520	-0.00580	-0.00620		; offset and temperature correction info
c488	Yellow	20.35984		-0.01125	-0.01082	-0.00966	-0.00833	-0.00726	-0.00661	-0.00579	-0.00500	-0.00389	-0.00278	-0.00167	-0.00113	-0.00041	0.00000	0.00055	0.00121	0.00187	0.00226	0.00222	0.00251	0.00281	0.00359	0.00414	0.00427	0.00401	0.00404	0.00486	0.00563	0.00638	0.00684	0.00718		; offset and temperature correction info
0.003500	0.004000	0.015000	0.020000	0.015000	0.020000	2500.000000	2000.000000	1000.000000	; maxANoise	maxCNoise	maxADifference	maxCDifference	minACounts	minCCounts	minRCounts	maxTempSdev	maxDepthSdev
0			; auxilliary capabilities
1			; acquisition binsize
0	0.55498	0.96139	0.41103	1.76351	1.39423	1.05410	9.30542	5.70385	2.69892	0.43558	0.37591	0.30226	2.13463	1.69368	1.42874	8.52544	5.06847	2.36169	28.98	6.1	0.00	7.44	0.01267	0.01288	0.01639	0.00779	0.00580	0.00636	0.00466	0.01263	0.01679	0.00677	0.00699	0.00883	0.01486	0.01092	0.01193	0.00216	0.00616	0.00866
160	0.55791	0.96751	0.41238	1.76972	1.40009	1.05824	9.31621	5.69774	2.70084	0.43824	0.37816	0.30529	2.13331	1.68958	1.42647	8.51742	5.06410	2.35760
320	0.55656	0.96311	0.41337	1.76656	1.39730	1.05575	9.30938	5.69124	2.69526	0.43673	0.37680	0.30307	2.13576	1.69540	1.43316	8.52341	5.06831	2.36269
490	0.55802	0.96661	0.41680	1.77040	1.40109	1.06014	9.29865	5.70103	2.70175	0.44091	0.38089	0.30789	2.13754	1.69378	1.43312	8.52862	5.07076	2.36486
650	0.55697	0.96445	0.41593	1.77343	1.40408	1.06427	9.30734	5.70549	2.70403	0.44428	0.38269	0.31020	2.13997	1.69681	1.43233	8.52694	5.07229	2.36468
810	0.55515	0.96137	0.41301	1.77276	1.40315	1.06276	9.29626	5.69796	2.69993	0.44285	0.38236	0.30892	2.13908	1.69931	1.43696	8.53409	5.07670	2.36920
980	0.56148	0.96724	0.41512	1.77840	1.40746	1.06681	9.32521	5.70749	2.70590	0.44809	0.38715	0.31431	2.13837	1.69737	1.43123	8.53391	5.07956	2.37161
1140	0.55820	0.96648	0.41607	1.77975	1.41115	1.06963	9.31294	5.70433	2.70528	0.45137	0.39198	0.31815	2.15524	1.70693	1.42875	8.55026	5.09615	2.38571
1300	0.55155	0.97283	0.42102	1.79158	1.42174	1.07950	9.31213	5.70490	2.69829	0.45774	0.39712	0.32225	2.13939	1.69880	1.43503	8.55017	5.09039	2.38172
1470	0.55248	0.96365	0.41621	1.78813	1.41817	1.07687	9.30262	5.70273	2.69963	0.45483	0.39302	0.31922	2.12955	1.69530	1.42773	8.54142	5.08846	2.37921
1630	0.55219	0.95827	0.40780	1.77937	1.41037	1.06845	9.31591	5.69590	2.69650	0.44903	0.38813	0.31280	2.13119	1.68946	1.42373	8.53212	5.07935	2.37185	28.98	6.1	0.00	7.56	0.01267	0.01288	0.01639	0.00779	0.00580	0.00636	0.00466	0.01262	0.01679	0.00677	0.00698	0.00883	0.01486	0.01092	0.01193	0.00216	0.00615	0.00865
1790	0.55328	0.95743	0.41117	1.77880	1.41121	1.06869	9.29001	5.69910	2.69525	0.45011	0.38900	0.31412	2.12793	1.68879	1.41894	8.53406	5.07922	2.37062
1960	0.55234	0.95878	0.41122	1.78248	1.41473	1.07374	9.31434	5.70206	2.70046	0.45240	0.39111	0.31759	2.13261	1.69298	1.42176	8.53945	5.08372	2.37534
2120	0.55403	0.95758	0.40943	1.78081	1.41152	1.07045	9.30167	5.69452	2.69868	0.44992	0.38904	0.31491	2.12862	1.69174	1.42098	8.54246	5.07972	2.37225
2280	0.55131	0.95652	0.41316	1.78236	1.41506	1.07273	9.30144	5.69535	2.70049	0.45204	0.39126	0.31664	2.13322	1.69678	1.42936	8.54326	5.08437	2.37549
2450	0.55119	0.96018	0.40958	1.78216	1.41363	1.07236	9.29654	5.69646	2.69863	0.45156	0.38948	0.31614	2.12830	1.69103	1.42402	8.54591	5.08318	2.37465
2610	0.55338	0.96176	0.41253	1.78330	1.41656	1.07488	9.29566	5.69893	2.69873	0.45310	0.39204	0.31752	2.13106	1.69433	1.42834	8.54547	5.08463	2.37669
2770	0.55374	0.95943	0.41095	1.78334	1.41495	1.07342	9.31323	5.69586	2.69930	0.45257	0.39118	0.31652	2.12852	1.69281	1.42308	8.53742	5.08180	2.37428
2940	0.55333	0.95942	0.41283	1.78333	1.41559	1.07558	9.30278	5.69601	2.69983	0.45465	0.39320	0.31812	2.13380	1.69417	1.42294	8.54706	5.08511	2.37723
3100	0.55489	0.95928	0.41170	1.78242	1.41370	1.07241	9.29339	5.69381	2.69747	0.45228	0.39110	0.31632	2.13180	1.69499	1.42219	8.54113	5.08320	2.37407
3260	0.55251	0.95991	0.41037	1.77906	1.41102	1.06976	9.30007	5.69612	2.69787	0.45013	0.38761	0.31421	2.13246	1.69421	1.42353	8.53895	5.07947	2.37214	29.03	6.1	0.00	7.42	0.01267	0.01288	0.01639	0.00778	0.00580	0.00636	0.00466	0.01262	0.01679	0.00676	0.00698	0.00882	0.01485	0.01092	0.01193	0.00216	0.00615	0.00865
3430	0.54978	0.95697	0.40766	1.77704	1.41022	1.06711	9.30999	5.69364	2.69548	0.44765	0.38631	0.31236	2.12890	1.68786	1.42341	8.53426	5.07607	2.36897
3590	0.54868	0.95606	0.40692	1.77423	1.40642	1.06511	9.29687	5.69447	2.69265	0.44571	0.38472	0.31089	2.13180	1.69505	1.42483	8.54160	5.08216	2.37544
3750	0.55084	0.95930	0.41116	1.78089	1.41239	1.06953	9.31911	5.69513	2.69543	0.44945	0.38751	0.31451	2.13140	1.69252	1.42351	8.53939	5.07886	2.37140
3920	0.55365	0.95840	0.41132	1.77938	1.41302	1.07166	9.30351	5.69375	2.69822	0.45034	0.38846	0.31423	2.13177	1.69339	1.42632	8.53780	5.07977	2.37262
4080	0.55310	0.95758	0.40929	1.77747	1.41050	1.06737	9.29762	5.69360	2.69416	0.44895	0.38540	0.31269	2.12815	1.68953	1.42342	8.53223	5.07559	2.36971
4240	0.54928	0.95927	0.41016	1.77787	1.41203	1.07013	9.30182	5.69594	2.70006	0.45041	0.38761	0.31432	2.13595	1.69745	1.42589	8.53523	5.07849	2.37099
4410	0.55145	0.95929	0.40524	1.77622	1.40902	1.06737	9.30982	5.69253	2.69321	0.44814	0.38566	0.31244	2.13654	1.68185	1.44043	8.53621	5.08001	2.37328
4570	0.54960	0.95704	0.41355	1.77936	1.41023	1.06967	9.31677	5.69539	2.70155	0.44978	0.38703	0.31380	2.12866	1.69493	1.42669	8.53965	5.07806	2.37092
4730	0.54862	0.95361	0.40839	1.77565	1.40622	1.06543	9.30754	5.69351	2.69723	0.44625	0.38396	0.31116	2.12492	1.68907	1.42130	8.53046	5.07388	2.36711
4900	0.54896	0.95784	0.40887	1.77148	1.40642	1.06648	9.30358	5.70024	2.69933	0.44898	0.38614	0.31322	2.13288	1.69313	1.42824	8.53336	5.07800	2.37049	28.98	6.1	0.00	7.45	0.01267	0.01287	0.01639	0.00778	0.00580	0.00636	0.00466	0.01262	0.01678	0.00676	0.00698	0.00882	0.01485	0.01092	0.01193	0.00216	0.00615	0.00865
5060	0.55100	0.95911	0.40915	1.77507	1.40624	1.06444	9.30919	5.69123	2.69276	0.44580	0.38224	0.31117	2.12845	1.68755	1.42525	8.53283	5.07503	2.36836
5220	0.55063	0.95198	0.41083	1.77232	1.40673	1.06613	9.28749	5.69320	2.69920	0.44819	0.38496	0.31253	2.13162	1.68500	1.42152	8.53327	5.07488	2.36911
5380	0.55533	0.96287	0.40942	1.77483	1.40621	1.06436	9.26799	5.68536	2.69103	0.44564	0.38268	0.31046	2.12518	1.68572	1.41304	8.52488	5.07150	2.36483
5550	0.54748	0.95768	0.41029	1.77167	1.40618	1.06592	9.29728	5.70036	2.69320	0.44925	0.38544	0.31296	2.12431	1.68749	1.42025	8.52912	5.07716	2.36844
5710	0.55273	0.95624	0.40462	1.77417	1.40638	1.06398	9.29180	5.69894	2.69829	0.44737	0.38389	0.31194	2.13142	1.69582	1.41974	8.52921	5.07304	2.36631
5880	0.55326	0.95094	0.40556	1.77451	1.40804	1.06754	9.30668	5.69556	2.69612	0.44798	0.38658	0.31320	2.13225	1.69342	1.42436	8.53478	5.07651	2.37025
6040	0.55324	0.95804	0.41077	1.77498	1.40693	1.06671	9.28895	5.69318	2.69198	0.44738	0.38393	0.31258	2.12952	1.68919	1.41836	8.53221	5.07469	2.36638
6200	0.55176	0.95826	0.40958	1.77504	1.40887	1.06699	9.29478	5.69509	2.69294	0.44925	0.38577	0.31321	2.13206	1.68998	1.42113	8.53681	5.07687	2.36903
6370	0.55156	0.95675	0.40850	1.77483	1.40713	1.06440	9.30510	5.69153	2.69294	0.44627	0.38454	0.31160	2.13042	1.68754	1.41850	8.52700	5.07258	2.36637
6530	0.54871	0.95703	0.40863	1.77332	1.40688	1.06560	9.29658	5.69279	2.69490	0.44593	0.38475	0.31134	2.13142	1.69153	1.42165	8.53333	5.07398	2.36724	28.98	6.1	0.00	7.47	0.01267	0.01287	0.01638	0.00778	0.00579	0.00635	0.00466	0.01262	0.01678	0.00676	0.00698	0.00882	0.01485	0.01091	0.01193	0.00216	0.00614	0.00864
6690	0.54793	0.95130	0.40773	1.77169	1.40445	1.06342	9.29454	5.69018	2.69108	0.44489	0.38330	0.31010	2.12425	1.69038	1.41687	8.52493	5.06989	2.36362
6860	0.55240	0.95478	0.40808	1.77432	1.40645	1.06616	9.29909	5.69540	2.69604	0.44839	0.38568	0.31349	2.12780	1.69311	1.42569	8.52918	5.07695	2.36970
7020	0.55208	0.95717	0.40752	1.77585	1.40603	1.06439	9.28073	5.69065	2.69284	0.44538	0.38275	0.31031	2.12795	1.68662	1.41868	8.52723	5.07164	2.36505
7180	0.55292	0.95763	0.40905	1.77526	1.40731	1.06652	9.29897	5.68966	2.69404	0.44808	0.38592	0.31259	2.12977	1.69111	1.41588	8.53015	5.07511	2.36797
7350	0.54932	0.95504	0.40528	1.77263	1.40408	1.06267	9.30691	5.68777	2.69085	0.44431	0.38310	0.31055	2.12579	1.68708	1.41958	8.52812	5.07257	2.36511
7510	0.54586	0.95367	0.40811	1.77083	1.40375	1.06156	9.28387	5.68621	2.68706	0.44256	0.38112	0.30782	2.12703	1.69382	1.42706	8.53271	5.07687	2.37071
7670	0.55383	0.96168	0.40920	1.77651	1.40752	1.06636	9.30195	5.69014	2.68917	0.44645	0.38399	0.31011	2.12803	1.68895	1.42132	8.52927	5.07229	2.36589
7840	0.54520	0.95092	0.40154	1.77113	1.40286	1.06224	9.28230	5.67508	2.67737	0.44427	0.38197	0.30791	2.13579	1.69492	1.41588	8.52900	5.07801	2.37100
8000	0.55360	0.95573	0.40468	1.77594	1.40698	1.06635	9.30714	5.68847	2.69124	0.44735	0.38556	0.31223	2.12655	1.68789	1.41973	8.52529	5.07320	2.36617
8160	0.55459	0.95439	0.40457	1.77006	1.40127	1.05962	9.28523	5.71180	2.67227	0.44126	0.38153	0.30750	2.14673	1.70292	1.41416	8.53245	5.07632	2.36963	29.03	6.1	0.00	7.49	0.01267	0.01287	0.01638	0.00778	0.00579	0.00635	0.00466	0.01262	0.01678	0.00676	0.00698	0.00882	0.01485	0.01091	0.01193	0.00216	0.00614	0.00864
8330	0.54923	0.96895	0.41361	1.77423	1.40464	1.06427	9.29468	5.69776	2.68401	0.44615	0.38524	0.31055	2.12753	1.69702	1.42844	8.53546	5.07706	2.36982
8490	0.54742	0.95145	0.40563	1.77538	1.40560	1.06417	9.30460	5.68746	2.69470	0.44590	0.38558	0.31148	2.12493	1.69000	1.42488	8.53219	5.07532	2.36746
8650	0.55150	0.95015	0.40650	1.77184	1.40284	1.06219	9.29969	5.68693	2.69074	0.44333	0.38244	0.30880	2.12452	1.68535	1.42059	8.52449	5.07346	2.36693
8820	0.54844	0.95411	0.40712	1.77317	1.40443	1.06403	9.31114	5.68711	2.69264	0.44454	0.38444	0.31021	2.12615	1.68674	1.41846	8.52759	5.07136	2.36414
8980	0.54760	0.95150	0.40531	1.77130	1.40283	1.06242	9.29386	5.68004	2.69061	0.44385	0.38187	0.30885	2.12795	1.68870	1.41793	8.52334	5.06975	2.36423
9140	0.54589	0.94896	0.40577	1.77082	1.40406	1.06421	9.29759	5.69153	2.69415	0.44617	0.38541	0.31063	2.12744	1.68787	1.41935	8.52317	5.07168	2.36658
9310	0.54919	0.95486	0.40671	1.77216	1.40453	1.06266	9.30699	5.68402	2.69244	0.44394	0.38319	0.30960	2.12760	1.68658	1.41300	8.52467	5.06982	2.36326
9470	0.54425	0.95545	0.40943	1.76996	1.40552	1.06602	9.29281	5.69153	2.69059	0.44760	0.38711	0.31298	2.12609	1.68846	1.42203	8.52856	5.07380	2.36674
9630	0.54791	0.95141	0.40470	1.77203	1.40401	1.06253	9.29077	5.68866	2.68849	0.44424	0.38432	0.31040	2.12706	1.68941	1.41902	8.52608	5.07188	2.36505
9800	0.54523	0.95143	0.40681	1.77243	1.40562	1.06403	9.30524	5.69546	2.69486	0.44408	0.38476	0.31104	2.12437	1.68824	1.41983	8.52721	5.07340	2.36646	29.03	6.1	0.00	7.42	0.01267	0.01287	0.01638	0.00778	0.00579	0.00635	0.00466	0.01262	0.01678	0.00676	0.00698	0.00882	0.01485	0.01091	0.01193	0.00216	0.00614	0.00864
9960	0.54708	0.95178	0.40215	1.77177	1.40207	1.06258	9.28704	5.68418	2.69033	0.44277	0.38311	0.30951	2.12504	1.68119	1.41491	8.51855	5.07099	2.36211
10120	0.54717	0.95077	0.40361	1.77120	1.40294	1.06254	9.29999	5.68800	2.69168	0.44486	0.38475	0.31077	2.12153	1.68125	1.41595	8.52748	5.07279	2.36466
10290	0.54884	0.95276	0.40317	1.77073	1.40296	1.06138	9.27953	5.68853	2.68744	0.44168	0.38178	0.30793	2.12450	1.68340	1.41346	8.52650	5.07026	2.36293
10450	0.54730	0.95389	0.40575	1.77193	1.40413	1.06260	9.28797	5.68773	2.68957	0.44365	0.38469	0.30987	2.12559	1.68868	1.41541	8.53048	5.07229	2.36522
10610	0.54915	0.94994	0.40181	1.77127	1.40334	1.06266	9.30104	5.68924	2.68943	0.44278	0.38276	0.30903	2.12492	1.68781	1.41437	8.52421	5.07043	2.36319
10780	0.55004	0.95059	0.40404	1.77295	1.40551	1.06456	9.30518	5.68986	2.69251	0.44569	0.38556	0.31156	2.12632	1.68350	1.41498	8.53128	5.07409	2.36593
10940	0.54834	0.95363	0.40338	1.77077	1.40219	1.06096	9.29474	5.68378	2.68647	0.44254	0.38160	0.30799	2.12855	1.67428	1.40150	8.52385	5.07039	2.36237
11100	0.56514	0.97188	0.39295	1.77377	1.40486	1.06381	9.31026	5.70095	2.68660	0.44509	0.38499	0.31083	2.13341	1.69568	1.40971	8.52818	5.07309	2.36618
11270	0.55558	0.96459	0.40381	1.77124	1.40225	1.06164	9.27958	5.68714	2.68386	0.44203	0.38212	0.30755	2.12448	1.68888	1.41644	8.52244	5.06939	2.36213
11430	0.54703	0.95318	0.40640	1.77118	1.40443	1.06214	9.28584	5.68878	2.68860	0.44450	0.38331	0.30958	2.12297	1.68814	1.41723	8.52839	5.07224	2.36520	29.03	6.1	0.00	7.58	0.01267	0.01287	0.01638	0.00778	0.00579	0.00635	0.00466	0.01262	0.01678	0.00676	0.00697	0.00882	0.01485	0.01091	0.01192	0.00216	0.00614	0.00864
11590	0.54820	0.95183	0.40522	1.76953	1.40171	1.05973	9.29156	5.68227	2.68538	0.44057	0.38148	0.30781	2.12321	1.68348	1.41229	8.52175	5.06860	2.36217
11760	0.54679	0.95401	0.40664	1.77119	1.40454	1.06276	9.31152	5.68383	2.69072	0.44385	0.38423	0.31069	2.12325	1.68673	1.41463	8.52839	5.07302	2.36597
11920	0.54394	0.95201	0.40580	1.76933	1.40137	1.05959	9.28316	5.68390	2.68560	0.44210	0.38135	0.30798	2.12140	1.68509	1.41067	8.52317	5.06728	2.36223
12080	0.54275	0.94797	0.40115	1.76642	1.39853	1.05701	9.28614	5.68546	2.68514	0.44008	0.38011	0.30685	2.12169	1.68345	1.41837	8.53069	5.07448	2.36808
12250	0.54657	0.95406	0.40597	1.77218	1.40331	1.06265	9.28695	5.68653	2.68968	0.44405	0.38288	0.30966	2.12797	1.68924	1.41746	8.53086	5.07573	2.36803
12410	0.54876	0.94950	0.40380	1.77293	1.40520	1.06359	9.29366	5.69045	2.69181	0.44478	0.38495	0.31197	2.12865	1.68527	1.41245	8.53007	5.07324	2.36723
12570	0.54957	0.95119	0.40264	1.77142	1.40274	1.06066	9.29097	5.69029	2.68629	0.44192	0.38138	0.30831	2.12593	1.68770	1.41526	8.52582	5.07164	2.36541
12740	0.54981	0.95459	0.40522	1.77141	1.40399	1.06131	9.29197	5.68376	2.68718	0.44180	0.38220	0.30833	2.12203	1.68346	1.41533	8.52078	5.06992	2.36276
12900	0.54707	0.95198	0.40257	1.76998	1.40193	1.06088	9.29354	5.68546	2.68642	0.44239	0.38185	0.30868	2.12135	1.68358	1.41218	8.52361	5.06966	2.36353
13060	0.54246	0.95064	0.40668	1.76823	1.40336	1.06217	9.29235	5.68977	2.69188	0.44488	0.38428	0.31040	2.12726	1.68683	1.41808	8.52779	5.07272	2.36612	29.03	6.1	0.00	7.42	0.01267	0.01287	0.01638	0.00778	0.00579	0.00635	0.00466	0.01261	0.01678	0.00676	0.00697	0.00882	0.01485	0.01091	0.01192	0.00216	0.00614	0.00864
13230	0.54847	0.95261	0.40396	1.77144	1.40304	1.06092	9.27871	5.68492	2.68861	0.44146	0.38196	0.30780	2.12247	1.68414	1.41672	8.52275	5.06910	2.36342
13390	0.54726	0.95420	0.40740	1.76905	1.40431	1.06460	9.30706	5.68473	2.69156	0.44540	0.38508	0.31124	2.12593	1.69051	1.41955	8.52779	5.07374	2.36785
13550	0.54677	0.95158	0.40703	1.77132	1.40285	1.06263	9.28302	5.68639	2.68816	0.44184	0.38245	0.30906	2.12378	1.68412	1.41610	8.52664	5.07155	2.36476
13720	0.54703	0.95431	0.40586	1.77368	1.40657	1.06506	9.30928	5.69004	2.69516	0.44487	0.38649	0.31227	2.12591	1.68585	1.41960	8.52974	5.07439	2.36858
13880	0.54580	0.95229	0.40621	1.77341	1.40393	1.06312	9.28979	5.68201	2.68653	0.44189	0.38303	0.30912	2.12074	1.68488	1.41428	8.52363	5.06925	2.36349
14040	0.54501	0.95441	0.40662	1.77243	1.40490	1.06379	9.30140	5.68755	2.68936	0.44296	0.38356	0.30961	2.12316	1.68735	1.41806	8.52611	5.07244	2.36526
14200	0.54478	0.94953	0.40256	1.77117	1.40348	1.06085	9.28250	5.68350	2.68676	0.44197	0.38277	0.30859	2.12139	1.68536	1.41411	8.52522	5.07084	2.36470
14370	0.54498	0.95109	0.40290	1.77026	1.40244	1.06058	9.28792	5.68420	2.68240	0.44034	0.38179	0.30715	2.12275	1.68739	1.41676	8.52717	5.07363	2.36795
14530	0.54728	0.95203	0.40481	1.77343	1.40485	1.06326	9.30998	5.68304	2.69053	0.44278	0.38378	0.30951	2.12308	1.68722	1.41508	8.52832	5.07244	2.36539
14700	0.54296	0.94899	0.40447	1.76936	1.40055	1.06052	9.30070	5.67727	2.68400	0.44061	0.38150	0.30760	2.12403	1.68844	1.41931	8.52501	5.07458	2.36770	28.98	6.1	0.00	7.47	0.01267	0.01287	0.01638	0.00778	0.00579	0.00635	0.00466	0.01261	0.01678	0.00676	0.00697	0.00882	0.01485	0.01091	0.01192	0.00216	0.00614	0.00864
14860	0.54457	0.94517	0.40070	1.77318	1.40376	1.06252	9.28699	5.68305	2.68587	0.44241	0.38405	0.30911	2.12195	1.68515	1.41615	8.52634	5.07138	2.36550
15020	0.54636	0.94735	0.40120	1.77413	1.40558	1.06374	9.29113	5.67995	2.68380	0.44337	0.38424	0.30903	2.12283	1.68579	1.41595	8.52537	5.07077	2.36546
15190	0.54353	0.94917	0.40365	1.77166	1.40449	1.06345	9.29732	5.68150	2.68398	0.44421	0.38439	0.31011	2.12135	1.68091	1.41490	8.52431	5.06992	2.36276
15350	0.54781	0.95110	0.40504	1.77409	1.40669	1.06542	9.31683	5.69107	2.69142	0.44670	0.38807	0.31328	2.12115	1.68382	1.41502	8.52953	5.07545	2.36680
15510	0.54389	0.95744	0.40647	1.77261	1.40382	1.06221	9.28449	5.68690	2.68673	0.44257	0.38344	0.30968	2.11969	1.68605	1.41507	8.52280	5.07168	2.36409
15680	0.54412	0.95163	0.40795	1.77446	1.40727	1.06658	9.30240	5.68832	2.69051	0.44670	0.38745	0.31278	2.12965	1.69462	1.42411	8.53413	5.07612	2.36959
15840	0.54889	0.95095	0.40458	1.77461	1.40581	1.06467	9.29971	5.68212	2.68323	0.44361	0.38407	0.31019	2.12109	1.67970	1.41209	8.52608	5.07029	2.36320
16000	0.55298	0.95623	0.40617	1.77385	1.40696	1.06566	9.27703	5.68405	2.68977	0.44654	0.38694	0.31296	2.12103	1.68338	1.41717	8.52970	5.07532	2.36682
16160	0.54492	0.94677	0.40495	1.77108	1.40261	1.06102	9.29376	5.68290	2.68781	0.44353	0.38426	0.31040	2.11818	1.68699	1.41058	8.52528	5.07192	2.36421
16330	0.54136	0.94652	0.40146	1.76793	1.39975	1.05791	9.28655	5.68096	2.68270	0.43974	0.38134	0.30750	2.12020	1.69004	1.41610	8.51907	5.07059	2.36564	28.98	6.1	0.00	7.55	0.01267	0.01287	0.01638	0.00778	0.00579	0.00635	0.00466	0.01262	0.01678	0.00676	0.00697	0.00882	0.01485	0.01091	0.01192	0.00216	0.00614	0.00864
16490	0.54545	0.94838	0.40138	1.77302	1.40526	1.06326	9.27752	5.68973	2.68915	0.44403	0.38438	0.31056	2.12003	1.68331	1.41243	8.52606	5.06905	2.36199
16660	0.54704	0.95504	0.40564	1.77222	1.40592	1.06666	9.29787	5.68740	2.68858	0.44842	0.38828	0.31438	2.13024	1.68896	1.40680	8.52880	5.07391	2.36692
16820	0.54799	0.95317	0.40112	1.77284	1.40412	1.06316	9.30855	5.68936	2.68639	0.44447	0.38625	0.31261	2.12040	1.68603	1.41555	8.52632	5.07248	2.36597
16980	0.54814	0.95619	0.40490	1.77243	1.40537	1.06371	9.28690	5.68679	2.69299	0.44462	0.38556	0.31190	2.12197	1.68451	1.40787	8.52951	5.07244	2.36619
17150	0.54708	0.95603	0.40379	1.77209	1.40404	1.06312	9.28072	5.67946	2.68483	0.44364	0.38487	0.31123	2.12495	1.69017	1.41785	8.53066	5.07536	2.36936
17310	0.54868	0.95297	0.40532	1.77594	1.40763	1.06660	9.29904	5.68172	2.68954	0.44651	0.38734	0.31426	2.12434	1.68689	1.41435	8.52827	5.07220	2.36646
17480	0.54727	0.95076	0.40329	1.77188	1.40441	1.06353	9.28795	5.68196	2.68382	0.44402	0.38591	0.31135	2.12274	1.68833	1.41711	8.52871	5.07679	2.37002
17640	0.54973	0.95266	0.40518	1.77569	1.40729	1.06526	9.28469	5.68478	2.69022	0.44747	0.38913	0.31448	2.11851	1.68249	1.41908	8.52712	5.07356	2.36633
17800	0.54367	0.95083	0.40481	1.77118	1.40440	1.06429	9.29442	5.68285	2.68580	0.44447	0.38577	0.31226	2.12285	1.68710	1.42208	8.52836	5.07521	2.36948
17970	0.54738	0.95022	0.40209	1.77403	1.40596	1.06417	9.29830	5.68530	2.68982	0.44583	0.38590	0.31327	2.12511	1.68420	1.41220	8.52600	5.07190	2.36644	28.98	6.3	0.00	7.42	0.01267	0.01287	0.01638	0.00778	0.00579	0.00635	0.00466	0.01261	0.01678	0.00676	0.00697	0.00882	0.01485	0.01091	0.01192	0.00216	0.00614	0.00864
18130	0.54347	0.95206	0.40174	1.77083	1.40244	1.06052	9.28739	5.67813	2.68402	0.44187	0.38313	0.30860	2.12642	1.68853	1.41812	8.52875	5.07489	2.36970
18290	0.54583	0.94495	0.40319	1.77647	1.40793	1.06522	9.29585	5.67752	2.68555	0.44597	0.38641	0.31190	2.12528	1.68347	1.41049	8.52529	5.06908	2.36459
18450	0.54736	0.94791	0.40133	1.77360	1.40604	1.06561	9.29713	5.68538	2.68703	0.44754	0.38721	0.31206	2.12176	1.68472	1.41532	8.52538	5.06997	2.36275
18620	0.54321	0.95221	0.40279	1.77028	1.40405	1.06270	9.28955	5.68601	2.68999	0.44566	0.38597	0.31201	2.12086	1.68362	1.41246	8.52459	5.07153	2.36461
18780	0.54451	0.94895	0.40304	1.76990	1.40093	1.05978	9.29725	5.67999	2.68509	0.44245	0.38214	0.30931	2.12072	1.68805	1.41939	8.52547	5.07470	2.37015
18950	0.54746	0.95266	0.40458	1.77630	1.40761	1.06480	9.29760	5.68939	2.68938	0.44658	0.38563	0.31183	2.12294	1.68714	1.41506	8.52423	5.06954	2.36388
19110	0.54455	0.95558	0.40911	1.77336	1.40673	1.06568	9.29876	5.68184	2.68729	0.44821	0.38788	0.31437	2.12449	1.68846	1.41661	8.52503	5.07075	2.36532
19270	0.54373	0.94826	0.40413	1.77045	1.40318	1.06116	9.29544	5.68184	2.68816	0.44469	0.38585	0.31260	2.12416	1.68624	1.41270	8.52662	5.07164	2.36453
19440	0.54351	0.94656	0.40513	1.77499	1.40661	1.06531	9.27894	5.68667	2.69087	0.44759	0.38732	0.31411	2.12916	1.68726	1.41745	8.52671	5.07320	2.36663
19600	0.54284	0.94612	0.40253	1.77348	1.40538	1.06412	9.29175	5.68092	2.68726	0.44437	0.38394	0.31080	2.12535	1.68310	1.41408	8.52554	5.06793	2.36290	29.03	6.0	0.00	7.42	0.01267	0.01287	0.01638	0.00778	0.00579	0.00635	0.00466	0.01261	0.01678	0.00676	0.00697	0.00881	0.01485	0.01091	0.01192	0.00216	0.00614	0.00864
19760	0.54665	0.95398	0.40620	1.77453	1.40811	1.06728	9.29082	5.68107	2.68712	0.44880	0.38728	0.31434	2.12359	1.68527	1.41771	8.52660	5.07096	2.36585
19930	0.54679	0.95316	0.40289	1.77240	1.40374	1.06415	9.28831	5.67516	2.68108	0.44665	0.38588	0.31205	2.12074	1.68647	1.41456	8.52580	5.07209	2.36735
20090	0.54786	0.95285	0.40615	1.77458	1.40672	1.06628	9.28837	5.68613	2.68557	0.44843	0.38755	0.31498	2.12045	1.68629	1.41154	8.52987	5.07257	2.36815
20250	0.54476	0.95108	0.40280	1.77318	1.40475	1.06330	9.29508	5.68180	2.68320	0.44613	0.38544	0.31177	2.11973	1.68121	1.40891	8.51855	5.06875	2.36351
20420	0.54171	0.95113	0.40350	1.77190	1.40695	1.06854	9.30658	5.68919	2.68837	0.44973	0.38958	0.31617	2.12264	1.68745	1.41353	8.53164	5.07439	2.37021
20580	0.54563	0.95182	0.40348	1.77597	1.40678	1.06640	9.28953	5.67571	2.68533	0.44793	0.38734	0.31384	2.11534	1.68377	1.41036	8.52350	5.07003	2.36518
20740	0.54123	0.94807	0.40534	1.77359	1.40740	1.06815	9.29286	5.68152	2.68921	0.45008	0.39070	0.31625	2.12074	1.67998	1.41276	8.52633	5.07356	2.36822
20910	0.54327	0.94949	0.40434	1.77443	1.40683	1.06648	9.29017	5.68114	2.68515	0.44791	0.38839	0.31474	2.11915	1.68294	1.41203	8.52394	5.07083	2.36558
21070	0.54189	0.95662	0.40234	1.77333	1.40755	1.06764	9.29490	5.68391	2.68530	0.44984	0.39042	0.31680	2.12092	1.68549	1.41255	8.52934	5.07473	2.37033
21230	0.54572	0.94861	0.40012	1.77585	1.40787	1.06709	9.29157	5.68416	2.68561	0.44603	0.38698	0.31364	2.11739	1.67775	1.40763	8.52674	5.07424	2.36877	28.98	6.0	0.00	7.44	0.01267	0.01287	0.01638	0.00778	0.00579	0.00635	0.00466	0.01261	0.01678	0.00676	0.00697	0.00881	0.01485	0.01091	0.01192	0.00216	0.00614	0.00864
21400	0.54647	0.94165	0.40299	1.77823	1.41168	1.06992	9.28708	5.68211	2.68703	0.44925	0.38953	0.31581	2.11997	1.68296	1.41327	8.52957	5.07724	2.37134
21560	0.54068	0.94294	0.39989	1.77760	1.40961	1.06768	9.27106	5.68143	2.68268	0.44651	0.38806	0.31401	2.11832	1.68029	1.41100	8.52966	5.07489	2.36867
21720	0.54330	0.94645	0.40159	1.77819	1.41094	1.06957	9.29110	5.68001	2.68561	0.44841	0.38931	0.31571	2.12176	1.68401	1.40778	8.52833	5.07578	2.37044
21890	0.54352	0.95097	0.39641	1.77670	1.40818	1.06724	9.26896	5.67374	2.68430	0.44680	0.38784	0.31433	2.11687	1.68176	1.40598	8.52550	5.07292	2.36753
22050	0.54687	0.94728	0.40206	1.77677	1.40981	1.06800	9.28620	5.67931	2.68515	0.44729	0.38915	0.31465	2.11906	1.67765	1.40932	8.52630	5.07557	2.37002
22210	0.54419	0.94338	0.40146	1.77785	1.41014	1.06779	9.28533	5.68338	2.68915	0.44696	0.38797	0.31442	2.11827	1.68177	1.40843	8.52922	5.07392	2.36691
22380	0.54371	0.94676	0.40380	1.77790	1.41037	1.06922	9.28207	5.69046	2.69032	0.44934	0.39022	0.31631	2.12104	1.68173	1.41278	8.53010	5.07615	2.37093
22540	0.54297	0.94749	0.40104	1.77569	1.41000	1.06656	9.29303	5.67837	2.68408	0.44685	0.39021	0.31435	2.12484	1.67059	1.39905	8.52533	5.07463	2.36922
22700	0.56380	0.95649	0.39009	1.77885	1.41132	1.06949	9.30009	5.68795	2.68280	0.44831	0.39034	0.31526	2.12724	1.68992	1.40332	8.53727	5.07854	2.37155
22870	0.55127	0.94892	0.40037	1.77705	1.40932	1.06758	9.29192	5.68305	2.68333	0.44517	0.38810	0.31264	2.11842	1.68257	1.40924	8.52822	5.07378	2.36804	28.98	6.0	0.00	7.46	0.01267	0.01287	0.01638	0.00778	0.00579	0.00635	0.00466	0.01261	0.01678	0.00676	0.00697	0.00881	0.01485	0.01091	0.01192	0.00216	0.00614	0.00864
23030	0.54634	0.95320	0.40421	1.77863	1.41140	1.07058	9.30295	5.68560	2.68827	0.44838	0.39147	0.31506	2.12257	1.68773	1.41480	8.53380	5.07898	2.37193
23190	0.54636	0.94684	0.40003	1.77655	1.40811	1.06638	9.29699	5.68033	2.68547	0.44325	0.38720	0.31255	2.11822	1.67899	1.41122	8.53070	5.07447	2.36745
23360	0.54638	0.95087	0.40539	1.77722	1.41234	1.07072	9.28440	5.68386	2.69052	0.44681	0.39048	0.31521	2.12000	1.68624	1.41560	8.53787	5.08035	2.37204
23520	0.54617	0.94680	0.40386	1.77744	1.40916	1.06648	9.29775	5.68025	2.68449	0.44480	0.38675	0.31185	2.11779	1.68202	1.41039	8.53459	5.07475	2.36797
23680	0.54427	0.94938	0.40178	1.77659	1.40937	1.06736	9.27979	5.68011	2.68521	0.44582	0.38803	0.31391	2.11959	1.68669	1.41275	8.53539	5.07679	2.36886
23840	0.54327	0.94673	0.40201	1.77452	1.40788	1.06447	9.28714	5.68039	2.68592	0.44395	0.38685	0.31193	2.11878	1.68527	1.41144	8.52875	5.07486	2.36641
24010	0.54092	0.94413	0.39916	1.77112	1.40380	1.06122	9.29472	5.67351	2.67950	0.44063	0.38301	0.30914	2.11837	1.68418	1.41133	8.53123	5.07545	2.36718
24170	0.54506	0.94870	0.40242	1.77420	1.40731	1.06487	9.28055	5.67851	2.68549	0.44457	0.38632	0.31300	2.11740	1.67868	1.41206	8.53353	5.07382	2.36503
24340	0.54446	0.94922	0.40390	1.77209	1.40768	1.06734	9.29174	5.68615	2.68868	0.44752	0.38873	0.31482	2.12240	1.68559	1.41312	8.53273	5.07716	2.36936
24500	0.54466	0.94864	0.39940	1.77318	1.40528	1.06454	9.27558	5.67714	2.68641	0.44486	0.38711	0.31255	2.12152	1.68347	1.41228	8.53159	5.07353	2.36751	29.03	6.1	0.00	7.49	0.01267	0.01287	0.01638	0.00777	0.00579	0.00635	0.00466	0.01261	0.01678	0.00676	0.00697	0.00881	0.01485	0.01091	0.01192	0.00216	0.00614	0.00864
24660	0.54473	0.95079	0.40131	1.77332	1.40591	1.06400	9.27209	5.67892	2.68457	0.44417	0.38705	0.31208	2.12368	1.68478	1.41296	8.53292	5.07376	2.36731
24830	0.54511	0.95020	0.40095	1.77298	1.40445	1.06529	9.28042	5.67804	2.68349	0.44463	0.38612	0.31195	2.12172	1.68308	1.41137	8.53434	5.07520	2.36897
24990	0.54690	0.95051	0.40407	1.77636	1.40779	1.06789	9.29534	5.67798	2.68736	0.44760	0.38907	0.31460	2.12535	1.68236	1.41044	8.53089	5.07184	2.36693
25150	0.54393	0.94786	0.40101	1.77188	1.40374	1.06389	9.28467	5.67490	2.68191	0.44424	0.38679	0.31231	2.12316	1.68658	1.41703	8.53478	5.07478	2.37079
25320	0.54827	0.95536	0.40537	1.77655	1.40806	1.06764	9.28566	5.67965	2.68298	0.44888	0.39023	0.31523	2.11973	1.68836	1.41605	8.52699	5.07194	2.36804
25480	0.54522	0.95355	0.40438	1.77618	1.40826	1.06855	9.28141	5.67966	2.68528	0.44929	0.39086	0.31601	2.11954	1.68608	1.41546	8.53080	5.07162	2.36926
25650	0.54294	0.94873	0.40393	1.77392	1.40677	1.06706	9.29458	5.68187	2.68394	0.44762	0.38824	0.31514	2.11857	1.68339	1.41406	8.52407	5.07203	2.36743
25810	0.54266	0.94949	0.40371	1.77645	1.41013	1.07012	9.29272	5.68780	2.68536	0.45107	0.39170	0.31750	2.12160	1.68852	1.41804	8.53036	5.07567	2.37164
25970	0.54409	0.94673	0.40285	1.77687	1.40885	1.06846	9.29336	5.68086	2.68652	0.45102	0.39048	0.31726	2.11682	1.68037	1.41310	8.53106	5.07403	2.36889
26140	0.54486	0.95435	0.40356	1.77961	1.41175	1.07292	9.29490	5.68838	2.69283	0.45424	0.39402	0.32055	2.12156	1.68710	1.41254	8.54117	5.07636	2.37323	29.09	6.1	0.00	7.47	0.01266	0.01287	0.01638	0.00778	0.00579	0.00635	0.00466	0.01261	0.01678	0.00676	0.00697	0.00881	0.01485	0.01091	0.01192	0.00216	0.00614	0.00864
26300	0.54158	0.95052	0.40211	1.77710	1.41010	1.06862	9.28556	5.68080	2.68437	0.45183	0.39019	0.31822	2.11972	1.68119	1.40926	8.53550	5.07422	2.36994
26460	0.54582	0.95095	0.40293	1.77939	1.41227	1.07145	9.29846	5.68360	2.68700	0.45343	0.39368	0.32019	2.12102	1.68436	1.41265	8.53886	5.07736	2.37266
26630	0.54446	0.94916	0.40133	1.77768	1.41053	1.06883	9.27129	5.68037	2.68294	0.45114	0.39035	0.31748	2.11648	1.68429	1.40916	8.53134	5.07348	2.37018
26790	0.54362	0.94834	0.39871	1.77611	1.40887	1.06828	9.28131	5.67791	2.67996	0.44972	0.39022	0.31632	2.12227	1.68717	1.41198	8.53736	5.07938	2.37518
26950	0.54936	0.95618	0.40425	1.78100	1.41306	1.07182	9.29758	5.67836	2.68827	0.45253	0.39316	0.32018	2.12262	1.68392	1.41279	8.53337	5.07697	2.37332
27120	0.54679	0.95134	0.40294	1.78055	1.41266	1.07222	9.28854	5.68448	2.68626	0.45426	0.39322	0.32080	2.12318	1.68384	1.41493	8.53683	5.07821	2.37472
27280	0.54574	0.94656	0.40211	1.77948	1.41027	1.07008	9.27770	5.68018	2.68441	0.45065	0.39143	0.31778	2.11897	1.68105	1.40974	8.53523	5.07591	2.37086
27440	0.54267	0.94575	0.40246	1.77588	1.40696	1.06612	9.29647	5.67883	2.68856	0.44831	0.38968	0.31643	2.11988	1.68635	1.41595	8.53948	5.07997	2.37626
27610	0.54816	0.95511	0.40724	1.78098	1.41469	1.07117	9.28516	5.68689	2.68831	0.45170	0.39255	0.31913	2.12128	1.68881	1.41782	8.54515	5.08077	2.37612
27770	0.54633	0.95463	0.40421	1.78242	1.41417	1.07253	9.27887	5.68443	2.68703	0.45118	0.39271	0.31969	2.12539	1.68725	1.41325	8.54021	5.07927	2.37426	29.03	6.2	0.00	7.43	0.01266	0.01287	0.01638	0.00778	0.00579	0.00635	0.00466	0.01261	0.01678	0.00676	0.00697	0.00881	0.01485	0.01091	0.01192	0.00216	0.00614	0.00864
27930	0.54797	0.94868	0.40325	1.77846	1.41147	1.06867	9.29035	5.68018	2.68450	0.44854	0.38976	0.31598	2.12416	1.68490	1.41526	8.53676	5.07730	2.37245
28100	0.54737	0.95178	0.40194	1.77891	1.41144	1.06816	9.29309	5.68646	2.68919	0.44853	0.39060	0.31718	2.11796	1.69263	1.41638	8.53393	5.07728	2.37111
28260	0.54537	0.94721	0.40278	1.77708	1.40916	1.06624	9.28079	5.68284	2.68696	0.44676	0.38873	0.31446	2.11802	1.68168	1.40714	8.53419	5.07316	2.36786
28420	0.54147	0.95255	0.40494	1.77468	1.40978	1.06842	9.28714	5.68341	2.68590	0.44929	0.38940	0.31707	2.12640	1.68673	1.41596	8.53915	5.07693	2.37133
28590	0.54524	0.95200	0.40480	1.77615	1.40909	1.06638	9.30494	5.68615	2.68691	0.44616	0.38913	0.31426	2.11974	1.67890	1.41385	8.53658	5.07402	2.36776
28750	0.54322	0.94974	0.40348	1.77428	1.40858	1.06681	9.28178	5.68607	2.69010	0.44786	0.38891	0.31492	2.12190	1.68257	1.41036	8.53534	5.07528	2.36847
28910	0.54441	0.95645	0.40500	1.77532	1.40816	1.06561	9.29256	5.68134	2.68264	0.44576	0.38773	0.31344	2.12434	1.68158	1.40946	8.53782	5.07207	2.36544
29080	0.54485	0.95221	0.40932	1.77595	1.40906	1.06707	9.30406	5.68488	2.68970	0.44754	0.38996	0.31593	2.12456	1.68686	1.41869	8.53729	5.07530	2.36812
29240	0.54606	0.95412	0.40428	1.77288	1.40624	1.06483	9.28498	5.68073	2.68803	0.44453	0.38782	0.31292	2.12103	1.68741	1.40870	8.52986	5.07177	2.36579
29400	0.54494	0.95362	0.40524	1.77395	1.40781	1.06596	9.28764	5.68596	2.68948	0.44596	0.38825	0.31531	2.12134	1.68395	1.40923	8.53229	5.07422	2.36731	28.98	6.1	0.00	7.39	0.01266	0.01287	0.01638	0.00777	0.00579	0.00635	0.00466	0.01261	0.01678	0.00676	0.00697	0.00881	0.01485	0.01091	0.01192	0.00216	0.00614	0.00864
29570	0.54709	0.95226	0.40322	1.77261	1.40501	1.06288	9.28706	5.67988	2.68375	0.44245	0.38476	0.31035	2.11172	1.67675	1.41153	8.52123	5.06503	2.36052
29730	0.55476	0.95653	0.40485	1.77469	1.40786	1.06494	9.29167	5.69774	2.69762	0.44570	0.38749	0.31320	2.12474	1.68309	1.41608	8.53088	5.07168	2.36592
29890	0.54405	0.94542	0.40695	1.77140	1.40441	1.06233	9.29289	5.68416	2.68608	0.44397	0.38616	0.31252	2.12289	1.67949	1.41024	8.52583	5.06871	2.36218
30060	0.54383	0.95129	0.40557	1.77190	1.40477	1.06388	9.30497	5.68659	2.68948	0.44568	0.38674	0.31363	2.12402	1.68238	1.41250	8.53008	5.07179	2.36367
30220	0.54293	0.94441	0.40562	1.77008	1.40295	1.06145	9.29103	5.68121	2.68315	0.44300	0.38466	0.31096	2.12879	1.68077	1.41859	8.52424	5.06839	2.36131
30380	0.53438	0.95571	0.40352	1.76810	1.39930	1.05875	9.28444	5.67559	2.67926	0.44109	0.38194	0.30872	2.12752	1.68351	1.41432	8.53282	5.07196	2.36519
30550	0.54648	0.95429	0.40773	1.77229	1.40349	1.06209	9.29406	5.68190	2.68704	0.44449	0.38532	0.31275	2.12077	1.67982	1.41070	8.52530	5.06997	2.36220
30710	0.54604	0.95093	0.40321	1.76806	1.40069	1.05829	9.27751	5.67946	2.68633	0.44113	0.38194	0.30907	2.12488	1.68292	1.41958	8.52884	5.07445	2.36762
30870	0.54886	0.95171	0.40464	1.77406	1.40466	1.06346	9.28310	5.67968	2.68716	0.44566	0.38529	0.31348	2.12020	1.67878	1.41113	8.52946	5.06979	2.36350
31040	0.54493	0.95135	0.40492	1.77298	1.40572	1.06442	9.31515	5.68919	2.69087	0.44673	0.38644	0.31387	2.12441	1.68831	1.41773	8.53077	5.07301	2.36557	29.03	6.1	0.00	6.67	0.01267	0.01287	0.01638	0.00777	0.00579	0.00635	0.00466	0.01261	0.01678	0.00676	0.00697	0.00881	0.01485	0.01091	0.01192	0.00216	0.00614	0.00864
31200	0.54719	0.95412	0.40546	1.77118	1.40343	1.06137	9.29197	5.68668	2.69112	0.44325	0.38429	0.31206	2.12717	1.68132	1.40831	8.52431	5.06854	2.36119
31360	0.54786	0.95502	0.40289	1.77098	1.40380	1.06354	9.30154	5.68111	2.69002	0.44523	0.38678	0.31410	2.12017	1.68485	1.41591	8.52528	5.07238	2.36426
31530	0.54361	0.94558	0.40080	1.76972	1.40209	1.06108	9.29132	5.68023	2.68517	0.44324	0.38365	0.31127	2.11620	1.68154	1.41448	8.52112	5.06941	2.36430
31690	0.54469	0.95228	0.40626	1.76978	1.40207	1.06182	9.28410	5.68672	2.68900	0.44402	0.38447	0.31132	2.12199	1.68417	1.41449	8.52563	5.06936	2.36200
31850	0.54361	0.95050	0.40473	1.76855	1.40104	1.06002	9.28987	5.67797	2.68409	0.44254	0.38285	0.31051	2.11799	1.68440	1.41898	8.52210	5.06666	2.36136
32010	0.54254	0.94727	0.40114	1.76885	1.40246	1.06451	9.28515	5.68004	2.68572	0.44604	0.38575	0.31331	2.11275	1.67907	1.41660	8.52501	5.06962	2.36383
32180	0.54523	0.94456	0.39992	1.77074	1.40163	1.06177	9.29302	5.68219	2.68575	0.44388	0.38359	0.31182	2.11812	1.67785	1.41209	8.52165	5.06765	2.36096
32340	0.54081	0.95036	0.40132	1.76745	1.40156	1.06235	9.28940	5.68002	2.68658	0.44546	0.38542	0.31333	2.11993	1.68315	1.41088	8.52900	5.07062	2.36399
32510	0.54437	0.94935	0.40250	1.76974	1.40133	1.06154	9.28625	5.68249	2.68407	0.44425	0.38356	0.31154	2.12126	1.68296	1.40881	8.52457	5.06910	2.36406
32670	0.54076	0.94812	0.40297	1.76995	1.40477	1.06393	9.29036	5.68300	2.68498	0.44709	0.38555	0.31416	2.12139	1.68327	1.40932	8.52954	5.07440	2.36756	29.03	6.2	0.00	7.53	0.01266	0.01287	0.01638	0.00778	0.00579	0.00635	0.00466	0.01261	0.01678	0.00676	0.00697	0.00881	0.01485	0.01091	0.01192	0.00216	0.00614	0.00864
32830	0.54002	0.94489	0.40142	1.77265	1.40489	1.06311	9.27975	5.67283	2.67892	0.44475	0.38242	0.31122	2.11339	1.67757	1.40842	8.52414	5.06857	2.36236
33000	0.54110	0.94470	0.40118	1.77455	1.40634	1.06626	9.29356	5.67835	2.68293	0.44865	0.38657	0.31489	2.11743	1.68142	1.40966	8.52794	5.07330	2.36695
33160	0.54066	0.94243	0.39601	1.77187	1.40440	1.06385	9.29199	5.68170	2.67825	0.44636	0.38391	0.31335	2.11640	1.68098	1.40224	8.52741	5.07154	2.36484
33320	0.54099	0.94687	0.40248	1.77205	1.40429	1.06361	9.28488	5.68203	2.68370	0.44765	0.38525	0.31402	2.12043	1.68453	1.41049	8.53361	5.07289	2.36734
33480	0.54009	0.94326	0.39828	1.77060	1.40267	1.06133	9.27625	5.67483	2.67963	0.44335	0.38156	0.31096	2.11437	1.67702	1.40408	8.52848	5.06883	2.36344
33650	0.53948	0.94127	0.39608	1.76888	1.40121	1.05990	9.28004	5.66646	2.67232	0.44250	0.38008	0.30871	2.11792	1.67699	1.41359	8.52883	5.07263	2.36743
33810	0.54198	0.94176	0.39943	1.77210	1.40549	1.06407	9.28546	5.67271	2.67984	0.44679	0.38299	0.31267	2.11382	1.67821	1.40894	8.53290	5.07052	2.36363
33980	0.54209	0.94425	0.39634	1.76870	1.40129	1.05922	9.27084	5.66998	2.68004	0.44330	0.38196	0.30972	2.12044	1.68310	1.41611	8.53237	5.07490	2.36864
34140	0.54384	0.94712	0.40296	1.77306	1.40404	1.06210	9.30080	5.68183	2.68546	0.44548	0.38327	0.31317	2.12140	1.67851	1.41332	8.52511	5.07050	2.36481
34300	0.54645	0.94992	0.40280	1.77020	1.40175	1.05964	9.28158	5.68089	2.68271	0.44169	0.37926	0.30908	2.12387	1.69035	1.42342	8.53163	5.07570	2.36939	29.09	6.1	0.00	7.44	0.01267	0.01287	0.01638	0.00778	0.00579	0.00635	0.00466	0.01261	0.01678	0.00676	0.00697	0.00881	0.01485	0.01091	0.01192	0.00216	0.00614	0.00864
34470	0.55009	0.94870	0.40234	1.77476	1.40526	1.06416	9.28542	5.68158	2.68811	0.44677	0.38405	0.31261	2.12682	1.68770	1.41553	8.52818	5.07158	2.36473
34630	0.54435	0.95164	0.40492	1.77279	1.40640	1.06384	9.29744	5.68766	2.68754	0.44628	0.38576	0.31315	2.12499	1.68660	1.41482	8.52712	5.07100	2.36419
34790	0.54637	0.95525	0.40573	1.77006	1.40342	1.06114	9.29709	5.68570	2.68850	0.44457	0.38314	0.31141	2.12797	1.68679	1.41436	8.52694	5.06978	2.36239
34960	0.54567	0.95555	0.40762	1.77185	1.40463	1.06279	9.30047	5.68455	2.69398	0.44678	0.38585	0.31325	2.11396	1.68935	1.41772	8.53039	5.07280	2.36591
35120	0.54675	0.94664	0.40265	1.77167	1.40348	1.06094	9.30176	5.68041	2.69115	0.44301	0.38222	0.31059	2.12320	1.68159	1.41541	8.52278	5.07000	2.36168
35280	0.54820	0.95357	0.40365	1.77157	1.40425	1.06262	9.28344	5.68474	2.69306	0.44384	0.38408	0.31201	2.12826	1.68807	1.41925	8.52782	5.07199	2.36504
35450	0.54930	0.95310	0.40323	1.77086	1.40314	1.06039	9.28059	5.68302	2.68939	0.44265	0.38207	0.30960	2.12661	1.68275	1.42353	8.52597	5.07052	2.36448
35610	0.54475	0.95718	0.40628	1.77084	1.40446	1.06194	9.28874	5.68650	2.69114	0.44469	0.38464	0.31178	2.12267	1.68770	1.42015	8.53012	5.07087	2.36289
35770	0.54831	0.95989	0.40479	1.77116	1.40269	1.06213	9.28554	5.68154	2.68874	0.44232	0.38223	0.30942	2.12075	1.68936	1.41820	8.53030	5.07308	2.36567
35940	0.54652	0.95774	0.40904	1.77220	1.40444	1.06263	9.29136	5.68148	2.69008	0.44412	0.38391	0.31095	2.12446	1.68424	1.41937	8.52871	5.07129	2.36365	29.03	6.2	0.00	7.46	0.01267	0.01287	0.01638	0.00777	0.00579	0.00635	0.00466	0.01261	0.01678	0.00676	0.00697	0.00881	0.01485	0.01091	0.01192	0.00216	0.00614	0.00864
36100	0.54616	0.95391	0.40296	1.76996	1.40230	1.06039	9.28676	5.68502	2.69302	0.44150	0.38209	0.30871	2.12459	1.68897	1.41950	8.52835	5.07241	2.36585
36260	0.54926	0.95404	0.40500	1.77180	1.40390	1.06189	9.28734	5.68543	2.69107	0.44331	0.38463	0.31049	2.12296	1.68601	1.41859	8.52561	5.06912	2.36236
36430	0.54587	0.95579	0.40233	1.76933	1.40160	1.05934	9.29055	5.68303	2.69014	0.44116	0.38266	0.30837	2.12846	1.69105	1.42306	8.53287	5.07395	2.36644
36590	0.54720	0.96259	0.41242	1.77404	1.40599	1.06313	9.28058	5.68880	2.69973	0.44374	0.38504	0.31059	2.12435	1.68810	1.42450	8.53119	5.06949	2.36441
36750	0.54300	0.95035	0.40012	1.77016	1.40162	1.05922	9.29866	5.67555	2.68472	0.43911	0.38005	0.30572	2.14082	1.69672	1.41733	8.52844	5.07380	2.36747
36920	0.54499	0.96007	0.41666	1.77374	1.40490	1.06204	9.28559	5.68969	2.68019	0.44248	0.38328	0.30892	2.12815	1.68200	1.40963	8.52464	5.06613	2.36054
37080	0.54605	0.95939	0.40643	1.76782	1.40033	1.05801	9.27400	5.68095	2.68546	0.43933	0.38046	0.30577	2.12654	1.68611	1.41695	8.52676	5.07393	2.36575
37250	0.55133	0.95756	0.40477	1.77092	1.40287	1.05907	9.28384	5.70362	2.70325	0.44107	0.38541	0.31043	2.12972	1.67131	1.40846	8.52933	5.07044	2.36352
37410	0.54624	0.94655	0.41058	1.77077	1.40291	1.06168	9.30140	5.69637	2.68867	0.44194	0.38476	0.30860	2.13616	1.69282	1.42340	8.52712	5.07142	2.36394
37570	0.55007	0.95908	0.40788	1.77082	1.40355	1.06021	9.29156	5.68288	2.68667	0.43845	0.37967	0.30574	2.13124	1.71055	1.42494	8.52378	5.06858	2.36178	29.09	6.0	0.00	7.49	0.01267	0.01287	0.01638	0.00777	0.00579	0.00635	0.00466	0.01261	0.01678	0.00676	0.00697	0.00881	0.01485	0.01091	0.01192	0.00216	0.00614	0.00864
37740	0.54635	0.94790	0.41077	1.77078	1.40381	1.06066	9.28794	5.69015	2.69744	0.44143	0.38416	0.30916	2.12446	1.69027	1.41033	8.52811	5.06971	2.36219
37900	0.55002	0.95642	0.40519	1.76815	1.40194	1.05952	9.27704	5.68011	2.68901	0.44005	0.38323	0.30769	2.12225	1.68194	1.41319	8.51989	5.06914	2.36107
38060	0.54744	0.95333	0.40501	1.76944	1.40291	1.06087	9.27262	5.68422	2.68858	0.44112	0.38422	0.30890	2.12449	1.68471	1.41579	8.52741	5.07001	2.36292
38230	0.54413	0.95294	0.40519	1.76787	1.40120	1.05888	9.28357	5.68514	2.68677	0.43862	0.38109	0.30598	2.12087	1.68399	1.41544	8.51821	5.06628	2.35970
38390	0.54637	0.95411	0.40654	1.76915	1.40371	1.06144	9.30183	5.68608	2.68839	0.44095	0.38377	0.30858	2.12449	1.68646	1.41614	8.52599	5.06886	2.36186
38550	0.54728	0.95219	0.40526	1.76816	1.40178	1.05899	9.29868	5.68349	2.68425	0.44056	0.38162	0.30670	2.11447	1.67950	1.40914	8.52236	5.06724	2.36014
38720	0.54605	0.95502	0.40765	1.76850	1.40294	1.06037	9.30013	5.68280	2.68081	0.44081	0.38409	0.30884	2.11745	1.68371	1.40448	8.52431	5.07068	2.36308
38880	0.54249	0.95021	0.40668	1.76675	1.39992	1.05671	9.29366	5.68079	2.68465	0.43853	0.38122	0.30641	2.11974	1.68857	1.41030	8.52334	5.06871	2.36183
39040	0.53955	0.94340	0.39821	1.76543	1.39823	1.05517	9.26878	5.67911	2.68174	0.43676	0.37992	0.30369	2.12071	1.68613	1.41694	8.52227	5.07200	2.36615
39210	0.54601	0.95092	0.40341	1.77215	1.40423	1.06182	9.27281	5.68435	2.68848	0.44095	0.38375	0.30875	2.12234	1.68830	1.41419	8.52866	5.07183	2.36495	29.03	6.0	0.00	6.60	0.01267	0.01287	0.01638	0.00777	0.00579	0.00635	0.00466	0.01261	0.01678	0.00676	0.00697	0.00881	0.01485	0.01091	0.01192	0.00216	0.00614	0.00864
39370	0.54655	0.95187	0.40490	1.77120	1.40376	1.06290	9.28125	5.68172	2.68838	0.44391	0.38569	0.30964	2.12025	1.68511	1.41631	8.52911	5.07126	2.36493
39530	0.54706	0.94784	0.40239	1.76918	1.40098	1.05958	9.27060	5.67746	2.68505	0.43941	0.38287	0.30738	2.12141	1.68317	1.41598	8.52804	5.07163	2.36401
39700	0.54661	0.94910	0.40445	1.76932	1.40200	1.05997	9.29437	5.68103	2.68392	0.43922	0.38267	0.30756	2.11980	1.68637	1.41590	8.52663	5.06793	2.36139
39860	0.54350	0.94778	0.40197	1.76676	1.39912	1.05761	9.28522	5.67571	2.68380	0.43768	0.38026	0.30585	2.11915	1.68407	1.41187	8.52433	5.06539	2.35923
40020	0.54501	0.94782	0.40257	1.76544	1.39857	1.05621	9.28096	5.67813	2.67885	0.43799	0.37987	0.30431	2.12199	1.68721	1.42237	8.52769	5.07161	2.36544
40180	0.55037	0.95623	0.40406	1.77220	1.40447	1.06090	9.28936	5.67981	2.68582	0.44185	0.38501	0.30860	2.12016	1.68678	1.41643	8.52946	5.07194	2.36414
40350	0.55222	0.96096	0.40227	1.76920	1.40207	1.06066	9.29536	5.67178	2.68170	0.43947	0.38374	0.30703	2.12393	1.69030	1.41683	8.52725	5.06920	2.36237
40510	0.54749	0.95546	0.40509	1.76801	1.40163	1.05947	9.28749	5.67579	2.68108	0.43956	0.38286	0.30625	2.12156	1.68480	1.41252	8.52283	5.06758	2.36031
40670	0.54596	0.94879	0.40066	1.76580	1.39821	1.05586	9.27461	5.67603	2.68235	0.43737	0.38119	0.30454	2.12365	1.68518	1.41286	8.52592	5.07183	2.36460
40840	0.54743	0.95562	0.40539	1.77125	1.40198	1.06045	9.27464	5.68006	2.68584	0.44068	0.38380	0.30728	2.12252	1.68285	1.41390	8.52402	5.07022	2.36190	29.03	6.3	0.00	7.53	0.01267	0.01287	0.01638	0.00777	0.00579	0.00635	0.00466	0.01261	0.01678	0.00676	0.00697	0.00881	0.01485	0.01091	0.01192	0.00216	0.00614	0.00864
41000	0.54471	0.95371	0.40214	1.76681	1.39878	1.05733	9.28227	5.67618	2.68098	0.43954	0.38353	0.30715	2.12621	1.68731	1.41828	8.53287	5.07384	2.36654
41170	0.54930	0.95418	0.40539	1.77187	1.40296	1.06192	9.28605	5.67784	2.68427	0.44168	0.38572	0.30932	2.11749	1.69022	1.42179	8.52499	5.07105	2.36352
41330	0.54635	0.95812	0.40828	1.77038	1.40339	1.06245	9.29247	5.68662	2.68926	0.44216	0.38553	0.30899	2.11815	1.69101	1.41907	8.52720	5.07072	2.36442
41490	0.54600	0.95345	0.40270	1.76990	1.40161	1.06024	9.29509	5.67713	2.68411	0.43914	0.38323	0.30651	2.11612	1.68318	1.41082	8.52199	5.06712	2.35938
41660	0.54905	0.95487	0.40547	1.77026	1.40350	1.06235	9.29427	5.68100	2.68754	0.44410	0.38709	0.31038	2.12229	1.68228	1.41477	8.52570	5.06946	2.36175
41820	0.54691	0.94621	0.40058	1.76869	1.40127	1.06021	9.28495	5.67533	2.68511	0.44030	0.38420	0.30859	2.11981	1.67870	1.40954	8.52154	5.06832	2.35919
41980	0.54580	0.95267	0.40240	1.76845	1.40170	1.06072	9.28629	5.67707	2.68236	0.44128	0.38489	0.30908	2.12092	1.68695	1.41562	8.52411	5.07063	2.36322
42150	0.54123	0.94640	0.39948	1.76855	1.40072	1.05958	9.28704	5.67692	2.68132	0.43870	0.38377	0.30701	2.11955	1.68266	1.40706	8.52455	5.06676	2.35913
42310	0.53977	0.94297	0.39797	1.76660	1.39933	1.05718	9.28576	5.67912	2.68315	0.43768	0.38147	0.30462	2.11822	1.68364	1.40710	8.52517	5.07168	2.36496
42470	0.54047	0.94467	0.40163	1.77092	1.40241	1.06145	9.29666	5.67779	2.68521	0.44059	0.38520	0.30716	2.12468	1.68021	1.40396	8.52667	5.06637	2.35987	29.09	6.0	0.00	7.45	0.01267	0.01287	0.01638	0.00777	0.00579	0.00635	0.00466	0.01261	0.01678	0.00676	0.00697	0.00881	0.01485	0.01091	0.01192	0.00216	0.00614	0.00864
42640	0.53283	0.93108	0.39311	1.76858	1.40273	1.06151	9.27778	5.68272	2.69191	0.44203	0.38592	0.30960	2.10955	1.67538	1.40753	8.52101	5.06789	2.36337
42800	0.54238	0.93641	0.39558	1.76898	1.40161	1.06153	9.27772	5.66566	2.67643	0.44092	0.38492	0.30683	2.11447	1.67645	1.40364	8.52437	5.06607	2.35883
42960	0.54341	0.93674	0.39453	1.76753	1.40172	1.06127	9.27714	5.66760	2.68261	0.44205	0.38647	0.30923	2.11535	1.67454	1.39838	8.52402	5.06841	2.36283
43130	0.53842	0.93586	0.39884	1.76788	1.40081	1.06083	9.27219	5.67304	2.67510	0.44040	0.38429	0.30640	2.11198	1.67445	1.40611	8.53198	5.07312	2.36486
43290	0.53507	0.93557	0.40301	1.77132	1.40502	1.06452	9.27504	5.68039	2.68518	0.44272	0.38753	0.31090	2.11495	1.67660	1.40666	8.52526	5.07116	2.36417
43450	0.53911	0.93934	0.40166	1.76808	1.40101	1.06083	9.28652	5.67023	2.67878	0.43933	0.38370	0.30718	2.11492	1.67324	1.40885	8.52756	5.07231	2.36649
43620	0.54432	0.94386	0.40071	1.77141	1.40352	1.06290	9.27673	5.67361	2.68036	0.44037	0.38451	0.30927	2.11787	1.67796	1.40797	8.52774	5.06989	2.36315
43780	0.53969	0.93739	0.39806	1.76667	1.39932	1.05735	9.27527	5.66581	2.67526	0.43780	0.38217	0.30553	2.11203	1.67659	1.40686	8.52641	5.06763	2.36037
43940	0.53795	0.94631	0.40213	1.76893	1.40405	1.06280	9.27632	5.67439	2.68070	0.44157	0.38515	0.30895	2.11258	1.67912	1.40944	8.52703	5.06939	2.36379
44110	0.54201	0.94795	0.40273	1.77025	1.40276	1.06139	9.28943	5.67113	2.67720	0.44034	0.38361	0.30656	2.10996	1.67586	1.40655	8.52085	5.06620	2.36057	29.09	6.0	0.00	7.41	0.01266	0.01287	0.01638	0.00777	0.00579	0.00635	0.00466	0.01261	0.01678	0.00676	0.00697	0.00881	0.01485	0.01091	0.01192	0.00216	0.00614	0.00864
44270	0.53951	0.94876	0.40195	1.76620	1.40279	1.06267	9.27754	5.67884	2.68135	0.44211	0.38620	0.30942	2.11753	1.67829	1.40841	8.52890	5.07057	2.36386
44430	0.54119	0.94561	0.39812	1.76810	1.40132	1.06020	9.27591	5.67639	2.68224	0.43973	0.38352	0.30649	2.11299	1.67588	1.40254	8.52651	5.06702	2.36124
44600	0.54262	0.94628	0.39907	1.77119	1.40388	1.06309	9.29876	5.67822	2.68330	0.44286	0.38646	0.30825	2.11611	1.68032	1.41203	8.52677	5.07138	2.36442
44760	0.54267	0.94426	0.40013	1.76898	1.40219	1.06084	9.27044	5.67603	2.67912	0.43952	0.38475	0.30731	2.11486	1.67518	1.40877	8.52438	5.06732	2.36007
44920	0.54268	0.94678	0.40213	1.76926	1.40225	1.06248	9.29077	5.67752	2.68096	0.44195	0.38508	0.30841	2.11411	1.68046	1.41044	8.52660	5.07040	2.36291
45090	0.53895	0.93912	0.39822	1.76750	1.40179	1.05994	9.29066	5.67253	2.67763	0.44048	0.38355	0.30751	2.11578	1.66934	1.39629	8.52217	5.06693	2.36035
45250	0.54343	0.94359	0.40016	1.76976	1.40162	1.06244	9.26521	5.67074	2.68179	0.44093	0.38622	0.30903	2.11875	1.67749	1.40369	8.52934	5.06919	2.36285
45410	0.54128	0.94396	0.39796	1.76697	1.40146	1.05993	9.28821	5.67163	2.68104	0.43894	0.38356	0.30678	2.11671	1.67983	1.40515	8.52483	5.06882	2.36190
45580	0.54375	0.94455	0.39836	1.77099	1.40259	1.06286	9.27871	5.67871	2.68489	0.44201	0.38605	0.30961	2.11809	1.68190	1.40978	8.52589	5.07146	2.36459
45740	0.54179	0.94639	0.39993	1.76949	1.40295	1.06143	9.28681	5.67253	2.67905	0.43928	0.38361	0.30668	2.11317	1.67586	1.40563	8.51754	5.06607	2.36020	29.03	6.0	0.00	7.47	0.01266	0.01287	0.01638	0.00777	0.00579	0.00635	0.00466	0.01261	0.01678	0.00676	0.00697	0.00881	0.01485	0.01091	0.01192	0.00216	0.00614	0.00864
45900	0.54044	0.94689	0.40367	1.76970	1.40491	1.06393	9.29708	5.68187	2.68244	0.44266	0.38723	0.31103	2.11620	1.68110	1.41263	8.53072	5.07166	2.36440
46070	0.54168	0.94246	0.39994	1.76885	1.40182	1.06010	9.29865	5.67724	2.68223	0.43867	0.38436	0.30751	2.11351	1.67815	1.40665	8.52471	5.06648	2.36085
46230	0.54156	0.94210	0.40042	1.77091	1.40460	1.06329	9.27848	5.68146	2.68685	0.44208	0.38657	0.30965	2.11942	1.68326	1.41422	8.52692	5.07153	2.36573
46390	0.54231	0.94491	0.40082	1.77045	1.40228	1.06182	9.28023	5.67471	2.68298	0.43930	0.38378	0.30726	2.11059	1.67515	1.40706	8.52320	5.06620	2.36022
46560	0.54183	0.94687	0.40225	1.76924	1.40317	1.06279	9.29544	5.67571	2.68119	0.44029	0.38576	0.30955	2.11533	1.68068	1.40880	8.52957	5.07001	2.36370
46720	0.54032	0.94517	0.40083	1.76791	1.40031	1.05984	9.28920	5.67293	2.68055	0.43884	0.38371	0.30773	2.11403	1.67740	1.40462	8.52665	5.06743	2.36069
46880	0.53838	0.93910	0.39923	1.76509	1.39832	1.05661	9.28093	5.66987	2.68014	0.43500	0.37970	0.30391	2.12005	1.68256	1.40959	8.52895	5.07190	2.36644
47050	0.54202	0.94501	0.40180	1.77130	1.40325	1.06155	9.27306	5.67437	2.67856	0.43915	0.38438	0.30659	2.11670	1.68296	1.40999	8.52347	5.06886	2.36265
47210	0.54482	0.94844	0.40169	1.76939	1.40239	1.06201	9.28565	5.67590	2.67812	0.44102	0.38520	0.30823	2.11486	1.68163	1.41286	8.52241	5.06817	2.36175
47370	0.54539	0.94629	0.40071	1.76666	1.39970	1.05831	9.28341	5.67061	2.67614	0.43828	0.38228	0.30636	2.11895	1.68153	1.40909	8.52852	5.06973	2.36280	29.03	6.0	0.00	7.44	0.01266	0.01287	0.01638	0.00777	0.00579	0.00635	0.00466	0.01261	0.01678	0.00675	0.00697	0.00881	0.01485	0.01091	0.01192	0.00216	0.00614	0.00864
47540	0.54377	0.94977	0.40223	1.76878	1.40126	1.06035	9.28178	5.67067	2.68094	0.43993	0.38386	0.30756	2.11446	1.68174	1.41161	8.52224	5.06800	2.36180
47700	0.54267	0.94305	0.40012	1.76834	1.40157	1.05848	9.27426	5.67326	2.67993	0.43856	0.38237	0.30584	2.11936	1.68177	1.41153	8.52109	5.06989	2.36315
47860	0.54106	0.94566	0.40077	1.76921	1.40229	1.06107	9.28352	5.67557	2.68132	0.43972	0.38492	0.30792	2.11600	1.68054	1.41022	8.51923	5.06783	2.36181
48030	0.54006	0.94560	0.39993	1.76596	1.39944	1.05688	9.27840	5.67063	2.67922	0.43744	0.38116	0.30534	2.11604	1.68013	1.41235	8.52764	5.07182	2.36610
48190	0.54339	0.94676	0.40205	1.77169	1.40361	1.06221	9.28685	5.67907	2.68126	0.44093	0.38340	0.30895	2.11670	1.67920	1.40772	8.52613	5.06934	2.36312
48350	0.54268	0.94527	0.39867	1.76777	1.39923	1.05859	9.29262	5.67612	2.67875	0.43798	0.38153	0.30592	2.11690	1.68269	1.41241	8.52658	5.07140	2.36445
48520	0.54338	0.94776	0.40003	1.76933	1.40123	1.06013	9.28550	5.67699	2.68235	0.43910	0.38285	0.30758	2.11238	1.67723	1.40623	8.52490	5.06735	2.36088
48680	0.53958	0.94596	0.39915	1.76470	1.39766	1.05609	9.26961	5.67160	2.67801	0.43719	0.37995	0.30482	2.11594	1.68108	1.40841	8.51906	5.06980	2.36430
48840	0.54229	0.94300	0.39919	1.76793	1.40112	1.05937	9.28685	5.67532	2.67955	0.43981	0.38132	0.30639	2.11633	1.68009	1.40466	8.52136	5.06807	2.36234
49010	0.54191	0.94527	0.39852	1.76701	1.39914	1.05880	9.27672	5.66984	2.67694	0.43868	0.38067	0.30536	2.11858	1.68145	1.41212	8.52826	5.07105	2.36460	29.03	6.1	0.00	7.49	0.01266	0.01287	0.01638	0.00778	0.00579	0.00635	0.00466	0.01261	0.01678	0.00676	0.00697	0.00881	0.01485	0.01091	0.01192	0.00216	0.00614	0.00864
49170	0.54289	0.94667	0.40143	1.77068	1.40182	1.06137	9.27492	5.67389	2.67876	0.44150	0.38182	0.30861	2.11487	1.68041	1.40854	8.52171	5.06682	2.36143
49340	0.54279	0.94527	0.39884	1.77035	1.40306	1.06192	9.28115	5.67822	2.68405	0.44220	0.38300	0.30943	2.11779	1.67933	1.40843	8.52737	5.07014	2.36330
49500	0.54397	0.94674	0.40010	1.76961	1.40225	1.06181	9.28581	5.67392	2.68025	0.44202	0.38265	0.30858	2.11671	1.67986	1.40760	8.52295	5.06712	2.36201
49660	0.54257	0.94596	0.40248	1.77061	1.40309	1.06253	9.28534	5.68015	2.68472	0.44232	0.38356	0.30998	2.11760	1.67662	1.40961	8.52516	5.06957	2.36421
49830	0.54214	0.94788	0.39903	1.76986	1.40045	1.05934	9.28756	5.67542	2.68014	0.43923	0.38043	0.30773	2.11367	1.67667	1.40675	8.52136	5.06684	2.36128
49990	0.54148	0.94498	0.40382	1.77116	1.40359	1.06282	9.29444	5.67842	2.68441	0.44198	0.38287	0.30854	2.11486	1.68115	1.41252	8.52392	5.06990	2.36455
50150	0.54158	0.94469	0.39683	1.77058	1.40180	1.05998	9.27270	5.67291	2.68068	0.43978	0.38057	0.30766	2.11213	1.67774	1.40927	8.51543	5.06448	2.35959
50320	0.54264	0.94860	0.40201	1.77023	1.40289	1.06264	9.27276	5.67918	2.68300	0.44313	0.38469	0.31054	2.11213	1.68035	1.40854	8.52419	5.06927	2.36323
50480	0.54458	0.94659	0.39946	1.76866	1.39974	1.06008	9.28051	5.67325	2.68330	0.44010	0.38184	0.30909	2.10933	1.67594	1.40322	8.51950	5.06602	2.36034
50640	0.54020	0.94389	0.39546	1.76620	1.39711	1.05643	9.27021	5.67473	2.67825	0.43861	0.37873	0.30464	2.11707	1.68547	1.41260	8.52694	5.07316	2.36728	29.09	6.1	0.00	7.43	0.01267	0.01287	0.01638	0.00778	0.00579	0.00635	0.00466	0.01261	0.01678	0.00676	0.00697	0.00881	0.01485	0.01091	0.01192	0.00216	0.00614	0.00864
50810	0.54405	0.94467	0.39862	1.77290	1.40431	1.06264	9.28669	5.67662	2.68306	0.44175	0.38205	0.30767	2.11840	1.68128	1.40699	8.52676	5.07071	2.36547
50970	0.54454	0.95250	0.40190	1.77317	1.40465	1.06443	9.28523	5.67276	2.68359	0.44288	0.38430	0.30913	2.11851	1.68091	1.40952	8.52393	5.06845	2.36307
51130	0.54474	0.94703	0.40088	1.77004	1.40146	1.06142	9.28541	5.67369	2.67751	0.44108	0.38166	0.30787	2.11636	1.68221	1.41081	8.52623	5.06900	2.36243
51300	0.54521	0.94939	0.39984	1.77024	1.40158	1.06079	9.27649	5.67192	2.67812	0.44072	0.38139	0.30795	2.11569	1.68038	1.41092	8.52464	5.06845	2.36197
51460	0.54163	0.94069	0.40147	1.76980	1.40008	1.05978	9.28121	5.67332	2.67814	0.43959	0.38054	0.30670	2.11384	1.67911	1.40731	8.52004	5.06568	2.36000
51620	0.54131	0.94451	0.40098	1.76786	1.40151	1.06168	9.28628	5.67653	2.68405	0.44240	0.38407	0.30960	2.11802	1.68106	1.41314	8.52827	5.06884	2.36313
51790	0.54187	0.94590	0.40079	1.76944	1.40180	1.06071	9.27626	5.66901	2.67831	0.44069	0.38172	0.30797	2.11630	1.67850	1.40404	8.51880	5.06546	2.36100
51950	0.53940	0.94662	0.40330	1.76797	1.40175	1.06168	9.27265	5.67843	2.68364	0.44264	0.38473	0.31064	2.11810	1.67985	1.40996	8.52278	5.07038	2.36424
52110	0.54483	0.94671	0.39893	1.77024	1.40237	1.05993	9.28383	5.67507	2.68041	0.44043	0.38121	0.30708	2.11520	1.67575	1.40587	8.52535	5.06583	2.36108
52280	0.54441	0.94712	0.40420	1.77290	1.40438	1.06440	9.26381	5.67850	2.68456	0.44401	0.38595	0.31126	2.11753	1.68051	1.41205	8.52759	5.06938	2.36503	29.03	6.2	0.00	7.48	0.01266	0.01287	0.01638	0.00778	0.00579	0.00635	0.00466	0.01261	0.01678	0.00676	0.00697	0.00881	0.01485	0.01091	0.01192	0.00216	0.00614	0.00864
52440	0.54253	0.94860	0.40256	1.77057	1.40193	1.06082	9.28215	5.67138	2.68175	0.44049	0.38129	0.30798	2.11323	1.67623	1.40829	8.52458	5.06637	2.36147
52600	0.54360	0.94800	0.40276	1.77316	1.40382	1.06412	9.27289	5.67910	2.68672	0.44337	0.38499	0.31113	2.11907	1.68162	1.40920	8.52627	5.07077	2.36401
52770	0.54230	0.94779	0.40090	1.77082	1.40175	1.06067	9.29410	5.67618	2.68078	0.44038	0.38265	0.30784	2.11537	1.67736	1.40447	8.52184	5.06578	2.35994
52930	0.54236	0.94547	0.39934	1.77042	1.40305	1.06220	9.27673	5.67612	2.68199	0.44203	0.38459	0.30955	2.11599	1.68113	1.40868	8.52158	5.06763	2.36323
53090	0.54283	0.94752	0.40052	1.77011	1.40144	1.05932	9.27289	5.67248	2.67566	0.43943	0.38069	0.30644	2.10966	1.67548	1.40860	8.52308	5.06470	2.35996
53250	0.54012	0.94382	0.39726	1.76594	1.39625	1.05668	9.27772	5.66761	2.67689	0.43613	0.37888	0.30381	2.11422	1.67974	1.40909	8.52467	5.06925	2.36423
53420	0.54544	0.94721	0.40118	1.77070	1.40216	1.06111	9.27830	5.67556	2.68172	0.43887	0.38092	0.30668	2.11563	1.68194	1.40830	8.51813	5.06680	2.36063
53580	0.54206	0.94335	0.40067	1.76730	1.39830	1.05711	9.27970	5.67341	2.67801	0.43649	0.37914	0.30379	2.11602	1.68345	1.41120	8.52839	5.06947	2.36362
53750	0.54430	0.94609	0.40215	1.77045	1.40093	1.06009	9.27149	5.67733	2.68243	0.43920	0.38161	0.30764	2.11673	1.67767	1.40471	8.51999	5.06483	2.35963
53910	0.54425	0.94930	0.40057	1.76624	1.39731	1.05692	9.27925	5.67294	2.67582	0.43632	0.37945	0.30458	2.11819	1.67945	1.40779	8.52326	5.06917	2.36364	29.09	6.1	0.00	7.51	0.01266	0.01287	0.01638	0.00778	0.00579	0.00635	0.00466	0.01261	0.01678	0.00675	0.00697	0.00881	0.01485	0.01091	0.01192	0.00216	0.00614	0.00864
54070	0.54457	0.94492	0.39742	1.76892	1.40054	1.05963	9.25965	5.66532	2.69083	0.43853	0.38045	0.30760	2.10457	1.66687	1.39652	8.51893	5.06644	2.36088
54240	0.53598	0.93306	0.40219	1.76989	1.40235	1.06130	9.26796	5.66691	2.68098	0.44061	0.38306	0.30784	2.11811	1.67424	1.40693	8.52202	5.06874	2.36264
54400	0.53892	0.94109	0.40439	1.76893	1.40037	1.06020	9.30141	5.67398	2.68163	0.43953	0.38187	0.30771	2.11320	1.67246	1.40619	8.51919	5.06493	2.35853
54560	0.54155	0.93714	0.40064	1.76791	1.39959	1.05903	9.28339	5.67215	2.67543	0.43775	0.38004	0.30556	2.12476	1.74447	1.40603	8.52520	5.07249	2.36592
54730	0.55634	0.92005	0.40870	1.77120	1.40052	1.05847	9.26453	5.67245	2.69110	0.43911	0.38013	0.30550	2.12126	1.69342	1.38679	8.52211	5.06924	2.36400
54890	0.55072	0.95553	0.40602	1.77198	1.40332	1.06267	9.27821	5.67668	2.68266	0.44136	0.38292	0.30885	2.11999	1.68586	1.40535	8.52733	5.06753	2.36366
55050	0.54168	0.94324	0.39781	1.76988	1.40017	1.05876	9.26034	5.67648	2.67529	0.43658	0.37838	0.30528	2.11198	1.67790	1.40484	8.52308	5.06495	2.36012
55210	0.53397	0.94409	0.40377	1.76666	1.40105	1.06172	9.27058	5.67825	2.68139	0.44166	0.38352	0.30906	2.11789	1.68959	1.40779	8.52282	5.06987	2.36504
55380	0.53430	0.93267	0.39908	1.76923	1.40000	1.05941	9.27518	5.68166	2.68978	0.43850	0.38230	0.30981	2.11458	1.67857	1.41473	8.52573	5.07032	2.36109
55540	0.51584	0.95186	0.39518	1.76440	1.39176	1.04812	9.28928	5.64676	2.62733	0.42627	0.36510	0.29112	2.08784	1.66086	1.40026	8.49270	5.04325	2.34064	29.09	5.9	0.00	7.83	0.01267	0.01287	0.01638	0.00778	0.00579	0.00635	0.00466	0.01261	0.01678	0.00676	0.00697	0.00881	0.01485	0.01091	0.01192	0.00216	0.00614	0.00864
55700	0.50941	0.97752	0.55914	1.75650	1.40653	1.07518	9.27396	5.79414	2.64144	0.45131	0.38779	0.30937	2.21961	1.78590	1.41565	8.52131	5.07039	2.36477
55870	0.57219	0.95325	0.43834	1.77412	1.40490	1.06107	9.28403	5.67717	2.70478	0.43837	0.37967	0.30477	2.18583	1.74899	1.42461	8.52193	5.06764	2.36128
56030	0.55562	0.99648	0.44867	1.76963	1.40383	1.06408	9.28724	5.69623	2.69712	0.44272	0.38286	0.30846	2.17779	1.71925	1.42470	8.52043	5.07057	2.36491
56190	0.56077	0.98062	0.43056	1.77013	1.40029	1.05911	9.28240	5.69468	2.70208	0.43934	0.38123	0.30762	2.15491	1.71726	1.44040	8.52538	5.06723	2.36149
56350	0.55717	0.97485	0.42231	1.76704	1.39787	1.05621	9.29797	5.69220	2.69596	0.43563	0.37827	0.30380	2.15302	1.71152	1.44364	8.52476	5.07113	2.36528
56520	0.56413	0.99232	0.42694	1.77346	1.40467	1.06189	9.28246	5.68347	2.70051	0.44067	0.38026	0.30678	2.15280	1.71026	1.43880	8.52158	5.06608	2.36095
56680	0.55693	0.97927	0.42150	1.76828	1.39983	1.05712	9.30211	5.69522	2.70232	0.43836	0.38052	0.30706	2.14247	1.70410	1.43173	8.52618	5.06966	2.36252
56840	0.57146	0.98335	0.41160	1.76853	1.40135	1.05911	9.29873	5.69827	2.70475	0.43855	0.38007	0.30733	2.14646	1.70483	1.43279	8.52343	5.07007	2.36288
57010	0.56298	0.97857	0.41948	1.76872	1.39889	1.05633	9.29634	5.69299	2.70623	0.43767	0.37993	0.30573	2.14612	1.70870	1.43696	8.52804	5.07189	2.36504
57170	0.56183	0.98381	0.42481	1.77124	1.40191	1.05990	9.29269	5.69786	2.69360	0.43932	0.38230	0.30765	2.14659	1.71186	1.44051	8.52013	5.06721	2.36290	29.09	6.2	0.00	7.43	0.01267	0.01287	0.01638	0.00778	0.00579	0.00635	0.00466	0.01261	0.01678	0.00675	0.00697	0.00881	0.01485	0.01091	0.01192	0.00216	0.00614	0.00864
57340	0.55273	0.96719	0.42137	1.76863	1.39976	1.05789	9.28074	5.69352	2.69877	0.43819	0.37914	0.30466	2.14224	1.71286	1.43814	8.52535	5.06966	2.36544
57500	0.55655	0.96884	0.41416	1.77279	1.40373	1.06117	9.30278	5.70069	2.70445	0.44124	0.38312	0.30944	2.13752	1.70404	1.43174	8.52960	5.06883	2.36225
57660	0.56494	0.97248	0.41253	1.77073	1.40340	1.06153	9.28732	5.69643	2.70395	0.44156	0.38293	0.30921	2.14160	1.70636	1.42924	8.52898	5.06755	2.36367
57830	0.56358	0.96999	0.40986	1.77038	1.40163	1.06062	9.29514	5.69385	2.69939	0.44038	0.38129	0.30777	2.13978	1.70282	1.43065	8.52402	5.06595	2.36113
57990	0.56200	0.97302	0.41550	1.77171	1.40447	1.06193	9.28452	5.69458	2.70897	0.44322	0.38412	0.31075	2.14401	1.70930	1.43613	8.53101	5.07141	2.36527
58150	0.56139	0.97532	0.41679	1.77049	1.40260	1.06008	9.28563	5.69612	2.70013	0.44133	0.38238	0.30849	2.13650	1.69919	1.43241	8.52482	5.06725	2.36106
58320	0.56112	0.97544	0.41696	1.77088	1.40348	1.06207	9.29059	5.70485	2.70838	0.44330	0.38360	0.31155	2.13893	1.70212	1.42853	8.52827	5.06972	2.36509
58480	0.55862	0.97147	0.41607	1.76926	1.40017	1.05943	9.29700	5.69342	2.69923	0.44151	0.38077	0.30881	2.13800	1.70148	1.42919	8.52172	5.06740	2.36120
58640	0.55090	0.96420	0.41248	1.76781	1.39930	1.05690	9.29409	5.68950	2.69460	0.43847	0.37823	0.30665	2.13315	1.70170	1.43169	8.52367	5.06901	2.36445
58810	0.55725	0.96757	0.41298	1.76917	1.40261	1.05958	9.31071	5.68999	2.69837	0.44199	0.38052	0.30766	2.13237	1.69619	1.42479	8.51558	5.06374	2.36006	29.03	6.3	0.00	7.45	0.01267	0.01287	0.01638	0.00777	0.00579	0.00635	0.00466	0.01261	0.01678	0.00675	0.00697	0.00881	0.01485	0.01091	0.01192	0.00216	0.00614	0.00864
58970	0.55426	0.96527	0.40921	1.76500	1.39766	1.05492	9.30247	5.69018	2.69291	0.43890	0.37914	0.30629	2.13087	1.69451	1.42640	8.52389	5.06778	2.36322
59130	0.55596	0.97131	0.41103	1.76933	1.40064	1.05844	9.28200	5.69312	2.69868	0.44209	0.38225	0.30866	2.13362	1.69970	1.43047	8.52062	5.06984	2.36470
59300	0.55760	0.97178	0.41310	1.77087	1.40275	1.06048	9.27443	5.69299	2.69712	0.44244	0.38255	0.30998	2.13581	1.69496	1.43035	8.52486	5.06767	2.36315
59460	0.55645	0.96754	0.41303	1.76912	1.40016	1.05823	9.29564	5.69132	2.69505	0.44114	0.38120	0.30827	2.14060	1.70138	1.43156	8.52787	5.07146	2.36782
59630	0.55760	0.96991	0.41509	1.77281	1.40429	1.06141	9.30580	5.69765	2.70108	0.44486	0.38373	0.31097	2.13818	1.70243	1.43153	8.52902	5.06984	2.36500
59790	0.55417	0.96795	0.41653	1.77041	1.40335	1.06219	9.28649	5.69407	2.69838	0.44432	0.38355	0.31152	2.13587	1.70345	1.43384	8.53053	5.06921	2.36378
59950	0.55574	0.97027	0.41366	1.76934	1.40079	1.05899	9.29319	5.69342	2.69676	0.44079	0.37931	0.30743	2.13323	1.70023	1.42869	8.51743	5.06374	2.35950
60120	0.55468	0.97122	0.41497	1.77006	1.40307	1.06174	9.30294	5.69792	2.70338	0.44459	0.38334	0.31155	2.13877	1.70460	1.43562	8.52778	5.06929	2.36403
60280	0.55677	0.96959	0.41368	1.76877	1.40112	1.05910	9.28241	5.69109	2.69506	0.44173	0.38009	0.30875	2.13658	1.70086	1.43421	8.52247	5.06565	2.36065
60440	0.55468	0.98048	0.41515	1.76921	1.40253	1.06001	9.29597	5.69217	2.70142	0.44151	0.38238	0.30902	2.13728	1.69965	1.42894	8.52369	5.06862	2.36330	29.09	6.1	0.00	7.41	0.01267	0.01287	0.01638	0.00777	0.00579	0.00635	0.00466	0.01261	0.01678	0.00675	0.00697	0.00881	0.01485	0.01091	0.01192	0.00216	0.00614	0.00864
60610	0.55207	0.96749	0.41348	1.76851	1.39977	1.05962	9.29807	5.68984	2.69740	0.44169	0.38025	0.30848	2.12870	1.69625	1.42968	8.51971	5.06660	2.36163
60770	0.55256	0.96707	0.41430	1.76879	1.40250	1.05961	9.29871	5.69532	2.69690	0.44132	0.38134	0.30948	2.13404	1.69504	1.42660	8.52573	5.06749	2.36290
60930	0.55231	0.96433	0.41213	1.76854	1.40188	1.05946	9.29311	5.69038	2.69656	0.44112	0.38094	0.30845	2.13227	1.69548	1.42728	8.52263	5.06718	2.36168
61100	0.55418	0.96946	0.41343	1.77007	1.40356	1.06148	9.28110	5.69434	2.69619	0.44194	0.38266	0.30980	2.13485	1.69741	1.42907	8.52219	5.06855	2.36480
61260	0.55528	0.96778	0.41422	1.77037	1.40254	1.06036	9.29177	5.68985	2.69483	0.44236	0.38237	0.30990	2.13415	1.69513	1.42730	8.52387	5.06682	2.36206
61420	0.55315	0.96775	0.41370	1.77122	1.40417	1.06246	9.28291	5.69143	2.69581	0.44396	0.38414	0.31164	2.13604	1.69898	1.42613	8.52316	5.06901	2.36553
61590	0.55443	0.97080	0.41386	1.76983	1.40273	1.05988	9.28652	5.68926	2.69366	0.44321	0.38257	0.31037	2.13634	1.69617	1.42585	8.52440	5.06729	2.36320
61750	0.55625	0.96943	0.41505	1.77378	1.40630	1.06434	9.30245	5.68810	2.69862	0.44521	0.38579	0.31204	2.13458	1.69915	1.43223	8.52989	5.07109	2.36714
61910	0.55570	0.96423	0.41424	1.77271	1.40394	1.06137	9.29801	5.68572	2.69725	0.44240	0.38331	0.31002	2.13366	1.70162	1.43014	8.52440	5.06833	2.36342
62080	0.55377	0.97179	0.41691	1.77360	1.40686	1.06438	9.28310	5.69482	2.69731	0.44532	0.38454	0.31209	2.14131	1.70110	1.43123	8.52142	5.07082	2.36629	29.03	6.1	0.00	7.43	0.01266	0.01287	0.01638	0.00777	0.00579	0.00635	0.00466	0.01261	0.01678	0.00675	0.00697	0.00881	0.01485	0.01091	0.01192	0.00216	0.00614	0.00864
62240	0.55254	0.96909	0.41361	1.77089	1.40417	1.06078	9.28963	5.68222	2.69395	0.44212	0.38213	0.30945	2.13571	1.70004	1.43057	8.52266	5.06677	2.36232
62400	0.55078	0.95999	0.41368	1.76834	1.40055	1.05884	9.28409	5.68524	2.69353	0.44011	0.38100	0.30828	2.13897	1.70661	1.42453	8.52443	5.07125	2.36687
62570	0.55420	0.96768	0.41402	1.77353	1.40504	1.06316	9.28555	5.69055	2.69518	0.44302	0.38300	0.31053	2.13953	1.70055	1.42477	8.52753	5.07138	2.36648
62730	0.55440	0.97440	0.41720	1.77317	1.40672	1.06410	9.28013	5.69476	2.69745	0.44446	0.38463	0.31095	2.13418	1.69883	1.43015	8.52673	5.06919	2.36520
62890	0.55797	0.97022	0.41175	1.77261	1.40395	1.06207	9.27698	5.68374	2.69564	0.44402	0.38522	0.31063	2.13010	1.69872	1.42678	8.52178	5.06805	2.36349
63060	0.55084	0.96774	0.41299	1.76895	1.40526	1.06521	9.27733	5.69021	2.69696	0.44742	0.38841	0.31491	2.13635	1.70629	1.42893	8.52992	5.07342	2.36980
63220	0.55748	0.96594	0.40767	1.77577	1.40688	1.06426	9.28969	5.69471	2.69640	0.44447	0.38503	0.31149	2.13220	1.69684	1.42189	8.52470	5.06939	2.36549
63380	0.55545	0.96834	0.41615	1.77321	1.40855	1.06704	9.27885	5.69236	2.69654	0.44825	0.38859	0.31448	2.13363	1.70000	1.42777	8.52576	5.07251	2.36785
63550	0.55495	0.97054	0.41508	1.77441	1.40635	1.06410	9.28508	5.68666	2.69556	0.44443	0.38480	0.31144	2.12865	1.69409	1.42638	8.52549	5.06943	2.36460
63710	0.55259	0.96983	0.41706	1.77125	1.40610	1.06545	9.29652	5.69001	2.69377	0.44643	0.38673	0.31342	2.13465	1.70108	1.42844	8.52149	5.07153	2.36755	29.09	6.2	0.00	7.58	0.01266	0.01287	0.01638	0.00777	0.00579	0.00635	0.00466	0.01261	0.01678	0.00675	0.00697	0.00881	0.01485	0.01091	0.01192	0.00216	0.00614	0.00864
63870	0.55252	0.96519	0.41190	1.77150	1.40335	1.06303	9.28794	5.68843	2.69365	0.44314	0.38432	0.31039	2.12868	1.69300	1.42396	8.52565	5.06752	2.36359
64030	0.54933	0.96454	0.40767	1.76913	1.40212	1.06102	9.30008	5.68609	2.69097	0.44208	0.38263	0.30951	2.13541	1.70263	1.43304	8.52804	5.07455	2.37079
64200	0.55671	0.97697	0.41716	1.77595	1.40684	1.06586	9.29483	5.68903	2.69621	0.44579	0.38608	0.31138	2.13281	1.69717	1.42101	8.52521	5.06936	2.36537
64360	0.55381	0.96862	0.41352	1.77194	1.40383	1.06161	9.28258	5.68853	2.69342	0.44285	0.38371	0.30972	2.13370	1.70014	1.43050	8.52786	5.07364	2.36915
64530	0.55326	0.96483	0.41521	1.77449	1.40570	1.06496	9.28853	5.69067	2.69880	0.44498	0.38530	0.31200	2.13707	1.69646	1.42997	8.52583	5.06967	2.36500
64690	0.55029	0.96853	0.41596	1.77186	1.40490	1.06344	9.28835	5.69097	2.69625	0.44417	0.38487	0.31126	2.13759	1.69847	1.42518	8.52131	5.07027	2.36546
64850	0.55216	0.96652	0.41215	1.77300	1.40464	1.06208	9.29279	5.69500	2.69922	0.44290	0.38332	0.31027	2.13889	1.69843	1.42560	8.52397	5.06789	2.36317
65020	0.55089	0.96735	0.41261	1.77546	1.40746	1.06559	9.29139	5.69613	2.70010	0.44555	0.38626	0.31253	2.13634	1.69797	1.42978	8.52379	5.07147	2.36562
65180	0.55634	0.96876	0.41548	1.77121	1.40481	1.06299	9.29127	5.68067	2.68726	0.44318	0.38427	0.31082	2.14026	1.68990	1.41745	8.52406	5.06778	2.36361
65340	0.55462	0.97463	0.41472	1.77307	1.40684	1.06502	9.28875	5.69851	2.70073	0.44492	0.38613	0.31302	2.13098	1.69866	1.42782	8.51822	5.06995	2.36645	29.09	6.1	0.00	7.45	0.01266	0.01287	0.01638	0.00777	0.00579	0.00635	0.00466	0.01261	0.01678	0.00675	0.00697	0.00881	0.01485	0.01091	0.01192	0.00216	0.00614	0.00864
65510	0.55074	0.96698	0.40931	1.77209	1.40379	1.06244	9.27278	5.69194	2.69685	0.44197	0.38378	0.31006	2.13032	1.69433	1.42401	8.52158	5.06742	2.36232
65670	0.55278	0.96754	0.41346	1.77303	1.40750	1.06465	9.29522	5.69134	2.69951	0.44497	0.38627	0.31277	2.13590	1.69894	1.42806	8.52441	5.07099	2.36702
65830	0.55502	0.96802	0.41290	1.77267	1.40532	1.06183	9.28659	5.68685	2.69474	0.44202	0.38401	0.30941	2.13459	1.69571	1.42265	8.51565	5.06770	2.36324
66000	0.55570	0.96860	0.41432	1.77403	1.40687	1.06430	9.28210	5.69094	2.69488	0.44539	0.38713	0.31277	2.13640	1.69739	1.43217	8.52406	5.07331	2.36734
66160	0.55979	0.96752	0.40900	1.77225	1.40327	1.06099	9.28554	5.68990	2.69464	0.44073	0.38301	0.31013	2.12956	1.68800	1.42257	8.51663	5.06798	2.36437
66320	0.55386	0.96809	0.41086	1.77006	1.40148	1.05886	9.28006	5.68704	2.68967	0.43796	0.37987	0.30648	2.13063	1.69848	1.42349	8.52184	5.07255	2.36972
66490	0.55543	0.97250	0.41734	1.77605	1.40779	1.06322	9.28968	5.68231	2.69125	0.44263	0.38419	0.30883	2.13500	1.69567	1.42638	8.51742	5.07015	2.36707
66650	0.55228	0.96518	0.41523	1.77527	1.40878	1.06438	9.29476	5.70157	2.70267	0.44298	0.38541	0.31066	2.13061	1.69135	1.41953	8.51795	5.06744	2.36300
66810	0.55152	0.96671	0.41115	1.77086	1.40359	1.06156	9.28921	5.68790	2.69698	0.44163	0.38432	0.30805	2.13828	1.68924	1.43538	8.51742	5.06412	2.35839
66980	0.55155	0.96797	0.41061	1.76655	1.40269	1.06255	9.28982	5.68877	2.69998	0.44533	0.38723	0.31396	2.13657	1.69936	1.43192	8.52766	5.07286	2.36706	29.09	6.1	0.00	7.45	0.01266	0.01287	0.01638	0.00777	0.00579	0.00635	0.00466	0.01261	0.01678	0.00675	0.00697	0.00881	0.01485	0.01091	0.01192	0.00216	0.00614	0.00864
67140	0.55746	0.97383	0.41241	1.77206	1.40342	1.05944	9.27054	5.68756	2.69646	0.44145	0.38251	0.30925	2.12525	1.68757	1.41850	8.52111	5.06888	2.36485
67300	0.55488	0.97360	0.41395	1.77067	1.40515	1.06305	9.29501	5.69300	2.69479	0.44431	0.38491	0.31053	2.13176	1.69278	1.42192	8.52288	5.07091	2.36636
67460	0.55243	0.96569	0.41184	1.77258	1.40477	1.06204	9.27741	5.68818	2.69501	0.44165	0.38357	0.30911	2.13154	1.69512	1.42485	8.51395	5.06450	2.36117
67630	0.55160	0.96550	0.40618	1.76899	1.40385	1.06328	9.28510	5.68797	2.69522	0.44388	0.38567	0.31151	2.13192	1.69196	1.42160	8.51881	5.06729	2.36308
67790	0.55559	0.96518	0.41092	1.76985	1.40271	1.06090	9.28067	5.68808	2.69524	0.44232	0.38379	0.30958	2.12847	1.69053	1.42298	8.51935	5.06539	2.36220
67960	0.55839	0.96982	0.41215	1.77216	1.40631	1.06286	9.26047	5.69141	2.69632	0.44429	0.38568	0.31139	2.13582	1.69590	1.42002	8.52156	5.06883	2.36349
68120	0.55479	0.96678	0.41183	1.77012	1.40246	1.06089	9.27805	5.69014	2.69408	0.44211	0.38320	0.30964	2.13058	1.69346	1.42457	8.52244	5.06692	2.36166
68280	0.55192	0.96875	0.41423	1.77216	1.40451	1.06244	9.28516	5.68741	2.69663	0.44348	0.38566	0.31181	2.13149	1.69430	1.42554	8.52607	5.06955	2.36534
68450	0.55562	0.96826	0.41027	1.77056	1.40335	1.06157	9.29175	5.68775	2.69256	0.44241	0.38336	0.30919	2.13009	1.69321	1.42189	8.51705	5.06647	2.36221
68610	0.55274	0.96614	0.41412	1.77152	1.40521	1.06302	9.28290	5.68899	2.69667	0.44318	0.38482	0.31118	2.13519	1.69025	1.42496	8.52412	5.06930	2.36367	29.09	6.1	0.00	7.50	0.01266	0.01287	0.01638	0.00777	0.00579	0.00635	0.00466	0.01261	0.01678	0.00675	0.00697	0.00881	0.01485	0.01091	0.01192	0.00216	0.00614	0.00864
68770	0.55279	0.96486	0.41025	1.77110	1.40416	1.06051	9.27765	5.68499	2.69344	0.44093	0.38405	0.30942	2.12736	1.69164	1.42138	8.51988	5.06579	2.36246
68940	0.55314	0.96596	0.41192	1.77157	1.40517	1.06250	9.25647	5.68885	2.69669	0.44244	0.38547	0.31102	2.13034	1.69760	1.42332	8.52191	5.06975	2.36494
69100	0.55313	0.96488	0.40822	1.77010	1.40204	1.05977	9.27987	5.68357	2.69379	0.43863	0.38129	0.30801	2.12380	1.69230	1.42220	8.51607	5.06520	2.35939
69260	0.55383	0.96652	0.41175	1.76969	1.40237	1.06085	9.28418	5.69037	2.69634	0.44169	0.38491	0.30921	2.13248	1.69471	1.42367	8.51784	5.06889	2.36223
69430	0.55504	0.96474	0.41006	1.77009	1.40173	1.05938	9.28832	5.68480	2.69267	0.44004	0.38320	0.30779	2.13115	1.69123	1.42386	8.51722	5.06459	2.36186
69590	0.55490	0.96813	0.41166	1.77067	1.40388	1.06118	9.28791	5.68728	2.69719	0.44137	0.38429	0.30964	2.13228	1.69695	1.42588	8.52483	5.06821	2.36254
69750	0.55147	0.96372	0.40984	1.76799	1.40110	1.05909	9.27812	5.68659	2.69108	0.43787	0.38207	0.30763	2.13021	1.69564	1.42318	8.51554	5.06531	2.36004
69920	0.55033	0.96572	0.41305	1.76984	1.40340	1.06141	9.29742	5.68399	2.69392	0.44171	0.38375	0.30941	2.13538	1.68841	1.42402	8.52386	5.06876	2.36263
70080	0.55493	0.95443	0.40755	1.76915	1.40173	1.05922	9.28902	5.68250	2.69012	0.43888	0.38212	0.30785	2.12612	1.69229	1.42621	8.51545	5.06542	2.35981
70240	0.55206	0.96472	0.40974	1.77103	1.40328	1.06156	9.29883	5.69316	2.69405	0.44219	0.38548	0.30989	2.13006	1.69887	1.42433	8.52109	5.06904	2.36334	29.09	6.1	0.00	7.51	0.01266	0.01287	0.01638	0.00777	0.00579	0.00635	0.00466	0.01261	0.01678	0.00675	0.00697	0.00881	0.01485	0.01091	0.01192	0.00216	0.00614	0.00864
70410	0.55310	0.96483	0.41059	1.76926	1.40162	1.05925	9.29241	5.68553	2.69073	0.43878	0.38228	0.30789	2.13107	1.69672	1.42708	8.51985	5.06930	2.36428
70570	0.55249	0.96436	0.40983	1.77106	1.40294	1.06115	9.29533	5.68987	2.69718	0.44175	0.38506	0.31021	2.13174	1.69887	1.42347	8.52490	5.06849	2.36352
70730	0.55591	0.96822	0.40762	1.76844	1.40096	1.05874	9.28477	5.68556	2.69366	0.43812	0.38128	0.30624	2.13065	1.69398	1.42426	8.51534	5.06719	2.36339
70900	0.55071	0.96343	0.40827	1.76925	1.40056	1.05837	9.27528	5.68906	2.69401	0.43823	0.38094	0.30670	2.13135	1.69417	1.42274	8.51667	5.06587	2.36082
71060	0.55102	0.96661	0.40682	1.76844	1.40139	1.05938	9.27073	5.68685	2.69234	0.43927	0.38258	0.30716	2.13406	1.69654	1.41812	8.52127	5.06401	2.35918
71220	0.54995	0.96778	0.41314	1.76648	1.40216	1.06113	9.28944	5.68376	2.69523	0.44253	0.38568	0.30945	2.13771	1.70204	1.42835	8.52118	5.07034	2.36393
71390	0.55179	0.96549	0.40975	1.76877	1.40142	1.05922	9.28349	5.68376	2.69117	0.43914	0.38349	0.30757	2.13465	1.69247	1.41805	8.51968	5.06409	2.35873
71550	0.54880	0.96403	0.41552	1.76637	1.40159	1.06017	9.29084	5.68066	2.69882	0.44107	0.38336	0.30955	2.13709	1.69657	1.42623	8.52614	5.07008	2.36468
71710	0.55322	0.96248	0.41280	1.76962	1.40040	1.05879	9.27924	5.69000	2.69566	0.43797	0.38054	0.30652	2.13263	1.69243	1.41759	8.52127	5.06598	2.36114
71880	0.55158	0.96992	0.41385	1.77088	1.40394	1.06168	9.30548	5.69281	2.69847	0.44149	0.38458	0.30949	2.13325	1.69625	1.42572	8.52543	5.06973	2.36382	29.09	6.1	0.00	7.45	0.01266	0.01287	0.01638	0.00777	0.00579	0.00635	0.00466	0.01261	0.01678	0.00675	0.00697	0.00881	0.01484	0.01091	0.01192	0.00216	0.00614	0.00864
72040	0.55079	0.96355	0.41031	1.76952	1.40186	1.05956	9.28349	5.68606	2.69536	0.43955	0.38098	0.30663	2.12847	1.68510	1.41562	8.51835	5.06505	2.36041
72200	0.56130	0.96422	0.40344	1.76902	1.40277	1.06027	9.30052	5.69247	2.68764	0.44049	0.38238	0.30793	2.13528	1.69700	1.41719	8.52472	5.06903	2.36347
72370	0.55554	0.96450	0.41075	1.76875	1.40145	1.05821	9.28180	5.68725	2.69032	0.43807	0.38002	0.30586	2.12483	1.69491	1.41878	8.51358	5.06494	2.35971
72530	0.54769	0.96383	0.40924	1.76609	1.39806	1.05564	9.26841	5.68261	2.69068	0.43748	0.37950	0.30401	2.13169	1.69733	1.42734	8.52534	5.07096	2.36624
72690	0.55300	0.96647	0.41476	1.77258	1.40428	1.06081	9.27143	5.68787	2.69440	0.44148	0.38338	0.30779	2.13263	1.69772	1.42499	8.52224	5.06860	2.36249
72860	0.55277	0.96732	0.41284	1.77046	1.40352	1.06085	9.29679	5.69281	2.69810	0.44266	0.38389	0.30908	2.13186	1.69948	1.42680	8.52375	5.07005	2.36372
73020	0.55199	0.96629	0.41161	1.76831	1.40075	1.05886	9.29754	5.68165	2.69309	0.43980	0.38121	0.30633	2.13131	1.69521	1.42186	8.51773	5.06520	2.35989
73180	0.54931	0.96346	0.41140	1.76547	1.39811	1.05620	9.29696	5.68148	2.68804	0.43737	0.37887	0.30393	2.13705	1.70141	1.42734	8.52684	5.07101	2.36563
73350	0.55170	0.96368	0.41385	1.77234	1.40320	1.06129	9.27772	5.68405	2.69450	0.44071	0.38314	0.30832	2.13226	1.69640	1.42282	8.51994	5.06832	2.36261
73510	0.55293	0.96588	0.41271	1.76989	1.40397	1.06166	9.28232	5.69020	2.69445	0.44149	0.38276	0.30721	2.13513	1.69762	1.42376	8.52033	5.06860	2.36302	29.09	6.1	0.00	7.53	0.01266	0.01287	0.01638	0.00777	0.00579	0.00635	0.00466	0.01261	0.01678	0.00675	0.00697	0.00881	0.01485	0.01091	0.01192	0.00216	0.00614	0.00864
73670	0.55125	0.96263	0.40941	1.76837	1.40279	1.05966	9.27726	5.68043	2.68978	0.44013	0.38165	0.30608	2.13194	1.69617	1.42274	8.51909	5.06650	2.36092
73840	0.55083	0.96349	0.40955	1.76999	1.40464	1.06177	9.29212	5.68341	2.69366	0.44128	0.38307	0.30790	2.13275	1.69268	1.42220	8.52139	5.06873	2.36308
74000	0.55023	0.96446	0.40972	1.76810	1.40194	1.05965	9.29206	5.68406	2.69272	0.43913	0.38074	0.30583	2.12572	1.68731	1.42266	8.52298	5.06502	2.36065
74160	0.54942	0.95947	0.40740	1.76636	1.40077	1.05789	9.27766	5.68176	2.68582	0.43739	0.38048	0.30365	2.13007	1.69746	1.42761	8.52811	5.06997	2.36552
74330	0.55080	0.96434	0.41024	1.77050	1.40459	1.06212	9.27469	5.68296	2.69395	0.44030	0.38284	0.30707	2.13465	1.70150	1.42593	8.52794	5.07205	2.36531
74490	0.55108	0.96131	0.41255	1.77141	1.40502	1.06282	9.27562	5.68530	2.69684	0.44120	0.38313	0.30774	2.13790	1.70378	1.41891	8.52971	5.06914	2.36377
74650	0.54981	0.96350	0.41036	1.76869	1.40242	1.06005	9.27068	5.67620	2.69034	0.43837	0.38046	0.30452	2.13519	1.70009	1.42389	8.51909	5.06973	2.36415
74820	0.55197	0.96668	0.41178	1.77072	1.40399	1.06251	9.27300	5.68482	2.69277	0.44026	0.38272	0.30644	2.13401	1.69450	1.42565	8.52705	5.06819	2.36180
74980	0.55111	0.96832	0.41187	1.76911	1.40142	1.06007	9.27091	5.68100	2.69029	0.43880	0.38112	0.30507	2.13455	1.69726	1.42767	8.52378	5.07103	2.36480
75140	0.55270	0.96808	0.41411	1.77153	1.40415	1.06125	9.29707	5.68405	2.69430	0.44011	0.38264	0.30808	2.13476	1.69754	1.41998	8.52780	5.07158	2.36412	29.03	6.2	0.00	7.43	0.01266	0.01287	0.01638	0.00777	0.00579	0.00635	0.00466	0.01261	0.01678	0.00675	0.00697	0.00881	0.01485	0.01091	0.01192	0.00216	0.00614	0.00864
75310	0.54868	0.96083	0.40921	1.76822	1.40127	1.05927	9.28488	5.68266	2.68904	0.43784	0.38018	0.30504	2.13617	1.70366	1.42686	8.52789	5.07286	2.36633
75470	0.54839	0.95979	0.41045	1.77167	1.40486	1.06291	9.28127	5.68510	2.69329	0.44128	0.38407	0.30836	2.13254	1.69473	1.42754	8.52426	5.06889	2.36269
75630	0.54591	0.95749	0.40892	1.76791	1.40109	1.05899	9.27795	5.67917	2.68819	0.43772	0.38006	0.30531	2.13205	1.69810	1.42874	8.52851	5.07264	2.36563
75800	0.54862	0.96421	0.41021	1.77052	1.40352	1.06008	9.28168	5.68452	2.69301	0.44015	0.38256	0.30745	2.13181	1.69954	1.42441	8.52833	5.06976	2.36313
75960	0.55126	0.96455	0.41090	1.76758	1.40130	1.05857	9.28774	5.67850	2.69138	0.43904	0.38010	0.30590	2.13081	1.70002	1.43120	8.53143	5.07314	2.36715
76120	0.55631	0.97012	0.41565	1.77281	1.40523	1.06260	9.28371	5.68792	2.69558	0.44096	0.38378	0.30811	2.13056	1.69314	1.42600	8.52471	5.06802	2.36105
76290	0.55044	0.95986	0.40485	1.76465	1.39603	1.05372	9.29462	5.66682	2.66414	0.43060	0.37196	0.29612	2.09175	1.67371	1.42999	8.50641	5.05232	2.34888
76450	0.53583	1.00342	0.51186	1.76447	1.41329	1.07239	9.30635	5.65772	2.67418	0.44862	0.38412	0.30875	2.22642	1.66210	1.42929	8.52842	5.07151	2.36572
76610	0.52309	0.98687	0.48833	1.77829	1.41080	1.06825	9.26084	5.69406	2.70906	0.44298	0.38355	0.30937	2.16563	1.67825	1.38837	8.51816	5.06155	2.35005
76770	0.55268	0.99335	0.42086	1.76418	1.39291	1.04800	9.26834	5.64126	2.65383	0.42196	0.35943	0.28503	2.08755	1.63051	1.34805	8.47067	5.01408	2.30763	29.09	6.5	0.00	7.36	0.01267	0.01288	0.01638	0.00779	0.00580	0.00636	0.00466	0.01262	0.01679	0.00676	0.00698	0.00882	0.01486	0.01092	0.01193	0.00216	0.00615	0.00865
76930	0.50648	0.85402	0.35616	1.70578	1.33527	0.99317	9.22020	5.59751	2.61155	0.37869	0.31990	0.24638	2.02322	1.57163	1.33764	8.42624	4.97677	2.27954
77110	0.52638	0.91938	0.40821	1.69241	1.33115	0.99399	9.28079	5.65966	2.72399	0.39202	0.34327	0.27156	2.24332	1.70198	1.47210	8.50269	5.06058	2.36264
77260	0.60154	0.99946	0.45474	1.77669	1.41211	1.07153	9.31865	5.73754	2.75680	0.44994	0.38683	0.31320	2.12910	1.70365	1.44064	8.52183	5.05675	2.34463
77420	0.54194	0.92593	0.37812	1.73573	1.36189	1.01590	9.26898	5.61359	2.61452	0.39141	0.32836	0.25818	2.04536	1.58332	1.36737	8.43350	4.98308	2.28384
77590	0.53113	0.86561	0.38440	1.69127	1.32765	0.98616	9.25353	5.66471	2.70285	0.38001	0.32666	0.25379	2.21455	1.73171	1.45548	8.45224	5.00896	2.31254
77750	0.59731	1.06783	0.52887	1.73541	1.37949	1.04848	9.33321	5.76249	2.83504	0.44581	0.39434	0.33836	2.33313	1.83903	1.74824	8.59057	5.13276	2.41311
77900	0.65976	1.11302	0.52037	1.80142	1.42676	1.07818	9.38796	5.94558	2.77575	0.44636	0.38048	0.31017	2.17432	1.77561	1.47254	8.49934	5.03773	2.32806
78060	0.54279	0.93235	0.38036	1.72086	1.35021	1.00589	9.24355	5.64756	2.66868	0.38817	0.32739	0.25743	2.05478	1.59243	1.34122	8.43463	4.98162	2.28172
78220	0.52566	0.89506	0.39294	1.68743	1.32165	0.98248	9.24865	5.61964	2.65188	0.37441	0.31888	0.24731	2.11500	1.68097	1.44321	8.43227	4.98599	2.29250
78390	0.56505	0.99186	0.43127	1.71807	1.35637	1.01698	9.30543	5.73651	2.75489	0.40992	0.35632	0.28349	2.14816	1.71274	1.46757	8.49021	5.04475	2.34448	29.03	6.0	0.00	7.40	0.01267	0.01288	0.01639	0.00779	0.00580	0.00636	0.00466	0.01262	0.01679	0.00677	0.00698	0.00882	0.01486	0.01092	0.01193	0.00216	0.00615	0.00865
78550	0.59030	1.02819	0.44467	1.76190	1.39821	1.05946	9.33149	5.73539	2.73540	0.44510	0.38816	0.31590	2.15765	1.73625	1.50291	8.53925	5.08868	2.38349
78710	0.56243	0.97721	0.40907	1.78451	1.41328	1.07041	9.33734	5.68055	2.70577	0.44910	0.38978	0.31553	2.12493	1.72044	1.47271	8.53501	5.08081	2.37551
78860	0.55510	0.98987	0.41732	1.78300	1.41491	1.07325	9.31185	5.69596	2.70179	0.44807	0.38686	0.31436	2.13924	1.70288	1.42959	8.52644	5.06625	2.35789
79020	0.53806	0.94347	0.40621	1.75673	1.38562	1.04107	9.27048	5.62810	2.63111	0.41474	0.35186	0.27777	2.07329	1.61823	1.33462	8.45972	5.00430	2.30060
79190	0.49316	0.85559	0.36681	1.70675	1.33972	0.99839	9.23959	5.63103	2.63989	0.38965	0.33515	0.26308	2.11757	1.67903	1.42584	8.46095	5.01845	2.32239
79360	0.55529	0.97435	0.41989	1.74545	1.38220	1.04157	9.29499	5.69538	2.70627	0.42888	0.37250	0.29820	2.15724	1.71370	1.45079	8.51029	5.06305	2.36065
79520	0.57569	1.00808	0.43922	1.77770	1.41233	1.07355	9.42188	5.74029	2.69954	0.46757	0.40564	0.32631	2.09877	1.79486	1.55385	8.54704	5.08877	2.38161
79680	0.55210	1.01749	0.41167	1.78608	1.41662	1.07562	9.35046	5.71634	2.68540	0.45400	0.39302	0.31813	2.15630	1.73860	1.48769	8.54173	5.08543	2.37982
79840	0.55768	0.98202	0.42591	1.78412	1.41418	1.07173	9.30502	5.71516	2.70658	0.45153	0.39198	0.31663	2.15064	1.71693	1.45304	8.53492	5.08196	2.37575
80010	0.56257	0.98029	0.42377	1.77679	1.40843	1.06672	9.31909	5.71206	2.70880	0.44729	0.38805	0.31206	2.14802	1.72105	1.44922	8.52904	5.08143	2.37544	29.03	6.1	0.00	7.45	0.01267	0.01288	0.01638	0.00779	0.00580	0.00636	0.00466	0.01262	0.01678	0.00676	0.00698	0.00882	0.01485	0.01092	0.01193	0.00216	0.00615	0.00865
80170	0.56386	0.98358	0.42675	1.78244	1.41329	1.07182	9.31336	5.70703	2.71194	0.45141	0.39169	0.31594	2.15145	1.71901	1.44842	8.53099	5.08024	2.37366
80330	0.56395	0.98133	0.42407	1.77922	1.41041	1.07015	9.30373	5.70449	2.70836	0.44905	0.39099	0.31506	2.14785	1.71406	1.44098	8.53364	5.07878	2.37255
80490	0.56399	0.98417	0.42557	1.77958	1.40958	1.06885	9.29877	5.70201	2.70861	0.44762	0.38924	0.31275	2.15151	1.71469	1.44685	8.54054	5.08563	2.37875
80660	0.57318	0.98819	0.42669	1.78584	1.41677	1.07405	9.30647	5.71241	2.71975	0.45283	0.39444	0.31786	2.15266	1.71541	1.44818	8.53788	5.08264	2.37780
80820	0.56961	0.98636	0.42358	1.78159	1.41303	1.07049	9.29201	5.70579	2.71139	0.45020	0.39149	0.31503	2.15187	1.71276	1.44856	8.53718	5.08440	2.37902
80980	0.57059	0.98950	0.42634	1.78509	1.41690	1.07538	9.32102	5.70985	2.71999	0.45340	0.39519	0.31871	2.15099	1.71097	1.44137	8.54080	5.08351	2.37721
81150	0.56982	0.98314	0.41839	1.78047	1.41164	1.06937	9.28344	5.70260	2.70417	0.44785	0.38697	0.31158	2.11991	1.68410	1.43859	8.52383	5.06960	2.36471
81310	0.56348	0.97149	0.42626	1.77500	1.41167	1.07761	9.31371	5.69476	2.69606	0.45878	0.39712	0.31911	2.19688	1.73177	1.39801	8.54142	5.08613	2.37931
81470	0.55953	0.97595	0.44095	1.78412	1.41472	1.07289	9.29574	5.69472	2.70373	0.45068	0.39136	0.31503	2.16140	1.71018	1.41777	8.53656	5.08182	2.37447
81640	0.55998	0.98083	0.42810	1.78098	1.41327	1.07240	9.31154	5.69872	2.70960	0.45121	0.39362	0.31639	2.14840	1.70756	1.43365	8.53839	5.08181	2.37496	29.09	6.2	0.00	7.41	0.01267	0.01288	0.01638	0.00778	0.00580	0.00636	0.00466	0.01262	0.01678	0.00676	0.00698	0.00882	0.01485	0.01092	0.01193	0.00216	0.00615	0.00865
81800	0.56110	0.97484	0.41807	1.77947	1.41109	1.07035	9.29835	5.69691	2.70456	0.44802	0.38993	0.31355	2.13891	1.70522	1.43653	8.53281	5.07832	2.37201
81960	0.55943	0.97546	0.41652	1.77646	1.40814	1.06711	9.29019	5.69064	2.70242	0.44628	0.38805	0.31124	2.14340	1.70898	1.44117	8.53573	5.08216	2.37612
82120	0.56285	0.97812	0.41996	1.78039	1.41226	1.07078	9.29520	5.69679	2.70232	0.44897	0.39089	0.31300	2.14581	1.70658	1.43463	8.53202	5.07888	2.37367
82290	0.56030	0.97792	0.41760	1.77756	1.40901	1.06937	9.30880	5.69177	2.70173	0.44850	0.39052	0.31350	2.14643	1.70444	1.43481	8.53715	5.08164	2.37573
82450	0.56203	0.97988	0.42037	1.78163	1.41258	1.07293	9.28151	5.70336	2.70616	0.45106	0.39237	0.31527	2.14014	1.70166	1.43718	8.53626	5.07943	2.37479
82620	0.55490	0.97397	0.41698	1.77811	1.40904	1.06902	9.29392	5.69167	2.69826	0.44837	0.39118	0.31290	2.14644	1.70812	1.44078	8.53989	5.08632	2.37962
82780	0.56374	0.97985	0.42098	1.78426	1.41477	1.07395	9.27819	5.69908	2.70684	0.45219	0.39375	0.31674	2.14466	1.71459	1.44696	8.53910	5.08459	2.37812
82940	0.56687	0.98447	0.42427	1.78598	1.41794	1.07669	9.30810	5.69963	2.70687	0.45400	0.39405	0.31600	2.13765	1.70358	1.42826	8.53387	5.07193	2.36434
83100	0.54938	0.95824	0.41198	1.76418	1.39297	1.05142	9.27947	5.66239	2.66645	0.42760	0.36713	0.29116	2.09313	1.66327	1.39400	8.48692	5.03045	2.32753
83270	0.52780	0.92456	0.38394	1.73300	1.36433	1.02349	9.23616	5.61861	2.62539	0.40383	0.34480	0.27056	2.06008	1.61910	1.37361	8.45642	5.01065	2.31047	29.09	6.1	0.00	7.39	0.01267	0.01288	0.01638	0.00779	0.00580	0.00636	0.00466	0.01262	0.01679	0.00676	0.00698	0.00882	0.01485	0.01092	0.01193	0.00216	0.00615	0.00865
83430	0.52175	0.91329	0.38297	1.72632	1.36259	1.02423	9.26315	5.64410	2.66152	0.41259	0.35814	0.28363	2.10229	1.66317	1.40693	8.49061	5.04408	2.34248
83600	0.54235	0.94655	0.39773	1.75418	1.38804	1.05048	9.28170	5.67089	2.68544	0.43264	0.37660	0.30011	2.11434	1.67249	1.40887	8.51493	5.06414	2.35830
83760	0.55092	0.95059	0.40209	1.76603	1.39788	1.05768	9.27536	5.67437	2.68716	0.43906	0.38227	0.30603	2.12184	1.67784	1.41387	8.52376	5.07091	2.36606
83930	0.55477	0.95902	0.40523	1.77366	1.40693	1.06775	9.27396	5.68623	2.69894	0.45012	0.39359	0.31791	2.18882	1.68801	1.42969	8.55410	5.09447	2.38407
84090	0.54803	1.02281	0.41800	1.78740	1.41894	1.07803	9.29522	5.68456	2.69503	0.45656	0.39822	0.32270	2.13948	1.67989	1.43392	8.54852	5.08946	2.38061
84250	0.55408	0.98433	0.41169	1.78576	1.41679	1.07486	9.27524	5.67999	2.69445	0.45012	0.39135	0.31548	2.12265	1.67876	1.41172	8.53003	5.07162	2.36467
84410	0.54535	0.95088	0.39706	1.76776	1.39670	1.05566	9.26995	5.66050	2.67414	0.43236	0.37309	0.29731	2.09671	1.65166	1.38621	8.50135	5.04911	2.34307
84580	0.53609	0.93720	0.39097	1.75119	1.38560	1.04732	9.27036	5.65921	2.67355	0.42890	0.37177	0.29755	2.10737	1.66543	1.40228	8.50444	5.05385	2.34982
84740	0.54239	0.94162	0.39805	1.75810	1.39137	1.05195	9.25908	5.67054	2.68049	0.43387	0.37700	0.30136	2.11068	1.67336	1.41425	8.50717	5.05918	2.35505
84900	0.54341	0.94360	0.39955	1.76043	1.39673	1.05703	9.27589	5.67888	2.68748	0.43762	0.38132	0.30609	2.11972	1.68067	1.41836	8.52116	5.06859	2.36285	29.03	6.2	0.00	7.39	0.01267	0.01288	0.01638	0.00778	0.00580	0.00636	0.00466	0.01262	0.01678	0.00676	0.00698	0.00882	0.01485	0.01091	0.01193	0.00216	0.00615	0.00865
85070	0.54917	0.95755	0.40655	1.76950	1.40346	1.06248	9.28136	5.67911	2.69040	0.44315	0.38670	0.31000	2.13189	1.69192	1.42705	8.53079	5.07899	2.37445
85230	0.55840	1.00531	0.42007	1.78548	1.41999	1.07753	9.28381	5.65925	2.72103	0.45320	0.39369	0.31738	2.10524	1.68470	1.42253	8.53645	5.08170	2.37471
85390	0.55950	0.98010	0.39757	1.78003	1.41188	1.07083	9.28783	5.67642	2.69817	0.44939	0.39050	0.31524	2.11545	1.68836	1.42337	8.54282	5.08396	2.37597
85560	0.55724	0.96221	0.40569	1.78158	1.41415	1.07350	9.27432	5.68235	2.69450	0.45185	0.39380	0.31633	2.12621	1.69130	1.42220	8.53839	5.08105	2.37516
85720	0.55188	0.96107	0.40934	1.78209	1.41498	1.07377	9.29704	5.68393	2.69235	0.45196	0.39518	0.31661	2.12413	1.68787	1.41735	8.53291	5.07971	2.37472
85880	0.55204	0.96289	0.41263	1.78542	1.41884	1.07764	9.29109	5.68556	2.69444	0.45570	0.39634	0.32057	2.13049	1.69548	1.42664	8.54229	5.08550	2.37918
86050	0.55355	0.96272	0.41124	1.78421	1.41567	1.07378	9.28678	5.68499	2.68940	0.45277	0.39432	0.31711	2.12948	1.69365	1.42465	8.53450	5.08265	2.37582
86210	0.55374	0.96552	0.41272	1.78490	1.41729	1.07753	9.29337	5.68211	2.69440	0.45504	0.39617	0.31905	2.13049	1.69483	1.42343	8.54379	5.08532	2.37860
86370	0.55097	0.96395	0.40996	1.78440	1.41556	1.07381	9.27688	5.68107	2.68789	0.45202	0.39395	0.31656	2.12581	1.68714	1.42013	8.53547	5.08096	2.37370
86540	0.54665	0.95577	0.40503	1.77661	1.40952	1.06921	9.27378	5.67255	2.68718	0.44667	0.38939	0.31323	2.12781	1.69151	1.42371	8.54175	5.08544	2.37900	29.09	6.1	0.00	7.40	0.01267	0.01287	0.01638	0.00778	0.00580	0.00635	0.00466	0.01262	0.01678	0.00676	0.00698	0.00882	0.01485	0.01091	0.01193	0.00216	0.00614	0.00864
86700	0.55191	0.95955	0.41105	1.78363	1.41512	1.07367	9.27937	5.68230	2.69109	0.45104	0.39415	0.31696	2.12862	1.69280	1.42314	8.53556	5.08071	2.37379
86860	0.55013	0.95960	0.40739	1.77870	1.41120	1.07022	9.27285	5.67956	2.68732	0.44785	0.39161	0.31399	2.12866	1.69225	1.42651	8.54104	5.08529	2.37834
87030	0.55503	0.96479	0.41214	1.78412	1.41529	1.07426	9.26860	5.67708	2.69047	0.45253	0.39415	0.31801	2.13114	1.69453	1.42822	8.54370	5.08268	2.37500
87190	0.55082	0.95833	0.40930	1.78125	1.41429	1.07362	9.28729	5.68468	2.69142	0.45150	0.39487	0.31769	2.12708	1.69727	1.42678	8.54237	5.08221	2.37511
87350	0.55264	0.96026	0.40853	1.78081	1.41218	1.07054	9.27553	5.67760	2.68788	0.44882	0.39198	0.31631	2.13018	1.69495	1.42646	8.53609	5.07980	2.37243
87520	0.55167	0.95772	0.40626	1.77724	1.41001	1.06906	9.27465	5.68048	2.68642	0.44671	0.39003	0.31375	2.12932	1.69421	1.42518	8.53998	5.08431	2.37798
87680	0.55652	0.96455	0.41005	1.78428	1.41569	1.07438	9.27413	5.68760	2.69382	0.45134	0.39410	0.31697	2.12951	1.68817	1.41925	8.54175	5.08088	2.37336
87840	0.55077	0.96814	0.41263	1.78089	1.41435	1.07354	9.28799	5.68136	2.69046	0.45184	0.39557	0.31762	2.13634	1.68716	1.41904	8.54370	5.08266	2.37423
88010	0.55000	0.96527	0.41009	1.77960	1.41180	1.07172	9.26837	5.68459	2.68631	0.44976	0.39317	0.31623	2.13182	1.69092	1.42138	8.53963	5.08405	2.37658
88170	0.55255	0.96311	0.41169	1.78300	1.41386	1.07423	9.29877	5.68544	2.69114	0.45154	0.39527	0.31771	2.13048	1.70115	1.42830	8.53797	5.08074	2.37441	29.09	6.2	0.00	7.38	0.01267	0.01287	0.01638	0.00778	0.00579	0.00635	0.00466	0.01262	0.01678	0.00676	0.00698	0.00881	0.01485	0.01091	0.01193	0.00216	0.00614	0.00864
88330	0.54756	0.95194	0.40741	1.77956	1.41044	1.06982	9.28670	5.67595	2.68537	0.44793	0.39062	0.31456	2.12563	1.69822	1.42804	8.53824	5.08163	2.37555
88500	0.55432	0.95733	0.40901	1.78220	1.41232	1.07229	9.28338	5.68161	2.69092	0.44837	0.39126	0.31524	2.12337	1.69130	1.41974	8.53603	5.07987	2.37366
88660	0.54719	0.95979	0.40811	1.77808	1.40886	1.06791	9.27586	5.67994	2.68613	0.44654	0.38947	0.31426	2.11629	1.68454	1.41708	8.53258	5.07581	2.37009
88820	0.54881	0.96332	0.40992	1.77914	1.41210	1.07080	9.28652	5.67603	2.68811	0.44822	0.39080	0.31444	2.12529	1.69036	1.41883	8.53603	5.08126	2.37418
88980	0.54727	0.96074	0.41150	1.77967	1.41177	1.07103	9.27883	5.68246	2.68384	0.44756	0.39007	0.31350	2.12137	1.69021	1.41759	8.53134	5.07679	2.37166
89150	0.54522	0.95546	0.40813	1.77988	1.41281	1.07331	9.28885	5.68900	2.69093	0.44998	0.39219	0.31442	2.11819	1.68361	1.41790	8.53098	5.07735	2.37135
89310	0.54522	0.95535	0.40692	1.78170	1.41354	1.07217	9.28553	5.68332	2.69196	0.44927	0.39246	0.31430	2.12730	1.68560	1.41394	8.53576	5.07640	2.36923
89480	0.54724	0.95907	0.40908	1.78008	1.41287	1.07349	9.27487	5.68069	2.69027	0.45086	0.39419	0.31664	2.12742	1.68915	1.42645	8.53682	5.07798	2.37270
89640	0.55078	0.95628	0.40462	1.77955	1.41081	1.07016	9.27610	5.68036	2.69187	0.44894	0.39167	0.31547	2.12480	1.68634	1.42024	8.53620	5.07796	2.37183
89800	0.55087	0.96585	0.41420	1.77886	1.41008	1.07118	9.28970	5.67101	2.68402	0.44832	0.39055	0.31238	2.12529	1.69342	1.42336	8.53489	5.07904	2.37425	29.09	6.1	0.00	7.43	0.01267	0.01287	0.01638	0.00778	0.00579	0.00635	0.00466	0.01262	0.01678	0.00676	0.00697	0.00881	0.01485	0.01091	0.01192	0.00216	0.00614	0.00864
89970	0.54866	0.95784	0.40860	1.77968	1.41026	1.06984	9.27711	5.68882	2.68893	0.44684	0.38998	0.31252	2.11511	1.68118	1.41362	8.52524	5.07193	2.36839
90130	0.55160	0.96024	0.41162	1.78148	1.41348	1.07353	9.27804	5.68289	2.69569	0.45130	0.39208	0.31519	2.13034	1.69176	1.42185	8.53577	5.07797	2.37215
90290	0.54542	0.95612	0.40797	1.77782	1.40960	1.06860	9.29185	5.67979	2.68975	0.44855	0.39202	0.31376	2.12380	1.69000	1.42104	8.53374	5.07490	2.36979
90460	0.55102	0.96580	0.41139	1.78160	1.41442	1.07384	9.28241	5.68374	2.69143	0.45028	0.39213	0.31528	2.12689	1.69262	1.42174	8.53940	5.08392	2.37601
90620	0.55478	0.96490	0.41161	1.78163	1.41158	1.07209	9.28941	5.68367	2.69114	0.44748	0.38962	0.31256	2.11954	1.68586	1.41554	8.53852	5.07565	2.37047
90780	0.54928	0.95974	0.41042	1.78105	1.41348	1.07376	9.27938	5.68919	2.69456	0.45007	0.39138	0.31454	2.13225	1.69081	1.41692	8.53471	5.07761	2.37215
90940	0.54658	0.95531	0.40808	1.77705	1.40934	1.06997	9.29821	5.68123	2.68694	0.44861	0.38997	0.31359	2.12529	1.69030	1.41509	8.53135	5.07370	2.36883
91110	0.54654	0.95068	0.40270	1.77349	1.40574	1.06492	9.28964	5.68773	2.68677	0.44469	0.38858	0.31230	2.12790	1.68909	1.42223	8.53701	5.07986	2.37395
91270	0.55064	0.96444	0.41151	1.77856	1.40998	1.06863	9.27781	5.67614	2.68378	0.44709	0.38855	0.31020	2.12293	1.69193	1.42419	8.53303	5.07633	2.37275
91440	0.54597	0.95854	0.40597	1.77824	1.41032	1.06862	9.27753	5.67859	2.68668	0.44545	0.38752	0.30885	2.12075	1.68329	1.41832	8.53206	5.07535	2.37023	29.09	6.1	0.00	7.43	0.01266	0.01287	0.01638	0.00778	0.00579	0.00635	0.00466	0.01262	0.01678	0.00676	0.00697	0.00881	0.01485	0.01091	0.01192	0.00216	0.00614	0.00864
91600	0.54688	0.95685	0.40592	1.77834	1.41026	1.06956	9.27305	5.67925	2.68929	0.44867	0.39053	0.31336	2.11977	1.68708	1.41848	8.53418	5.07699	2.37122
91760	0.54904	0.95411	0.40306	1.77647	1.40737	1.06589	9.29601	5.67814	2.68386	0.44423	0.38897	0.31082	2.12911	1.69095	1.42022	8.53631	5.08142	2.37520
91930	0.54751	0.95741	0.41035	1.77974	1.41153	1.06997	9.27625	5.68118	2.68693	0.44678	0.38872	0.31309	2.12705	1.68947	1.42182	8.53949	5.08012	2.37470
92090	0.54911	0.95845	0.40903	1.78292	1.41459	1.07311	9.27695	5.68608	2.69381	0.44976	0.39240	0.31408	2.12842	1.68935	1.42224	8.53825	5.07836	2.37207
92250	0.54489	0.95483	0.40660	1.77839	1.41003	1.06828	9.29193	5.67461	2.68349	0.44683	0.38989	0.31176	2.12721	1.69725	1.42762	8.53949	5.08218	2.37644
92420	0.54969	0.95885	0.40675	1.78128	1.41290	1.07147	9.27183	5.67720	2.69140	0.45013	0.39178	0.31485	2.12266	1.69835	1.41875	8.53861	5.07853	2.37251
92580	0.55188	0.95007	0.40486	1.77861	1.41049	1.06860	9.26886	5.67764	2.68510	0.44648	0.38903	0.31141	2.12331	1.68908	1.41705	8.53551	5.07975	2.37329
92740	0.54391	0.95132	0.40772	1.77974	1.41157	1.07044	9.27119	5.67300	2.68329	0.44847	0.38984	0.31402	2.12333	1.69103	1.41612	8.53392	5.07509	2.36977
92910	0.54522	0.95904	0.40645	1.77640	1.40962	1.06823	9.28790	5.67621	2.68610	0.44626	0.39005	0.31158	2.13300	1.67882	1.40684	8.53232	5.07593	2.37036
93070	0.54430	0.95417	0.41219	1.77615	1.40970	1.06998	9.28105	5.67723	2.68786	0.44854	0.39156	0.31417	2.12685	1.68540	1.41209	8.53529	5.07899	2.37231	29.09	6.1	0.00	7.57	0.01266	0.01287	0.01638	0.00778	0.00579	0.00635	0.00466	0.01261	0.01678	0.00676	0.00697	0.00881	0.01485	0.01091	0.01192	0.00216	0.00614	0.00864
93230	0.54794	0.95527	0.40695	1.77738	1.41039	1.06769	9.28728	5.67551	2.68037	0.44793	0.38864	0.31234	2.12391	1.69169	1.42205	8.52715	5.07491	2.36982
93400	0.54555	0.95483	0.40675	1.78030	1.41277	1.07105	9.28186	5.67427	2.68514	0.44909	0.39081	0.31401	2.12405	1.69445	1.41794	8.53671	5.07940	2.37339
93560	0.54063	0.95992	0.40472	1.77869	1.41173	1.06868	9.28245	5.67970	2.67968	0.44849	0.38920	0.31288	2.11777	1.68626	1.41506	8.53449	5.07624	2.37048
93720	0.54304	0.95147	0.40589	1.77807	1.41127	1.06950	9.28163	5.67738	2.68147	0.44868	0.39038	0.31389	2.11769	1.68628	1.41380	8.53680	5.07799	2.37318
93890	0.54149	0.94779	0.40361	1.77807	1.41081	1.06702	9.28478	5.67646	2.67822	0.44670	0.38776	0.31181	2.11799	1.68107	1.41021	8.53281	5.07736	2.37136
94050	0.54032	0.94952	0.40555	1.78095	1.41346	1.07081	9.28274	5.67424	2.67987	0.45015	0.39205	0.31422	2.11806	1.68231	1.41491	8.53202	5.07760	2.37281
94210	0.54417	0.95346	0.40720	1.77893	1.41169	1.06970	9.27389	5.67162	2.68265	0.44807	0.38987	0.31368	2.11905	1.68413	1.41312	8.53051	5.07522	2.36969
94380	0.54795	0.95778	0.40777	1.78055	1.41364	1.07197	9.27162	5.67476	2.68383	0.45056	0.39187	0.31486	2.12639	1.68586	1.41101	8.53936	5.08003	2.37438
94540	0.54920	0.95541	0.40709	1.77975	1.41309	1.06979	9.26760	5.67109	2.68148	0.44891	0.39006	0.31306	2.11969	1.68362	1.41054	8.53476	5.07504	2.37152
94700	0.54735	0.95664	0.40687	1.78101	1.41559	1.07413	9.28429	5.67732	2.68854	0.45126	0.39172	0.31619	2.12093	1.68736	1.42004	8.53695	5.08032	2.37446	29.09	6.1	0.00	7.41	0.01266	0.01287	0.01638	0.00777	0.00579	0.00635	0.00466	0.01261	0.01678	0.00676	0.00697	0.00881	0.01485	0.01091	0.01192	0.00216	0.00614	0.00864
94870	0.54517	0.95475	0.40827	1.77888	1.41348	1.07025	9.28400	5.66735	2.68318	0.44895	0.38903	0.31348	2.10790	1.68119	1.41247	8.53084	5.07308	2.36901
95030	0.54741	0.95149	0.40503	1.77996	1.41552	1.07400	9.28289	5.67575	2.68808	0.45248	0.39147	0.31611	2.11755	1.68388	1.41046	8.53854	5.07748	2.37157
95190	0.54245	0.95570	0.40545	1.77777	1.41173	1.07029	9.29397	5.67272	2.68112	0.44877	0.38984	0.31470	2.12753	1.68432	1.40923	8.53217	5.07444	2.36890
95360	0.53987	0.94974	0.39717	1.77436	1.40751	1.06642	9.26723	5.67345	2.68172	0.44768	0.38913	0.31378	2.12479	1.69511	1.41559	8.53943	5.08067	2.37481
95520	0.54804	0.94545	0.39555	1.77876	1.41171	1.06927	9.27381	5.67834	2.68313	0.44963	0.39083	0.31565	2.11527	1.68427	1.40802	8.53925	5.07653	2.37210
95680	0.54606	0.94723	0.39467	1.77659	1.40933	1.06681	9.25618	5.66726	2.67366	0.44621	0.38788	0.31273	2.11766	1.68310	1.41574	8.54244	5.08412	2.37853
95850	0.55153	0.95364	0.39781	1.78211	1.41481	1.07033	9.28627	5.66828	2.67994	0.45035	0.39001	0.31466	2.11640	1.68442	1.41405	8.53562	5.08110	2.37631
96010	0.54758	0.95196	0.40753	1.78295	1.41542	1.07198	9.27258	5.67860	2.68099	0.44910	0.38989	0.31513	2.11460	1.67705	1.40841	8.53810	5.08082	2.37500
96170	0.54547	0.95738	0.41081	1.78088	1.41319	1.06972	9.27776	5.66532	2.67721	0.44726	0.38794	0.31235	2.11868	1.68976	1.41406	8.53518	5.08000	2.37531
96340	0.54429	0.95110	0.40806	1.78235	1.41369	1.07194	9.28757	5.67244	2.67778	0.44863	0.39023	0.31330	2.11871	1.68789	1.41213	8.53138	5.07549	2.37245	29.03	6.2	0.00	7.42	0.01266	0.01287	0.01638	0.00777	0.00579	0.00635	0.00466	0.01261	0.01678	0.00675	0.00697	0.00881	0.01485	0.01091	0.01192	0.00216	0.00614	0.00864
96500	0.54776	0.95199	0.40463	1.78026	1.41347	1.07040	9.25777	5.66504	2.67874	0.44678	0.38783	0.31258	2.12002	1.68434	1.41591	8.53209	5.07256	2.36818
96660	0.54596	0.94949	0.40531	1.77623	1.41426	1.07461	9.27638	5.67409	2.68105	0.45371	0.39400	0.31763	2.12779	1.69590	1.41822	8.53732	5.08033	2.37454
96830	0.54509	0.95213	0.40718	1.78047	1.41236	1.07087	9.28285	5.67587	2.68326	0.44969	0.39053	0.31494	2.11875	1.68754	1.41542	8.53687	5.07907	2.37308
96990	0.54571	0.95250	0.40468	1.77912	1.41321	1.07093	9.26009	5.67354	2.68348	0.44881	0.39003	0.31442	2.11739	1.68257	1.41381	8.53466	5.07497	2.37115
97150	0.54279	0.94824	0.40334	1.77840	1.41201	1.06997	9.28349	5.67321	2.68385	0.44782	0.39024	0.31546	2.12385	1.68234	1.40795	8.53041	5.07505	2.36900
97320	0.54230	0.95218	0.40526	1.78092	1.41574	1.07504	9.27772	5.67239	2.68466	0.45285	0.39516	0.31898	2.12629	1.68977	1.42564	8.54325	5.08121	2.37664
97480	0.54956	0.94642	0.39685	1.77997	1.41221	1.06962	9.26544	5.67547	2.68245	0.44945	0.39142	0.31663	2.11659	1.68166	1.40970	8.53236	5.07800	2.37179
97640	0.54855	0.95762	0.40873	1.78105	1.41571	1.07283	9.27761	5.67200	2.68492	0.45068	0.39354	0.31744	2.12482	1.68588	1.40958	8.53652	5.07957	2.37641
97800	0.54612	0.95231	0.40462	1.78061	1.41278	1.07033	9.27860	5.67115	2.68409	0.44867	0.39006	0.31497	2.11665	1.68124	1.40763	8.53112	5.07536	2.37061
97970	0.54040	0.94948	0.40127	1.77598	1.40802	1.06733	9.27219	5.66606	2.67684	0.44683	0.38911	0.31278	2.12319	1.68696	1.41501	8.53647	5.07995	2.37568	29.09	6.1	0.00	7.55	0.01266	0.01287	0.01638	0.00777	0.00579	0.00635	0.00466	0.01261	0.01678	0.00675	0.00697	0.00881	0.01485	0.01091	0.01192	0.00216	0.00614	0.00864
98130	0.54853	0.95294	0.40314	1.78292	1.41304	1.07254	9.26922	5.67574	2.68502	0.45075	0.39151	0.31620	2.11524	1.67785	1.41145	8.52974	5.07617	2.37189
98300	0.54568	0.95307	0.39988	1.77929	1.40894	1.06974	9.24824	5.66190	2.67606	0.44796	0.38924	0.31396	2.11911	1.68405	1.41289	8.54152	5.08051	2.37560
98460	0.54745	0.95096	0.40395	1.78226	1.41310	1.07332	9.26910	5.67135	2.67635	0.45191	0.39331	0.31667	2.11937	1.68014	1.41243	8.52797	5.07687	2.37296
98620	0.54178	0.94633	0.40084	1.77860	1.40933	1.06866	9.25759	5.66536	2.67802	0.44769	0.38939	0.31422	2.11854	1.68629	1.41607	8.53665	5.08116	2.37637
98790	0.54711	0.95172	0.40381	1.78282	1.41304	1.07298	9.26294	5.67502	2.68361	0.45189	0.39308	0.31624	2.12422	1.68551	1.41402	8.53133	5.07723	2.37259
98950	0.54440	0.95070	0.40313	1.78113	1.41367	1.07348	9.26957	5.67144	2.68192	0.45165	0.39309	0.31619	2.11760	1.68228	1.40924	8.53364	5.07569	2.37247
99110	0.54257	0.94344	0.39885	1.77895	1.41084	1.07115	9.26910	5.66537	2.67601	0.45037	0.39080	0.31556	2.11418	1.68009	1.40960	8.52664	5.07389	2.36979
99280	0.53626	0.93990	0.39824	1.77600	1.40808	1.06770	9.26329	5.66647	2.67497	0.44759	0.38953	0.31402	2.12288	1.68990	1.41321	8.53496	5.08075	2.37643
99440	0.54383	0.94939	0.40290	1.78091	1.41275	1.07182	9.26317	5.67347	2.68149	0.45065	0.39283	0.31729	2.11787	1.68372	1.41227	8.52956	5.07756	2.37287
99600	0.54470	0.95220	0.40467	1.78186	1.41378	1.07317	9.28590	5.67794	2.68739	0.45134	0.39276	0.31824	2.11804	1.67841	1.40972	8.53221	5.07902	2.37436	29.09	6.1	0.00	7.40	0.01266	0.01287	0.01638	0.00777	0.00579	0.00635	0.00466	0.01261	0.01678	0.00675	0.00697	0.00881	0.01485	0.01091	0.01192	0.00216	0.00614	0.00864
99770	0.54654	0.95302	0.40059	1.77979	1.41136	1.07067	9.25994	5.67338	2.68557	0.44878	0.39130	0.31551	2.12276	1.67868	1.41450	8.53026	5.07928	2.37555
99930	0.54509	0.95249	0.40555	1.78311	1.41404	1.07346	9.27425	5.67250	2.68209	0.45208	0.39376	0.31798	2.11738	1.68298	1.41453	8.52955	5.07661	2.37347
100090	0.54700	0.95406	0.40190	1.78077	1.41242	1.07095	9.26441	5.67060	2.68318	0.44912	0.38977	0.31483	2.11551	1.67626	1.40772	8.53115	5.07309	2.36863
100260	0.54064	0.95199	0.40345	1.77730	1.41353	1.07398	9.27489	5.67674	2.68991	0.45373	0.39489	0.32012	2.12281	1.68658	1.41771	8.53274	5.08073	2.37514
100420	0.54572	0.94911	0.40067	1.78090	1.41213	1.07114	9.26453	5.67006	2.68149	0.45070	0.39169	0.31749	2.11475	1.68261	1.41282	8.53425	5.07552	2.37032
100580	0.53991	0.94844	0.40144	1.77767	1.41154	1.07026	9.27600	5.66561	2.68230	0.45023	0.39127	0.31676	2.11774	1.67885	1.41041	8.52743	5.07698	2.37224
100740	0.54122	0.94403	0.40181	1.77940	1.41067	1.06955	9.25936	5.66897	2.67814	0.44893	0.39015	0.31565	2.10868	1.67298	1.41006	8.53123	5.07535	2.37067
100910	0.53741	0.93916	0.40842	1.77752	1.40963	1.06846	9.26348	5.66037	2.68365	0.44900	0.39038	0.31521	2.11722	1.67611	1.41595	8.53504	5.08099	2.37602
101070	0.54129	0.94768	0.40499	1.78249	1.41387	1.07360	9.28007	5.67714	2.68805	0.45264	0.39261	0.31870	2.11932	1.68362	1.41216	8.53575	5.07882	2.37380
101230	0.54410	0.94316	0.39876	1.77826	1.41078	1.06990	9.26846	5.66692	2.68591	0.44957	0.39086	0.31623	2.11305	1.68295	1.41723	8.53613	5.08036	2.37652	29.03	6.1	0.00	7.45	0.01266	0.01287	0.01638	0.00777	0.00579	0.00635	0.00466	0.01261	0.01678	0.00675	0.00697	0.00881	0.01485	0.01091	0.01192	0.00216	0.00614	0.00864
101400	0.54198	0.94192	0.40525	1.78053	1.41186	1.07182	9.27515	5.67650	2.68265	0.45017	0.39057	0.31612	2.11780	1.68822	1.41369	8.53188	5.07656	2.37154
101560	0.54030	0.94689	0.40029	1.77724	1.40893	1.07015	9.27230	5.66920	2.67423	0.44902	0.38962	0.31490	2.12099	1.68177	1.40929	8.53090	5.07786	2.37210
101720	0.54245	0.95159	0.40317	1.77782	1.41097	1.07107	9.27073	5.66900	2.68078	0.45176	0.39355	0.31793	2.11905	1.68441	1.41542	8.53214	5.07708	2.37266
101890	0.54323	0.95313	0.40254	1.77645	1.40996	1.06818	9.26305	5.66672	2.68000	0.44849	0.39042	0.31581	2.12094	1.68702	1.41743	8.53746	5.08088	2.37498
102050	0.54632	0.95604	0.40427	1.77932	1.41118	1.07193	9.26293	5.66650	2.67986	0.45042	0.39135	0.31718	2.11889	1.68439	1.41575	8.53489	5.07862	2.37301
102220	0.54676	0.95030	0.40051	1.78034	1.41227	1.07144	9.27911	5.67483	2.68392	0.45115	0.39169	0.31803	2.11812	1.68215	1.41289	8.53081	5.07869	2.37283
102380	0.54580	0.95504	0.40734	1.77953	1.41240	1.07034	9.28027	5.66871	2.67712	0.45007	0.38937	0.31609	2.11847	1.68143	1.40837	8.53117	5.07760	2.37302
102540	0.54451	0.95284	0.40704	1.78264	1.41503	1.07506	9.27777	5.67457	2.68058	0.45272	0.39254	0.31662	2.11547	1.68246	1.41366	8.53666	5.07925	2.37548
102710	0.54273	0.95126	0.40020	1.78115	1.41409	1.07287	9.26258	5.67926	2.68351	0.45122	0.39175	0.31656	2.11747	1.68111	1.40931	8.53338	5.07580	2.37101
102870	0.54015	0.94701	0.40198	1.77810	1.41188	1.07229	9.26184	5.66602	2.68063	0.45270	0.39142	0.31724	2.12227	1.68506	1.41585	8.52973	5.07519	2.37099	29.09	6.2	0.00	7.41	0.01266	0.01287	0.01638	0.00777	0.00579	0.00635	0.00466	0.01261	0.01678	0.00675	0.00697	0.00881	0.01485	0.01091	0.01192	0.00216	0.00614	0.00864
103040	0.54282	0.94926	0.39954	1.77646	1.40783	1.06854	9.25690	5.66725	2.68016	0.45041	0.39183	0.31771	2.12223	1.68574	1.41914	8.53513	5.07875	2.37343
103200	0.54978	0.95210	0.40205	1.77848	1.40988	1.06970	9.27104	5.67172	2.68345	0.45054	0.39100	0.31789	2.11991	1.68141	1.41114	8.53743	5.07942	2.37354
103360	0.54478	0.95024	0.40326	1.77745	1.40896	1.06823	9.27039	5.67030	2.68042	0.44819	0.38920	0.31377	2.11678	1.68241	1.41539	8.53123	5.07756	2.37448
103530	0.54891	0.94790	0.40379	1.78154	1.41352	1.07272	9.27150	5.68204	2.68862	0.45181	0.39217	0.31743	2.12263	1.68539	1.41567	8.53814	5.08183	2.37704
103690	0.54620	0.95547	0.40864	1.78508	1.41738	1.07749	9.27779	5.67647	2.68469	0.45576	0.39517	0.32110	2.12159	1.68960	1.41860	8.53841	5.07942	2.37514
103850	0.55027	0.95570	0.40687	1.78130	1.41353	1.07342	9.27010	5.67945	2.68837	0.45211	0.39382	0.32000	2.11933	1.68358	1.41466	8.53318	5.07979	2.37456
104020	0.54475	0.95383	0.40580	1.77845	1.40924	1.06967	9.26568	5.67216	2.68425	0.44967	0.39044	0.31599	2.11920	1.67967	1.40443	8.53017	5.07534	2.37097
104180	0.54102	0.95150	0.40826	1.77769	1.40857	1.06876	9.27482	5.66528	2.67207	0.44787	0.38889	0.31522	2.12121	1.68957	1.42452	8.53814	5.07868	2.37471
104340	0.54465	0.95040	0.40218	1.77986	1.41258	1.07204	9.27511	5.66988	2.68161	0.45218	0.39263	0.31827	2.11521	1.68260	1.41011	8.53433	5.07575	2.37269
104510	0.54290	0.94738	0.40098	1.77824	1.41023	1.07107	9.27434	5.66394	2.67465	0.44973	0.38988	0.31633	2.11729	1.68336	1.40892	8.53419	5.07852	2.37491	29.09	6.1	0.00	7.47	0.01266	0.01287	0.01637	0.00777	0.00579	0.00635	0.00466	0.01261	0.01678	0.00675	0.00697	0.00881	0.01485	0.01091	0.01192	0.00216	0.00614	0.00863
104670	0.54441	0.95067	0.40188	1.78089	1.41197	1.07227	9.26247	5.66945	2.67875	0.45066	0.39167	0.31666	2.11731	1.68218	1.41122	8.52737	5.07436	2.37176
104830	0.54143	0.95248	0.40702	1.77776	1.40966	1.06974	9.28220	5.67361	2.65928	0.44902	0.38921	0.31468	2.13048	1.67663	1.38169	8.53074	5.07891	2.37472
105000	0.56479	0.97372	0.40351	1.78116	1.41243	1.07197	9.26794	5.68419	2.67474	0.45130	0.39406	0.31780	2.11610	1.66935	1.39981	8.53277	5.07468	2.37126
105160	0.54757	0.95865	0.40146	1.77598	1.40787	1.06772	9.25224	5.66990	2.68183	0.44849	0.38951	0.31595	2.11728	1.67746	1.41129	8.53481	5.07833	2.37620
105330	0.54711	0.95291	0.40373	1.78126	1.41200	1.07176	9.24632	5.66850	2.68325	0.45120	0.39164	0.31796	2.11650	1.67977	1.41007	8.53109	5.07598	2.37153
105490	0.54361	0.95396	0.40531	1.78019	1.41345	1.07359	9.26963	5.67518	2.68485	0.45291	0.39418	0.31918	2.11977	1.68305	1.41419	8.53623	5.07674	2.37305
105650	0.54643	0.95292	0.40255	1.77885	1.41029	1.07041	9.25590	5.67187	2.68614	0.45077	0.39109	0.31654	2.11438	1.67663	1.40237	8.52498	5.07360	2.37053
