WetView ver 7.1	07-17-2018	11:44:13
AC9 Absorption and Attenuation Meter
00000266		; Serial number
2	; structure version number
Reserved
0.000000	0.000000		; Depth calibration
19200			; Baud rate
0.100000			; Path length (meters)
31			; number of temperature calibration bins
				12.59339	13.44920	14.48425	15.49668	16.50852	17.49564	18.50545	19.52458	20.50176	21.48889	22.47318	23.48707	24.50962	25.49370	26.49784	27.51372	28.50746	29.47237	30.47938	31.50214	32.50470	33.49235	34.50337	35.50914	36.50618	37.52058	38.51018	39.51308	40.49994	41.49866	42.47204	; temperature bins
a650	Blue	20.34952		-0.00383	-0.00415	-0.00430	-0.00391	-0.00363	-0.00317	-0.00269	-0.00237	-0.00179	-0.00130	-0.00099	-0.00071	-0.00015	0.00000	0.00004	-0.00001	0.00015	0.00036	0.00058	0.00101	0.00161	0.00132	0.00160	0.00169	0.00242	0.00273	0.00336	0.00365	0.00427	0.00566	0.00670		; offset and temperature correction info
a676	Green	20.51193		-0.00398	-0.00384	-0.00360	-0.00306	-0.00302	-0.00255	-0.00235	-0.00212	-0.00163	-0.00136	-0.00118	-0.00089	-0.00029	0.00000	0.00068	0.00082	0.00099	0.00137	0.00145	0.00212	0.00260	0.00252	0.00321	0.00354	0.00457	0.00535	0.00617	0.00648	0.00742	0.00887	0.01002		; offset and temperature correction info
a715	Brown	20.23230		-0.00421	-0.00394	-0.00391	-0.00291	-0.00264	-0.00192	-0.00204	-0.00179	-0.00188	-0.00239	-0.00180	-0.00187	-0.00099	0.00000	0.00084	0.00162	0.00188	0.00224	0.00321	0.00381	0.00466	0.00528	0.00588	0.00696	0.00859	0.01041	0.01148	0.01282	0.01333	0.01456	0.01617		; offset and temperature correction info
c510	Red	20.40042		-0.00261	-0.00247	-0.00258	-0.00225	-0.00203	-0.00197	-0.00199	-0.00203	-0.00154	-0.00103	-0.00069	-0.00019	-0.00007	0.00000	0.00011	-0.00021	-0.00042	-0.00056	-0.00040	0.00011	0.00036	0.00050	0.00077	0.00079	0.00050	0.00042	0.00043	0.00092	0.00147	0.00200	0.00232		; offset and temperature correction info
c532	Magenta	20.40760		-0.00248	-0.00265	-0.00278	-0.00279	-0.00296	-0.00292	-0.00238	-0.00206	-0.00129	-0.00096	-0.00092	-0.00052	-0.00009	0.00000	0.00007	-0.00049	-0.00136	-0.00107	-0.00079	-0.00065	-0.00074	-0.00105	-0.00152	-0.00192	-0.00236	-0.00269	-0.00252	-0.00233	-0.00172	-0.00128	-0.00067		; offset and temperature correction info
c555	Black	20.50654		-0.00053	-0.00063	-0.00106	-0.00094	-0.00068	-0.00055	-0.00053	-0.00039	-0.00028	-0.00025	-0.00011	-0.00035	-0.00007	0.00000	-0.00037	-0.00055	-0.00036	-0.00014	0.00019	0.00044	0.00032	0.00040	0.00050	0.00028	0.00014	0.00013	0.00030	0.00073	0.00117	0.00176	0.00241		; offset and temperature correction info
a412	LtBlue	17.15231		-0.01972	-0.01823	-0.01612	-0.01381	-0.01272	-0.01080	-0.00959	-0.00866	-0.00710	-0.00532	-0.00354	-0.00148	-0.00028	0.00000	0.00176	0.00297	0.00394	0.00440	0.00453	0.00487	0.00804	0.00856	0.01065	0.01248	0.01388	0.01439	0.01659	0.01881	0.02256	0.02450	0.02719		; offset and temperature correction info
a440	LtGreen	18.00171		-0.00729	-0.00642	-0.00581	-0.00502	-0.00426	-0.00349	-0.00244	-0.00218	-0.00179	-0.00101	-0.00046	-0.00006	0.00036	0.00000	0.00040	0.00045	0.00030	-0.00015	-0.00024	-0.00035	0.00012	-0.00013	-0.00033	-0.00089	-0.00142	-0.00189	-0.00231	-0.00205	-0.00140	-0.00140	-0.00146		; offset and temperature correction info
a488	Yellow	18.86491		-0.00113	-0.00102	-0.00106	-0.00064	-0.00027	-0.00020	-0.00030	-0.00037	-0.00047	-0.00059	-0.00052	-0.00012	0.00008	0.00000	0.00025	0.00012	-0.00013	-0.00043	-0.00065	-0.00076	-0.00025	0.00010	0.00090	0.00111	0.00113	0.00104	0.00073	0.00068	0.00120	0.00186	0.00258		; offset and temperature correction info
c650	Blue	20.46075		-0.00145	-0.00097	-0.00092	-0.00139	-0.00185	-0.00196	-0.00237	-0.00266	-0.00238	-0.00163	-0.00083	-0.00041	-0.00010	0.00000	0.00005	-0.00001	0.00015	0.00034	0.00029	0.00065	0.00101	0.00164	0.00126	0.00156	0.00175	0.00270	0.00287	0.00371	0.00407	0.00473	0.00534		; offset and temperature correction info
c676	Green	20.10118		-0.00170	-0.00144	-0.00149	-0.00177	-0.00188	-0.00194	-0.00198	-0.00196	-0.00177	-0.00156	-0.00140	-0.00091	-0.00033	0.00000	0.00050	0.00092	0.00110	0.00141	0.00167	0.00199	0.00216	0.00265	0.00269	0.00289	0.00315	0.00374	0.00367	0.00408	0.00486	0.00561	0.00646		; offset and temperature correction info
c715	Brown	19.91219		-0.01201	-0.01097	-0.00859	-0.00680	-0.00651	-0.00592	-0.00535	-0.00440	-0.00387	-0.00303	-0.00222	-0.00153	-0.00028	0.00000	0.00093	0.00149	0.00247	0.00322	0.00330	0.00427	0.00373	0.00464	0.00536	0.00551	0.00643	0.00733	0.00779	0.00884	0.00899	0.01021	0.01120		; offset and temperature correction info
a510	Red	19.21192		0.00201	0.00193	0.00158	0.00098	0.00089	0.00049	0.00011	-0.00016	-0.00016	-0.00005	0.00028	0.00025	0.00006	0.00000	0.00035	-0.00022	-0.00023	-0.00080	-0.00144	-0.00154	-0.00153	-0.00204	-0.00220	-0.00219	-0.00190	-0.00128	-0.00069	-0.00018	0.00068	0.00152	0.00241		; offset and temperature correction info
a532	Magenta	19.41084		-0.00097	-0.00072	-0.00060	-0.00081	-0.00062	-0.00071	-0.00040	0.00020	0.00028	0.00043	0.00000	-0.00035	0.00007	0.00000	-0.00011	-0.00059	-0.00080	-0.00098	-0.00137	-0.00162	-0.00163	-0.00130	-0.00073	-0.00018	0.00090	0.00185	0.00175	0.00247	0.00291	0.00327	0.00349		; offset and temperature correction info
a555	Black	19.69776		0.00171	0.00183	0.00183	0.00186	0.00191	0.00170	0.00115	0.00131	0.00097	0.00073	0.00060	0.00013	0.00015	0.00000	0.00014	-0.00029	-0.00066	-0.00082	-0.00116	-0.00139	-0.00134	-0.00167	-0.00119	-0.00093	-0.00048	0.00053	0.00111	0.00095	0.00178	0.00206	0.00273		; offset and temperature correction info
c412	LtBlue	19.91180		-0.02051	-0.01853	-0.01589	-0.01311	-0.01059	-0.00877	-0.00705	-0.00581	-0.00413	-0.00231	-0.00098	-0.00066	-0.00011	0.00000	-0.00013	-0.00085	-0.00170	-0.00170	-0.00302	-0.00330	-0.00429	-0.00551	-0.00626	-0.00775	-0.00978	-0.01181	-0.01113	-0.01108	-0.01116	-0.01192	-0.01291		; offset and temperature correction info
c440	LtGreen	20.06241		-0.01064	-0.00992	-0.00892	-0.00766	-0.00639	-0.00531	-0.00478	-0.00384	-0.00287	-0.00187	-0.00102	-0.00063	-0.00023	0.00000	-0.00007	-0.00053	-0.00090	-0.00119	-0.00169	-0.00197	-0.00226	-0.00257	-0.00260	-0.00289	-0.00394	-0.00470	-0.00481	-0.00493	-0.00520	-0.00580	-0.00620		; offset and temperature correction info
c488	Yellow	20.35984		-0.01125	-0.01082	-0.00966	-0.00833	-0.00726	-0.00661	-0.00579	-0.00500	-0.00389	-0.00278	-0.00167	-0.00113	-0.00041	0.00000	0.00055	0.00121	0.00187	0.00226	0.00222	0.00251	0.00281	0.00359	0.00414	0.00427	0.00401	0.00404	0.00486	0.00563	0.00638	0.00684	0.00718		; offset and temperature correction info
0.003500	0.004000	0.015000	0.020000	0.015000	0.020000	2500.000000	2000.000000	1000.000000	; maxANoise	maxCNoise	maxADifference	maxCDifference	minACounts	minCCounts	minRCounts	maxTempSdev	maxDepthSdev
0			; auxilliary capabilities
1			; acquisition binsize
0	0.37308	0.34428	0.23595	2.15162	1.71177	1.58505	5.40251	3.30566	1.66628	0.89951	0.81965	0.74391	1.30337	1.02542	0.81904	5.36252	3.60212	2.15909	25.69	6.0	0.00	7.40	0.01274	0.01291	0.01665	0.00781	0.00582	0.00638	0.00468	0.01267	0.01687	0.00679	0.00698	0.00895	0.01491	0.01097	0.01198	0.00217	0.00618	0.00869
170	0.39049	0.38136	0.24871	1.83761	1.63899	1.38992	5.47154	3.35366	1.71229	0.93249	0.86162	0.80951	1.32884	1.07263	0.88176	5.49064	3.74984	2.26526
330	0.40536	0.41867	0.25710	1.84324	1.64768	1.41687	5.44849	3.34112	1.69888	0.98193	0.90217	0.80407	1.32919	1.05491	0.82084	5.42705	3.63093	2.22569
490	0.38223	0.39220	0.26672	1.84328	1.62235	1.41569	5.44028	3.31580	1.69348	0.95313	0.89976	0.87895	1.32592	1.06559	0.83979	5.44984	3.63228	2.33359
660	0.40099	0.38905	0.26091	1.88501	1.73061	1.41138	5.45058	3.31776	1.72388	0.92885	0.93562	0.84634	1.31415	1.06522	0.86245	5.49304	3.61954	2.25665
820	0.41628	0.38114	0.27027	1.86813	1.68864	1.36868	5.46110	3.31305	1.71480	0.93048	0.88797	0.81213	1.32689	1.04339	0.82931	5.49862	3.73401	2.21281
980	0.39850	0.37573	0.24725	1.85658	1.62548	1.33206	5.41336	3.34091	1.67245	0.91707	0.84782	0.76704	1.29960	1.03242	0.80854	5.40239	3.54978	2.18769
1150	0.36580	0.35969	0.24410	1.79340	1.54103	1.30773	5.41880	3.29899	1.66740	0.85337	0.81660	0.75737	1.28828	1.02443	0.80454	5.38118	3.52856	2.15952
1310	0.36796	0.35320	0.23896	1.96743	1.61636	1.30836	5.40164	3.27795	1.66342	0.85701	0.84361	0.81709	1.31693	1.01422	0.79849	5.36611	3.56739	2.14563
1480	0.36767	0.35614	0.22690	1.87659	1.56325	1.33580	5.40184	3.28392	1.66157	0.86300	0.83037	0.76047	1.30043	1.02952	0.80766	5.39338	3.62606	2.13191
1640	0.34944	0.33376	0.21716	1.87810	1.54955	1.31138	5.37171	3.29025	1.66776	0.83274	0.83355	0.78791	1.93977	1.52914	1.08982	5.36490	3.51574	2.19273	25.69	6.1	0.00	7.46	0.01274	0.01291	0.01665	0.00781	0.00582	0.00638	0.00468	0.01267	0.01687	0.00679	0.00698	0.00895	0.01491	0.01097	0.01198	0.00217	0.00618	0.00869
1810	0.63150	0.55159	0.42413	1.78647	1.60035	1.32444	5.47195	3.36532	1.72051	0.88274	0.81546	0.74014	1.32538	1.03359	0.81715	5.36323	3.57332	2.22364
1970	0.36690	0.33965	0.22147	1.81112	1.64563	1.32981	5.39906	3.27608	1.64983	0.90255	0.79958	0.73443	1.27985	1.01405	0.80067	5.35746	3.55869	2.12323
2130	0.36102	0.34066	0.21587	1.79895	1.56531	1.29078	5.39643	3.28925	1.67115	0.85305	0.91667	0.98615	1.29562	1.03268	0.81365	5.44343	3.71170	2.28626
2300	0.39258	0.40726	0.31289	2.05231	1.77440	1.49821	5.49085	3.44516	1.83811	1.07500	1.05481	1.05453	1.46844	1.17950	0.98992	5.71800	3.92951	2.44629
2460	0.51026	0.50706	0.38189	2.21824	1.98036	1.72128	5.64479	3.50034	1.83158	1.22612	1.24245	1.11880	1.46214	1.23250	1.01830	5.86116	3.93051	2.67280
2630	0.55130	0.60339	0.48534	2.13416	1.91592	1.80769	5.66580	3.52921	1.86254	1.21429	1.15955	1.07812	1.54772	1.24801	0.99122	5.65133	3.84335	2.45009
2790	0.53685	0.52413	0.40341	2.07035	1.92024	1.61251	5.55422	3.47063	1.78251	1.16838	1.07948	0.99194	1.40322	1.18411	0.97226	5.52011	3.71889	2.31865
2950	0.43842	0.45304	0.35653	1.95536	1.79427	1.53341	5.50343	3.41575	1.75099	0.98257	0.91020	0.80956	1.35893	1.07259	0.84728	5.45021	3.60832	2.27898
3120	0.39940	0.38336	0.26624	1.88744	1.66245	1.40512	5.44147	3.33119	1.72836	0.98300	0.92675	0.82678	1.32174	1.08281	0.84340	5.41890	3.60646	2.22746
3280	0.40619	0.44993	0.24721	1.85910	1.63455	1.35640	5.40064	3.30649	1.69743	0.98219	0.86285	0.77216	1.29077	1.02380	0.81932	5.46337	3.60708	2.17057	25.69	6.2	0.00	7.36	0.01274	0.01291	0.01665	0.00781	0.00582	0.00638	0.00468	0.01267	0.01687	0.00679	0.00698	0.00895	0.01491	0.01097	0.01198	0.00217	0.00618	0.00869
3440	0.35669	0.34591	0.23166	1.75726	1.60336	1.31958	5.40631	3.33253	1.67541	0.90218	0.82356	0.73115	1.30241	1.02071	0.80144	5.37184	3.63817	2.23498
3610	0.36831	0.34672	0.24554	1.77465	1.58976	1.36311	5.42828	3.33483	1.69061	0.97626	0.96519	0.89291	1.33384	1.07008	0.86592	5.62426	3.82729	2.49361
3770	0.48827	0.47453	0.35995	2.17171	1.99716	1.76546	5.61635	3.52154	1.92343	1.40783	1.36068	1.34337	1.56905	1.33250	1.08572	5.88721	4.05309	2.73887
3940	0.60158	0.64744	0.53377	2.36238	2.13721	1.96332	5.71577	3.56534	1.95438	1.44371	1.42391	1.40570	1.61670	1.28361	1.11167	6.03393	4.15114	2.66710
4100	0.60545	0.59769	0.52979	2.30348	2.18796	1.96544	5.75080	3.57754	1.92996	1.43799	1.24280	1.14313	1.50318	1.22846	0.97777	5.68922	3.87692	2.46035
4270	0.57967	0.51339	0.39100	2.14746	1.84890	1.57948	5.66426	3.41601	1.76252	1.06271	1.02127	0.92658	1.40618	1.10891	0.90883	5.47795	3.73731	2.36090
4430	0.47507	0.41612	0.27223	1.98466	1.77894	1.46925	5.47905	3.33453	1.70089	0.99046	0.89687	0.86423	1.33766	1.05673	0.84011	5.47801	3.70614	2.28874
4590	0.38927	0.37543	0.26885	1.88148	1.76078	1.46179	5.45191	3.33643	1.70127	0.96522	0.90358	0.83960	1.32489	1.04517	0.85137	5.51042	3.64149	2.22063
4760	0.39941	0.37134	0.27261	2.01906	1.75243	1.42761	5.46793	3.32436	1.68781	0.95941	0.95236	0.84297	1.31703	1.03158	0.82237	5.51804	3.69364	2.39208
4920	0.39247	0.38346	0.24621	1.88146	1.67193	1.44556	5.50328	3.33612	1.71461	0.96904	0.93012	0.83610	1.33438	1.05335	0.87382	5.46240	3.62687	2.23016	25.75	6.2	0.00	7.41	0.01274	0.01291	0.01665	0.00781	0.00582	0.00638	0.00468	0.01267	0.01687	0.00679	0.00698	0.00895	0.01491	0.01097	0.01198	0.00217	0.00617	0.00869
5080	0.39145	0.37235	0.29089	1.89890	1.69473	1.45502	5.44498	3.33737	1.71753	0.95901	0.97753	0.83730	1.35870	1.10010	0.85045	5.50392	3.70602	2.27206
5250	0.38000	0.37299	0.23626	1.92794	1.70030	1.44958	5.43437	3.33992	1.72519	0.95753	0.94646	0.88833	1.31341	1.05281	0.83096	5.50268	3.69989	2.32322
5410	0.39075	0.38038	0.25354	2.03463	1.77287	1.47694	5.46210	3.33511	1.70368	1.00180	0.95631	0.87809	1.33860	1.04949	0.82370	5.52383	3.77709	2.32102
5570	0.41119	0.37269	0.25538	1.89184	1.71226	1.45005	5.48173	3.34675	1.77641	1.02631	0.92659	0.88179	1.35253	1.07760	0.85950	5.58544	3.73107	2.30041
5740	0.39259	0.38760	0.25581	1.91043	1.73287	1.47497	5.47254	3.33282	1.70486	0.98935	0.99344	0.86270	1.31673	1.05054	0.82395	5.53276	3.68797	2.30980
5900	0.39185	0.37007	0.24791	2.02496	1.91089	1.52220	5.46847	3.37681	1.73339	1.02037	0.93566	0.87925	1.32562	1.08429	0.84886	5.59311	3.71592	2.31592
6060	0.39579	0.37278	0.23891	1.94128	1.76523	1.53267	5.49903	3.33516	1.73133	1.06557	0.99446	0.90899	1.34065	1.06282	0.85242	5.61998	3.76100	2.34156
6230	0.39536	0.37060	0.25491	1.99938	1.77926	1.52818	5.46775	3.37981	1.72229	1.03202	1.00842	0.92865	1.34679	1.07083	0.84891	5.61912	3.87914	2.38241
6390	0.38860	0.38498	0.24758	2.05514	1.80967	1.59343	5.47520	3.38697	1.78526	1.18386	1.21312	1.05915	1.37330	1.10557	0.97310	6.03702	4.18253	2.81271
6560	0.53988	0.59160	0.45004	2.32535	2.31685	2.07188	5.69204	3.61621	2.00324	1.63708	1.58821	1.45840	1.54968	1.34802	1.13306	6.23217	4.37689	3.00002	25.69	6.0	0.00	7.39	0.01274	0.01291	0.01665	0.00781	0.00582	0.00638	0.00468	0.01267	0.01687	0.00679	0.00697	0.00895	0.01491	0.01097	0.01198	0.00217	0.00617	0.00869
6720	0.65832	0.62977	0.47960	2.79067	2.43787	2.04437	5.70744	3.69889	2.03689	1.69757	1.71201	1.54824	1.74970	1.38601	1.20974	6.51508	4.54442	3.20991
6880	0.84211	0.85616	0.69834	2.95089	2.68398	2.38503	5.96543	3.85618	2.28820	1.99680	1.86670	1.79836	1.86993	1.47122	1.23436	6.36263	4.52229	3.16775
7050	0.83535	0.87601	0.68321	2.79715	2.57294	2.30311	5.89773	3.71927	2.01797	1.73915	1.58416	1.47132	1.62876	1.35623	1.12363	6.15668	4.25452	2.90107
7210	0.69120	0.66743	0.48847	2.48698	2.15300	1.94186	5.71920	3.60234	1.89917	1.44738	1.33682	1.23696	1.53934	1.21378	0.97493	5.89731	4.06746	2.73046
7380	0.55744	0.51035	0.37414	2.32849	2.15431	1.77096	5.64005	3.48743	1.83784	1.22549	1.17486	1.10273	1.44595	1.13388	0.89305	5.82101	4.04640	2.56424
7540	0.44636	0.46104	0.31480	2.14646	1.91364	1.66075	5.53291	3.42781	1.75248	1.14469	1.13689	1.00938	1.38237	1.11371	0.88486	5.73449	3.94873	2.49193
7710	0.41620	0.42429	0.27720	2.10079	1.88322	1.63248	5.52367	3.40061	1.76804	1.17688	1.10537	1.03508	1.39211	1.11549	0.86392	5.69274	3.83115	2.45545
7870	0.41644	0.39377	0.26430	2.06950	1.85123	1.62959	5.48304	3.37875	1.74160	1.11920	1.04324	0.96024	1.36073	1.12507	0.87556	5.65823	3.88846	2.45273
8030	0.41982	0.39698	0.27152	2.04997	1.86046	1.58623	5.48574	3.38222	1.75238	1.12272	1.06002	0.98353	1.36008	1.08321	0.87020	5.72213	3.91145	2.47085
8200	0.40116	0.39134	0.25257	2.08561	1.84958	1.61494	5.48175	3.37821	1.73920	1.16078	1.05085	1.00398	1.35366	1.07352	0.85546	5.72054	3.88352	2.48303	25.69	6.1	0.00	7.51	0.01274	0.01291	0.01664	0.00781	0.00582	0.00638	0.00468	0.01267	0.01687	0.00679	0.00697	0.00895	0.01491	0.01097	0.01198	0.00217	0.00617	0.00868
8360	0.41516	0.39693	0.26633	2.06937	1.89807	1.60427	5.51860	3.39157	1.74285	1.12958	1.11222	1.00864	1.35943	1.08131	0.85984	5.71045	3.83167	2.40487
8530	0.40476	0.41032	0.26519	2.07270	1.91363	1.63647	5.49865	3.38374	1.74841	1.09099	1.05216	0.96555	1.34570	1.07605	0.84978	5.66932	3.84244	2.48689
8690	0.39678	0.39642	0.26907	2.08873	1.86296	1.64007	5.49095	3.38885	1.74189	1.11829	1.05798	1.00660	1.34509	1.08052	0.87285	5.82452	3.90089	2.47267
8860	0.42243	0.41193	0.26984	2.21200	1.91183	1.75182	5.52807	3.42556	1.76868	1.21874	1.38456	1.01729	1.36879	1.08935	0.88209	5.77323	3.91087	2.52965
9020	0.47230	0.42948	0.27879	2.16551	1.92232	1.70252	5.53576	3.41860	1.77592	1.15646	1.08202	1.02545	1.38434	1.10581	0.87651	5.75995	3.97102	2.53218
9190	0.41372	0.40191	0.26849	2.22113	2.02276	1.66477	5.52421	3.37528	1.73904	1.17508	1.11849	0.99575	1.38597	1.09139	0.87179	5.77670	4.03245	2.63231
9350	0.40756	0.39594	0.26319	2.17731	1.93399	1.72137	5.54892	3.41347	1.76377	1.19909	1.25856	1.09939	1.38571	1.09521	0.85724	5.83433	4.18076	2.64747
9510	0.42988	0.41975	0.27281	2.18155	1.98243	1.71589	5.55299	3.42238	1.75929	1.26485	1.16559	1.04009	1.37054	1.08490	0.86703	5.76508	3.90352	2.49300
9680	0.42832	0.41134	0.26366	2.21025	1.94876	1.68885	5.57357	3.40536	1.75745	1.21346	1.13709	1.05974	1.37317	1.10669	0.87708	5.73297	3.92932	2.54129
9840	0.40656	0.39976	0.26725	2.09990	1.85805	1.64482	5.53268	3.44125	1.76727	1.14458	1.11591	1.04462	1.36218	1.10462	0.88657	5.72533	4.00120	2.52675	25.69	6.2	0.00	7.42	0.01274	0.01291	0.01664	0.00781	0.00582	0.00638	0.00468	0.01267	0.01687	0.00679	0.00697	0.00895	0.01491	0.01097	0.01198	0.00217	0.00617	0.00868
10000	0.41336	0.42487	0.25560	2.21195	2.00751	1.70330	5.53356	3.41518	1.73749	1.19182	1.17043	1.06385	1.35635	1.08533	0.86747	5.75895	3.93561	2.54434
10160	0.42021	0.41439	0.27941	2.15345	2.07436	1.73447	5.60272	3.50937	1.76298	1.26832	1.22059	1.07798	1.41980	1.14826	0.92133	5.86420	4.04599	2.73877
10330	0.49217	0.47399	0.33410	2.28742	2.10225	1.91584	5.70928	3.55513	1.85005	1.51557	1.40197	1.35906	1.46336	1.18515	1.00016	6.01037	4.13100	2.80169
10490	0.51779	0.50600	0.39258	2.47992	2.17607	1.96255	5.73408	3.57294	1.91972	1.53581	1.49284	1.49088	1.51013	1.27994	1.06153	6.10188	4.27522	2.83415
10660	0.60468	0.62989	0.45937	2.56910	2.36558	2.04822	5.70733	3.56526	2.06198	1.59788	1.49872	1.53208	1.58459	1.26063	1.14528	6.22934	4.38161	3.01038
10820	0.63897	0.65184	0.47876	2.60176	2.34590	2.19181	5.82338	3.64921	2.01624	1.66252	2.50508	1.70002	1.66589	1.29431	1.17389	6.27179	4.66456	3.01763
10980	0.69480	0.69181	0.46661	2.61610	2.45411	2.29390	5.82215	3.69818	2.02229	1.77951	1.90591	1.60441	1.67208	1.38602	1.14542	6.34168	4.57284	2.94197
11150	0.63525	0.70663	0.54886	2.66351	2.35181	2.28933	5.79729	3.70930	2.01391	1.74767	1.62512	1.45351	1.70863	1.40908	1.11991	6.25117	4.31703	2.89358
11310	0.65950	0.60980	0.46934	2.51651	2.21742	1.99485	5.74539	3.58064	1.90033	1.50741	1.47163	1.32492	1.56491	1.29365	0.99104	6.02783	4.14473	2.74664
11480	0.59963	0.56529	0.38446	2.32260	2.07061	1.86688	5.64241	3.49404	1.90481	1.32647	1.31495	1.19510	1.49581	1.22233	0.98576	5.82173	4.03564	2.59479	25.75	5.9	0.00	7.47	0.01274	0.01291	0.01665	0.00780	0.00582	0.00638	0.00468	0.01267	0.01687	0.00679	0.00697	0.00895	0.01491	0.01097	0.01198	0.00217	0.00617	0.00868
11640	0.50247	0.48616	0.34350	2.20287	1.93493	1.71998	5.61346	3.46487	1.80299	1.28309	1.21420	1.08436	1.41488	1.13188	0.90148	5.83120	3.93862	2.53918
11810	0.47312	0.44678	0.31129	2.18563	1.97998	1.73709	5.58094	3.49410	1.80492	1.23784	1.20096	1.06354	1.40312	1.12499	0.91550	5.84465	3.93289	2.56296
11970	0.46593	0.45064	0.29503	2.17732	1.97541	1.72091	5.61334	3.51346	1.83862	1.25982	1.19410	1.08525	1.39348	1.12957	0.90174	5.85252	3.97435	2.55979
12140	0.44394	0.43350	0.29962	2.16465	1.94057	1.68077	5.55931	3.42096	1.79556	1.20206	1.12043	1.06066	1.38667	1.10673	0.88177	5.71670	3.94030	2.59125
12300	0.44805	0.43431	0.28435	2.14404	1.90586	1.74907	5.55736	3.39560	1.74488	1.24857	1.12263	1.04806	1.39596	1.12202	0.89665	5.76090	3.95707	2.49736
12460	0.42171	0.42211	0.29298	2.21292	2.02509	1.71844	5.53606	3.41476	1.77129	1.24505	1.22188	1.07689	1.40326	1.11144	0.89377	5.90971	4.11683	2.68079
12630	0.46532	0.44538	0.29917	2.21952	1.97521	1.87488	5.58078	3.44988	1.81742	1.30767	1.25251	1.21678	1.39480	1.10743	0.91106	5.97037	4.15875	2.63722
12790	0.44108	0.45769	0.28383	2.19781	1.96789	1.68203	5.56335	3.42057	1.80203	1.21024	1.23800	1.09947	1.41198	1.13750	0.87175	5.76951	3.97914	2.53996
12960	0.44044	0.42094	0.28423	2.12123	1.90780	1.68430	5.54929	3.40656	1.76221	1.07818	1.07777	1.03365	1.39554	1.10677	0.88807	5.79258	3.98858	2.49053
13120	0.42856	0.41340	0.27828	2.23458	1.91838	1.68222	5.52953	3.39014	1.78225	1.13170	1.08636	0.98818	1.35181	1.08651	0.87090	5.80088	3.86729	2.49849	25.69	6.2	0.00	7.37	0.01274	0.01291	0.01665	0.00781	0.00582	0.00638	0.00468	0.01267	0.01687	0.00679	0.00697	0.00895	0.01491	0.01097	0.01198	0.00217	0.00617	0.00869
13290	0.41223	0.40606	0.26145	2.19085	1.91132	1.70173	5.52492	3.40484	1.74163	1.15889	1.05607	1.00541	1.35366	1.09514	0.87364	5.72786	3.87523	2.48847
13450	0.40554	0.40243	0.25984	2.15868	1.96584	1.72255	5.51378	3.39352	1.75959	1.14940	1.18302	1.03469	1.37988	1.08472	0.85642	5.68239	3.87322	2.52375
13620	0.41880	0.40416	0.27062	2.16952	1.91762	1.67013	5.54232	3.39733	1.76381	1.14169	1.12242	0.99328	1.37913	1.09842	0.86715	5.78543	3.89419	2.48220
13780	0.41258	0.41523	0.25630	2.06873	1.93176	1.64071	5.52504	3.38415	1.75668	1.19369	1.12017	1.03538	1.36119	1.07796	0.86175	5.72042	3.92179	2.47058
13950	0.40611	0.40450	0.25651	2.05299	1.86186	1.69079	5.51203	3.40359	1.74705	1.12441	1.06915	1.01413	1.36457	1.08498	0.86558	5.73457	3.94199	2.53925
14110	0.40422	0.43843	0.25559	2.18145	2.00561	1.68676	5.50071	3.40729	1.78426	1.17239	1.06372	1.01111	1.37114	1.12205	0.92924	5.80871	4.02721	2.55596
14270	0.44565	0.45146	0.30872	2.15136	1.92696	1.63937	5.51903	3.39886	1.78332	1.14803	1.14929	1.06655	1.38861	1.13257	0.89373	5.80155	3.91038	2.54471
14440	0.41820	0.40967	0.27273	2.11048	1.87170	1.59726	5.52754	3.43641	1.77481	1.11127	1.10395	0.97418	1.36775	1.10290	0.86102	5.77301	3.86934	2.47822
14600	0.43617	0.41138	0.26357	2.04434	1.90370	1.63760	5.53686	3.38907	1.75605	1.11181	1.03222	1.00778	1.37985	1.10583	0.87240	5.76894	3.91453	2.58219
14770	0.41105	0.41049	0.25832	2.09479	1.87708	1.70997	5.50861	3.57488	1.77243	1.14585	1.10594	1.02853	1.36410	1.08639	0.85768	5.75042	3.93926	2.59525	25.75	6.0	0.00	7.72	0.01274	0.01291	0.01665	0.00780	0.00582	0.00638	0.00468	0.01267	0.01687	0.00679	0.00697	0.00895	0.01491	0.01097	0.01198	0.00217	0.00617	0.00868
14930	0.41992	0.40285	0.27537	2.26080	1.92195	1.61049	5.55469	3.38708	1.75231	1.14218	1.13792	1.02520	1.37201	1.08811	0.86285	5.70247	3.95801	2.56125
15100	0.40856	0.40490	0.28550	2.18770	2.08677	1.80375	5.57403	3.42579	1.79776	1.29735	1.43171	1.42597	1.46559	1.25996	1.06017	6.21404	4.35370	3.11090
15260	0.74488	0.72547	0.67844	2.79270	2.85930	2.52661	5.93266	3.82471	2.14930	2.09102	2.08834	2.05978	1.89186	1.51075	1.30085	6.60324	4.90392	3.44941
15430	0.96092	0.93788	0.74804	2.93700	2.62410	2.45432	6.05068	3.88140	2.16732	1.91894	1.91661	1.81513	1.79327	1.51155	1.19860	6.30159	4.42005	3.11964
15590	0.78129	0.74079	0.63219	2.68314	2.38451	2.15248	5.83853	3.72444	1.98178	1.61894	1.47284	1.36699	1.60947	1.33759	1.05730	5.99526	4.27594	2.80277
15750	0.54825	0.56665	0.43382	2.44472	2.12979	1.89034	5.71396	3.58867	1.88990	1.44313	1.39273	1.22626	1.52580	1.21894	0.96983	5.91548	4.06879	2.67405
15920	0.53040	0.50754	0.37211	2.27444	2.08400	1.79389	5.61210	3.45807	1.90050	1.30754	1.23938	1.22212	1.46668	1.17118	0.94458	5.95026	4.06596	2.61109
16080	0.50861	0.49578	0.34117	2.20412	2.01180	1.76840	5.56847	3.44708	1.85267	1.27764	1.21187	1.13151	1.45721	1.12999	0.90481	5.83036	3.99341	2.56028
16250	0.46456	0.46549	0.33150	2.13132	1.90825	1.72801	5.54344	3.44785	1.81114	1.17691	1.12334	1.06614	1.39980	1.10791	0.89385	5.90473	3.95230	2.55135
16410	0.44462	0.47393	0.28228	2.14699	1.89419	1.61329	5.56890	3.43304	1.72766	1.21913	1.15614	1.02686	1.36332	1.09289	0.88198	5.73190	3.89427	2.46024	25.69	6.0	0.00	7.49	0.01274	0.01291	0.01665	0.00781	0.00582	0.00638	0.00468	0.01267	0.01687	0.00679	0.00697	0.00895	0.01491	0.01097	0.01198	0.00217	0.00617	0.00869
16570	0.41598	0.41102	0.26178	2.07919	1.85351	1.59271	5.52665	3.38766	1.74388	1.12579	1.09757	1.02809	1.37427	1.08032	0.86716	5.76344	3.92364	2.46835
16740	0.42807	0.41418	0.26894	2.11410	1.89388	1.77520	5.51953	3.40021	1.74207	1.13997	1.08654	1.01805	1.37068	1.10513	0.86620	5.71159	3.97181	2.48281
16900	0.42647	0.41637	0.27825	2.14250	1.85083	1.61585	5.52032	3.39054	1.72913	1.14443	1.08961	1.12080	1.34587	1.09454	0.87006	5.67466	3.89414	2.52442
17070	0.41325	0.40373	0.25406	2.06820	1.87616	1.61205	5.49168	3.38713	1.74781	1.13126	1.07603	0.96527	1.37309	1.10362	0.87821	5.76458	3.88889	2.52547
17230	0.42181	0.38846	0.26247	2.15323	1.91265	1.66144	5.53816	3.40186	1.74414	1.14090	1.11161	1.03938	1.39280	1.10230	0.86682	5.74606	3.92737	2.49390
17400	0.41223	0.42799	0.28125	2.09422	1.88890	1.61678	5.53494	3.39089	1.76391	1.12933	1.04091	1.04156	1.37687	1.10722	0.90319	5.78473	3.84356	2.43002
17560	0.44281	0.43548	0.28765	2.08042	1.86526	1.68493	5.55388	3.40349	1.74942	1.15906	1.09362	1.02549	1.37559	1.08330	0.88029	5.67737	3.88468	2.45710
17720	0.44024	0.40287	0.27195	2.11338	1.91216	1.60968	5.51651	3.38346	1.75036	1.13240	1.15050	1.06680	1.37159	1.09359	0.88528	5.79034	3.91336	2.46270
17890	0.42125	0.41202	0.25961	2.11320	1.86045	1.61830	5.52347	3.43237	1.74965	1.19746	1.17183	1.01906	1.35259	1.10369	0.86512	5.75139	3.93830	2.47613
18050	0.40996	0.40613	0.27577	2.11363	1.96123	1.70511	5.52523	3.40742	1.73909	1.16678	1.10058	1.04205	1.36202	1.08004	0.85924	5.75140	3.96701	2.57486	25.75	5.9	0.00	7.74	0.01274	0.01291	0.01664	0.00781	0.00582	0.00637	0.00468	0.01267	0.01687	0.00679	0.00697	0.00895	0.01491	0.01097	0.01198	0.00217	0.00617	0.00868
18210	0.40659	0.41325	0.26530	2.09121	1.90594	1.62859	5.56320	3.41521	1.77174	1.16382	1.07511	1.02459	1.39744	1.10582	0.86982	5.75020	3.96645	2.53041
18380	0.42534	0.42879	0.28064	2.19143	2.03321	1.87627	5.53236	3.44117	1.82574	1.32346	1.45208	1.22579	1.47993	1.22917	1.02870	6.27463	4.49856	3.01172
18540	0.63875	0.64707	0.59635	2.74155	2.77753	2.58528	5.97919	3.90994	2.16750	1.98198	1.97195	2.03909	1.81285	1.53330	1.40791	6.64477	4.76415	3.37844
18700	1.00182	0.85496	0.76567	3.10222	2.94478	2.50216	6.10899	3.84643	2.19479	2.02085	2.02760	1.84304	1.69376	1.40228	1.27984	6.42207	4.71016	3.24231
18870	0.80238	0.80296	0.57843	2.95335	2.61471	2.12596	5.81943	3.71414	2.17707	1.85181	1.68741	1.55421	1.77231	1.36312	1.15908	6.27702	4.45211	2.89443
19030	0.69149	0.73200	0.53459	2.56276	2.30443	1.97357	5.74229	3.64423	1.95423	1.47537	1.46482	1.27181	1.57662	1.26660	1.03503	6.04183	4.18959	2.82707
19200	0.58805	0.60091	0.41180	2.33798	2.17920	1.88096	5.63547	3.51821	1.93338	1.38055	1.23796	1.20615	1.44591	1.18788	0.93644	6.04752	4.04855	2.66857
19360	0.49421	0.51904	0.34755	2.43806	2.18208	1.79977	5.59947	3.45257	1.78852	1.27968	1.18840	1.07087	1.44767	1.13841	0.90164	5.82934	4.02943	2.57722
19520	0.44182	0.42944	0.29689	2.21363	2.03150	1.70581	5.59578	3.43120	1.77725	1.16981	1.27644	1.13453	1.40162	1.10154	0.88258	5.85602	4.01223	2.52149
19690	0.40978	0.40830	0.28024	2.13677	1.90764	1.62111	5.52280	3.41796	1.76043	1.11471	1.13078	1.02149	1.38513	1.08647	0.85970	5.77693	3.89530	2.54138	25.75	6.3	0.00	7.50	0.01274	0.01291	0.01664	0.00780	0.00582	0.00638	0.00468	0.01267	0.01687	0.00679	0.00697	0.00895	0.01491	0.01097	0.01198	0.00217	0.00617	0.00868
19850	0.42063	0.40298	0.26435	2.13084	1.94704	1.67532	5.54108	3.40934	1.75206	1.19041	1.09514	1.02994	1.35846	1.09378	0.88128	5.80468	3.91049	2.46671
20020	0.43183	0.41294	0.27697	2.15297	1.93715	1.73319	5.53853	3.41170	1.75974	1.19023	1.12864	1.09951	1.36376	1.09587	0.87836	5.75519	3.98467	2.49863
20180	0.41399	0.42697	0.28142	2.16235	1.93668	1.67509	5.52797	3.41031	1.76777	1.17769	1.14361	1.04928	1.37225	1.09614	0.86642	5.76799	3.93158	2.54057
20340	0.42672	0.40988	0.27529	2.17463	1.89692	1.66964	5.53717	3.39385	1.74571	1.15631	1.06159	0.96244	1.35550	1.07567	0.86833	5.76425	3.91318	2.46381
20510	0.41639	0.42147	0.26447	2.16861	1.87718	1.69335	5.52809	3.39832	1.77385	1.15519	1.10548	1.00950	1.36352	1.07647	0.85803	5.88144	3.94394	2.48993
20670	0.40941	0.39694	0.25499	2.21397	2.16271	1.89188	5.58592	3.41357	1.75051	1.29399	1.17060	1.04083	1.41839	1.10310	0.87153	5.82539	4.01388	2.47978
20840	0.41593	0.40415	0.27416	2.19491	1.96314	1.74608	5.52877	3.40933	1.74508	1.14018	1.12547	1.04102	1.37055	1.09844	0.86137	5.82586	3.94721	2.62498
21000	0.42701	0.39891	0.27073	2.15599	1.96713	1.70965	5.52546	3.46068	1.78277	1.73033	1.56509	1.17426	1.42401	1.15161	0.90254	6.07630	4.33057	2.79762
21160	0.53183	0.53318	0.42908	2.49402	2.29183	2.32601	5.75832	3.63723	2.05607	1.81390	1.72720	1.60016	1.62788	1.43229	1.14101	6.37151	4.53845	3.09486
21330	0.74361	0.69072	0.56681	2.76484	2.52714	2.14605	5.84648	3.71839	2.05914	1.70560	1.55423	1.58069	1.68566	1.30423	1.15939	6.28871	4.39474	2.97278	25.81	6.1	0.00	7.76	0.01274	0.01291	0.01664	0.00780	0.00582	0.00638	0.00468	0.01267	0.01687	0.00679	0.00697	0.00895	0.01491	0.01097	0.01198	0.00217	0.00617	0.00868
21490	0.65636	0.69539	0.52995	2.71616	2.33283	2.16666	5.71839	3.61358	2.03363	1.54261	1.54844	1.40238	1.54536	1.25102	0.97924	6.10083	4.18145	2.74897
21660	0.58255	0.53630	0.39422	2.35356	2.19072	1.86103	5.66823	3.49794	1.85487	1.29212	1.37267	1.15842	1.43523	1.14689	0.91995	5.82006	4.01235	2.60887
21820	0.47037	0.47240	0.34157	2.28429	1.96910	1.69469	5.67195	3.48208	1.81233	1.30346	1.14689	1.04411	1.38915	1.11187	0.89101	5.79334	3.97008	2.63796
21980	0.41904	0.44516	0.31394	2.21640	1.95300	1.65533	5.54191	3.40971	1.78359	1.22224	1.16768	1.03394	1.39352	1.10758	0.87914	5.84248	4.27528	2.54732
22150	0.43514	0.43509	0.31951	2.11698	1.86674	1.90655	5.55424	3.43204	1.80758	1.12295	1.03943	0.96532	1.38451	1.10157	0.87516	5.66668	3.85192	2.40800
22310	0.42740	0.41477	0.28135	2.03255	1.84091	1.59528	5.54000	3.42458	1.75874	1.16774	1.10382	0.98580	1.35279	1.09630	0.87200	5.76156	3.89687	2.42986
22480	0.40805	0.40218	0.26553	2.04701	1.81788	1.60258	5.49886	3.37509	1.72882	1.09522	1.01801	1.06949	1.35512	1.07768	0.85963	5.92488	3.94953	2.42246
22640	0.39575	0.39519	0.25575	2.09223	1.77926	1.54604	5.51400	3.38472	1.73610	1.03667	0.98849	0.95174	1.35604	1.08249	0.85121	5.70121	3.81614	2.40508
22800	0.40063	0.38943	0.25016	2.05152	1.87318	1.63396	5.51925	3.39111	1.74859	1.06767	1.04404	0.97816	1.35401	1.14389	0.87398	5.75390	3.90983	2.45629
22970	0.42113	0.42262	0.28575	2.13089	1.94803	1.66095	5.52460	3.41072	1.77155	1.13378	1.03849	1.05784	1.39479	1.08782	0.86876	5.71227	3.95799	2.44451	25.75	6.3	0.00	7.43	0.01274	0.01291	0.01664	0.00780	0.00582	0.00637	0.00468	0.01267	0.01687	0.00679	0.00697	0.00894	0.01491	0.01097	0.01198	0.00217	0.00617	0.00868
23130	0.40456	0.39485	0.26048	2.18425	1.94685	1.68230	5.52576	3.38992	1.76774	1.16270	1.18684	1.09857	1.35785	1.09971	0.89315	5.75470	3.91750	2.45593
23300	0.42447	0.41180	0.26516	2.10835	1.94358	1.64006	5.56797	3.41005	1.79524	1.23658	1.20566	1.08174	1.42575	1.19444	0.97244	5.89774	4.07692	2.69530
23460	0.52329	0.55915	0.34870	2.32408	2.23161	1.89263	5.61220	3.46322	1.87563	1.47483	1.47283	1.35410	1.48077	1.23913	1.07680	6.15827	4.37697	3.02758
23620	0.64141	0.64145	0.48918	2.66577	2.52454	2.34855	5.80143	3.67148	2.10817	1.98773	1.94057	1.88836	1.78067	1.51801	1.27402	6.65728	4.74851	3.27568
23790	0.80766	0.81143	0.73657	2.97140	2.60324	2.22474	5.98184	3.83110	2.14944	1.80057	1.70104	1.62004	1.80727	1.47712	1.21024	6.11845	4.30035	2.90178
23950	0.67845	0.71569	0.54171	2.51132	2.37698	2.04039	5.79591	3.57587	1.93921	1.41272	1.35949	1.21198	1.54038	1.30938	1.03517	6.02312	4.06395	2.66374
24120	0.53454	0.53105	0.39581	2.20339	2.01675	1.74720	5.61232	3.47236	1.82033	1.20641	1.11280	1.04851	1.44476	1.15011	0.93675	5.95816	3.96108	2.54529
24280	0.48876	0.46604	0.33255	2.20443	1.90965	1.66499	5.54405	3.41400	1.75517	1.18173	1.11849	1.01655	1.37149	1.09744	0.86572	5.64072	3.85236	2.43558
24440	0.43391	0.40454	0.27359	2.03467	1.83199	1.57041	5.50055	3.39461	1.76062	1.06186	1.01039	0.91691	1.36173	1.08193	0.85568	5.58737	3.77879	2.40301
24610	0.41251	0.38623	0.26611	1.98390	1.80849	1.51689	5.46248	3.35198	1.72078	1.00511	0.98908	0.90709	1.37389	1.05628	0.85577	5.65429	3.75775	2.38799	25.75	6.0	0.00	7.70	0.01274	0.01290	0.01664	0.00780	0.00582	0.00637	0.00468	0.01267	0.01687	0.00679	0.00697	0.00895	0.01491	0.01097	0.01198	0.00217	0.00617	0.00868
24770	0.40067	0.37824	0.25151	2.01858	1.76356	1.54787	5.50792	3.36555	1.73308	1.06155	1.00193	0.95697	1.33703	1.06271	0.83437	5.65311	3.82220	2.38125
24940	0.40322	0.38703	0.26211	2.06236	1.78254	1.57976	5.51774	3.37955	1.72045	1.11950	1.06461	0.98347	1.33367	1.06869	0.84634	5.62735	3.79905	2.37931
25100	0.40176	0.39789	0.29105	2.03862	1.78096	1.53166	5.48970	3.40341	1.76862	1.13853	1.01368	0.92150	1.35547	1.08194	0.86223	5.62281	3.80273	2.40486
25260	0.41719	0.39414	0.27129	2.09186	1.81597	1.65099	5.50395	3.36922	1.73443	1.07158	1.01309	0.94083	1.46965	1.06595	0.84901	5.67523	3.78028	2.43193
25430	0.40201	0.37547	0.25236	2.08561	1.86011	1.52056	5.49875	3.40023	1.72565	1.07906	1.01266	0.92747	1.38221	1.10887	0.87212	5.79266	3.95263	2.48598
25590	0.45592	0.46239	0.35825	2.22861	2.11705	2.02351	5.68928	3.53006	1.91479	1.61831	1.60158	1.43637	1.55978	1.33762	1.10523	6.28758	4.47338	3.02946
25760	0.70118	0.73579	0.69254	2.72016	2.52423	2.14808	5.83592	3.74182	2.06928	1.80170	1.57827	1.72166	1.76638	1.44314	1.30594	6.35019	4.38508	3.03055
25920	0.78705	0.74389	0.59593	2.69499	2.44453	2.06670	5.75778	3.64984	2.02518	1.54106	1.48970	1.48025	1.64646	1.38530	1.12794	6.08058	4.23954	3.04355
26080	0.64597	0.65267	0.49004	2.46726	2.17740	1.84957	5.67201	3.56300	1.91312	1.31011	1.23928	1.14237	1.50420	1.18882	0.94065	5.77101	4.17347	2.69941
26250	0.49823	0.48653	0.33812	2.13300	1.90950	1.65791	5.55328	3.43348	1.79890	1.17416	1.15148	1.05469	1.40864	1.11489	0.89801	5.72836	3.91935	2.47845	25.75	6.2	0.00	7.52	0.01274	0.01290	0.01664	0.00781	0.00582	0.00637	0.00468	0.01267	0.01687	0.00679	0.00697	0.00895	0.01491	0.01097	0.01198	0.00217	0.00617	0.00868
26410	0.45345	0.41273	0.30946	1.99645	1.81944	1.60216	5.50876	3.38603	1.79229	1.08735	1.04426	0.90923	1.41402	1.11781	0.85295	5.59070	3.73001	2.31425
26580	0.41227	0.38056	0.25778	1.95831	1.71546	1.47017	5.50538	3.36652	1.70158	1.07898	1.03327	0.90395	1.34906	1.05553	0.82891	5.57269	3.72211	2.37770
26740	0.41282	0.39438	0.26789	2.04930	1.82757	1.47496	5.47255	3.36853	1.72686	1.02722	0.98557	0.90737	1.33664	1.05608	0.84765	5.53286	3.71567	2.27867
26900	0.40425	0.37673	0.24813	1.96839	1.72912	1.45581	5.45688	3.38162	1.72523	1.02160	0.92371	0.86233	1.31015	1.04845	0.83421	5.51099	3.69519	2.29333
27070	0.39174	0.41447	0.25269	1.89911	1.70459	1.49058	5.46135	3.34802	1.72003	0.95434	0.92243	0.82504	1.33395	1.05608	0.82300	5.50735	3.66387	2.35343
27230	0.38786	0.36994	0.23993	1.93844	1.67613	1.43162	5.44941	3.32272	1.69358	0.98833	0.92339	0.84117	1.31291	1.05294	0.82725	5.54395	3.65867	2.30297
27400	0.39293	0.37039	0.24867	1.90958	1.74291	1.49690	5.44507	3.33657	1.70226	1.03927	0.91072	0.86431	1.32788	1.05449	0.83229	5.54434	3.64049	2.27643
27560	0.39575	0.37370	0.24435	1.87763	1.64111	1.43859	5.45961	3.33428	1.69402	0.92939	0.90771	0.78143	1.32018	1.05632	0.82572	5.47322	3.67054	2.30161
27730	0.39837	0.37507	0.25593	1.89809	1.66887	1.49424	5.45443	3.33911	1.70151	0.95516	0.92450	0.84618	1.31305	1.05092	0.82027	5.46629	3.76302	2.38090
27890	0.38767	0.35801	0.23233	1.87840	1.67243	1.43715	5.42779	3.33656	1.69450	0.95510	0.92961	0.84917	1.30752	1.03548	0.81338	5.56671	3.70757	2.27397	25.81	6.2	0.00	7.39	0.01274	0.01290	0.01664	0.00781	0.00582	0.00637	0.00468	0.01267	0.01687	0.00679	0.00697	0.00895	0.01491	0.01097	0.01198	0.00217	0.00617	0.00868
28060	0.37803	0.36467	0.23466	1.87530	1.68855	1.44295	5.43209	3.31015	1.68244	0.99639	0.95861	0.85313	1.33189	1.05626	0.84237	5.51310	3.73033	2.33064
28220	0.39130	0.37750	0.23996	1.97551	1.75747	1.47909	5.45428	3.34097	1.70279	1.02241	0.88724	0.84372	1.35554	1.05146	0.83593	5.51668	3.68335	2.24127
28390	0.37349	0.36734	0.24817	1.85636	1.68729	1.45309	5.44432	3.34213	1.70100	1.00321	0.89080	0.82775	1.31429	1.04196	0.81561	5.49465	3.63613	2.21607
28550	0.36997	0.36129	0.23430	1.89283	1.64390	1.43722	5.41955	3.32975	1.67952	0.96034	0.90298	0.81048	1.30924	1.04394	0.82649	5.52358	3.61456	2.24771
28710	0.38288	0.35760	0.25077	1.93836	1.71744	1.45433	5.45542	3.31281	1.69160	0.96378	0.91320	0.83819	1.31951	1.05611	0.85099	5.54698	3.73835	2.34294
28880	0.40143	0.39725	0.28192	2.02434	1.85022	1.58604	5.50635	3.45718	1.80521	1.25800	1.21845	1.23495	1.53105	1.24295	1.04870	5.96519	4.14111	2.70465
29040	0.60006	0.63557	0.53293	2.42526	2.30920	2.06434	5.70203	3.67442	2.02228	1.60874	1.66958	1.59535	1.69138	1.39098	1.17113	6.10795	4.26618	2.73794
29210	0.70512	0.71129	0.63015	2.41457	2.23706	1.91895	5.73502	3.59513	1.96908	1.54943	1.37478	1.27950	1.55213	1.25466	1.06449	5.90183	4.07492	2.70827
29370	0.56902	0.50161	0.40800	2.20514	2.04069	1.78172	5.62268	3.44756	1.82411	1.28188	1.28261	1.15520	1.42660	1.15296	0.92565	5.65116	3.87526	2.44245
29540	0.48004	0.45412	0.31496	2.05705	1.87527	1.57205	5.50868	3.36721	1.76197	1.07329	0.98572	0.94969	1.39667	1.11510	0.87214	5.55276	3.78414	2.36586	25.81	6.2	0.00	7.33	0.01274	0.01290	0.01664	0.00780	0.00582	0.00638	0.00468	0.01267	0.01687	0.00679	0.00697	0.00895	0.01491	0.01097	0.01198	0.00217	0.00617	0.00869
29700	0.43975	0.39596	0.27837	1.97197	1.79926	1.47592	5.48911	3.35111	1.70897	0.98703	0.92159	0.86700	1.33415	1.06764	0.84773	5.48721	3.67583	2.29432
29860	0.39795	0.37366	0.26256	1.92314	1.71206	1.44886	5.43452	3.33116	1.73683	1.05499	0.92929	0.93929	1.34880	1.05438	0.85576	5.56256	3.68238	2.30162
30030	0.40998	0.41079	0.27081	1.95256	1.69880	1.57706	5.44873	3.38063	1.72820	1.07353	0.95815	0.85050	1.34366	1.07791	0.85536	5.52563	3.68578	2.31630
30190	0.41263	0.37991	0.25726	1.95631	1.74678	1.45828	5.51325	3.35912	1.70390	1.02773	1.05050	0.95851	1.32404	1.04495	0.83019	5.59806	3.75522	2.29691
30360	0.40331	0.38620	0.27101	1.95836	1.67569	1.42971	5.47325	3.34363	1.70136	0.96545	0.96397	0.88547	1.34462	1.05965	0.82088	5.46977	3.86267	2.26322
30520	0.38354	0.36084	0.25752	1.99827	1.79680	1.49385	5.47001	3.32830	1.70556	1.07496	0.91708	0.83352	1.32081	1.09668	0.82029	5.48708	3.63372	2.26672
30680	0.37455	0.36068	0.22911	1.91211	1.70377	1.42638	5.45130	3.32908	1.67090	0.97838	0.95986	0.84832	1.29766	1.04356	0.82345	5.57074	3.65675	2.28869
30850	0.40703	0.40999	0.26154	1.98322	1.95077	1.64840	5.52717	3.38986	1.79929	1.37476	1.24943	1.42896	1.44875	1.20821	1.02422	6.10610	4.28438	2.99967
31010	0.61068	0.67739	0.54307	2.53240	2.42654	2.22536	5.80172	3.68637	2.16620	1.72339	1.67951	1.54130	1.81745	1.43558	1.15206	6.20237	4.32567	2.92439
31170	0.75821	0.75067	0.62652	2.47388	2.34392	1.97333	5.74488	3.63944	1.96897	1.41287	1.33756	1.21204	1.54704	1.27178	1.04337	5.80579	4.16809	2.65577	25.75	6.2	0.00	7.34	0.01274	0.01291	0.01664	0.00781	0.00582	0.00638	0.00468	0.01267	0.01687	0.00679	0.00697	0.00895	0.01491	0.01097	0.01198	0.00217	0.00617	0.00869
31340	0.54565	0.51776	0.35498	2.16987	1.97112	1.76434	5.56128	3.49027	1.80695	1.23310	1.17145	1.07306	1.44032	1.19908	0.97110	5.68351	3.86517	2.50326
31500	0.46479	0.44094	0.33236	2.04619	1.82684	1.57681	5.52559	3.43186	1.79376	1.06442	1.12772	0.95017	1.42922	1.12923	0.88732	5.58051	3.75681	2.45314
31660	0.45413	0.42343	0.27403	2.02893	1.77057	1.57573	5.47085	3.34846	1.74121	0.97376	0.91850	0.88269	1.35771	1.07378	0.85560	5.57364	3.75267	2.31884
31830	0.39535	0.39820	0.26390	1.92587	1.73710	1.43843	5.46044	3.34920	1.74099	1.01489	0.91187	0.85532	1.31849	1.04538	0.83950	5.51602	3.69775	2.32639
31990	0.39003	0.37573	0.24727	1.87989	1.69501	1.41383	5.43615	3.33813	1.70705	0.95213	0.91012	0.87044	1.31088	1.04790	0.84187	5.56794	3.72233	2.28871
32160	0.41429	0.36702	0.24300	1.93544	1.80873	1.52353	5.46392	3.36380	1.73731	1.00155	0.97287	0.95325	1.32840	1.05577	0.84238	5.47764	3.71653	2.51538
32320	0.39253	0.37647	0.24944	1.93477	1.75938	1.49264	5.45692	3.32587	1.71720	1.05769	0.93365	0.84033	1.31966	1.06037	0.81875	5.56396	3.76031	2.22905
32480	0.39398	0.36517	0.22808	1.90470	1.68973	1.45176	5.44369	3.33540	1.70059	0.96561	0.87483	0.81055	1.31383	1.05301	0.82081	5.47330	3.62619	2.27028
32650	0.39517	0.37402	0.24086	1.91548	1.68631	1.42166	5.43449	3.32516	1.69204	1.05122	0.92754	0.83315	1.30496	1.08225	0.81682	5.50354	3.63485	2.27550
32810	0.37584	0.35341	0.23402	1.86861	1.68448	1.41930	5.43116	3.31966	1.69805	0.98794	0.97731	0.81367	1.33117	1.06179	0.83670	5.50016	3.61584	2.24545	25.81	6.1	0.00	7.40	0.01274	0.01291	0.01664	0.00781	0.00582	0.00638	0.00468	0.01267	0.01687	0.00679	0.00697	0.00895	0.01491	0.01097	0.01198	0.00217	0.00617	0.00869
32980	0.39142	0.36286	0.23768	1.91455	1.71225	1.45800	5.43806	3.33027	1.71214	1.05678	0.91398	0.87693	1.30481	1.04603	0.82415	5.55833	3.76430	2.33853
33140	0.36871	0.36001	0.24441	2.02101	1.71092	1.47260	5.44793	3.34674	1.70491	1.00417	0.92640	0.80416	1.32041	1.04103	0.82013	5.44937	3.64463	2.21697
33310	0.37575	0.36146	0.24572	1.87357	1.65059	1.46328	5.43084	3.31964	1.68895	0.95542	0.90806	0.84281	1.30195	1.05008	0.81413	5.45331	3.63062	2.30288
33470	0.38436	0.34726	0.22639	1.96841	1.64264	1.41560	5.43467	3.29916	1.68517	1.07686	0.92526	0.79064	1.30656	1.04718	0.81802	5.47583	3.61161	2.21448
33630	0.38777	0.38308	0.24819	1.84756	1.67390	1.37986	5.42607	3.30873	1.69460	0.92454	0.84524	0.75112	1.29975	1.03794	0.81453	5.46476	3.63904	2.27824
33800	0.37123	0.35153	0.23495	1.87624	1.62798	1.40250	5.42982	3.33287	1.67709	0.95614	0.87014	0.84498	1.31281	1.03658	0.81875	5.48212	3.69637	2.25272
33960	0.37317	0.35151	0.27187	1.85855	1.67776	1.47812	5.46200	3.35988	1.70879	1.02078	1.00956	1.04417	1.36879	1.09883	0.90144	5.67437	3.83095	2.74044
34120	0.52801	0.49423	0.37703	2.36050	2.22419	1.96631	5.58695	3.54350	1.92974	1.59699	1.62167	1.56523	1.61383	1.26260	1.09386	6.11395	4.33687	2.79796
34290	0.73137	0.60888	0.49740	2.41320	2.18286	1.93387	5.65422	3.52299	1.96266	1.27868	1.12057	1.12517	1.53368	1.22611	1.03991	5.85705	3.93967	2.47642
34450	0.50932	0.50708	0.34464	2.13387	1.86202	1.61062	5.54798	3.45750	1.78574	1.19735	1.08739	1.01886	1.41709	1.13980	0.93502	5.66921	3.89848	2.50398	25.81	6.0	0.00	7.71	0.01274	0.01291	0.01664	0.00780	0.00582	0.00638	0.00468	0.01267	0.01687	0.00679	0.00697	0.00895	0.01491	0.01097	0.01198	0.00217	0.00617	0.00868
34610	0.47941	0.46221	0.31912	2.06237	1.86377	1.55766	5.54914	3.41653	1.73058	1.06633	1.01148	0.97432	1.40893	1.09400	0.89246	5.59405	3.70040	2.37993
34780	0.42334	0.44145	0.29447	2.01375	1.79230	1.58663	5.47774	3.40945	1.77933	1.26731	1.38507	1.17849	1.45494	1.13873	0.99352	5.81399	4.24368	2.85170
34940	0.58713	0.67570	0.51175	2.46783	2.22025	2.06235	5.77037	3.69734	2.08495	1.71089	1.62328	1.51232	1.67324	1.42553	1.18275	6.07700	4.10632	2.68730
35100	0.70125	0.63229	0.60738	2.36915	2.11925	1.88630	5.70329	3.61023	1.93359	1.41506	1.31910	1.18587	1.54273	1.25616	1.02807	5.74580	3.82299	2.45582
35270	0.59902	0.51893	0.37389	2.10711	1.92422	1.56680	5.60187	3.49554	1.81389	1.17349	1.09294	1.01005	1.38362	1.14523	0.92387	5.53932	3.74723	2.35588
35430	0.45156	0.42580	0.32147	2.03705	1.79161	1.50127	5.49673	3.38150	1.77484	1.11975	1.03658	0.91763	1.36305	1.10945	0.88326	5.59346	3.74385	2.38823
35590	0.42980	0.43265	0.27881	2.03310	1.88733	1.52985	5.47200	3.36814	1.71174	1.01634	1.05743	0.95846	1.34251	1.07188	0.83151	5.47854	3.77425	2.38223
35760	0.42661	0.38186	0.25563	2.05770	1.71871	1.49884	5.44487	3.34601	1.71328	0.96685	0.92305	0.92166	1.31274	1.05257	0.83388	5.50060	3.68205	2.32319
35920	0.40125	0.37673	0.24669	1.98985	1.81071	1.45363	5.45526	3.33229	1.70926	0.97617	0.94914	0.86872	1.34763	1.06173	0.85350	5.54291	3.70948	2.33782
36080	0.39035	0.36819	0.23927	1.92984	1.69862	1.49188	5.48516	3.35474	1.70398	1.00135	0.94148	0.90077	1.31942	1.05105	0.83088	5.45765	3.71181	2.30271	25.75	6.0	0.00	7.36	0.01274	0.01291	0.01664	0.00780	0.00582	0.00638	0.00468	0.01267	0.01687	0.00679	0.00697	0.00895	0.01491	0.01097	0.01198	0.00217	0.00617	0.00868
36250	0.39429	0.37940	0.25501	1.92874	1.74433	1.58670	5.46682	3.32543	1.70371	1.11698	0.93849	0.82019	1.31433	1.05830	0.82478	5.53327	3.83007	2.31428
36410	0.38327	0.36445	0.24021	1.88999	1.67434	1.47473	5.46833	3.33218	1.68908	1.01449	0.95220	0.84219	1.33306	1.05601	0.82241	5.45765	3.67444	2.31352
36570	0.38265	0.36252	0.23397	1.91226	1.73802	1.48433	5.46556	3.36588	1.70390	0.96530	0.94596	0.88219	1.32119	1.04452	0.82370	5.52310	3.66406	2.31571
36740	0.37012	0.35817	0.25035	1.87404	1.70736	1.43028	5.41962	3.30778	1.69936	0.96919	0.94441	0.95476	1.31966	1.04830	0.81171	5.46211	3.64849	2.27846
36900	0.37761	0.38094	0.24599	1.88855	1.70397	1.43662	5.43104	3.32914	1.69673	0.94740	0.88161	0.85210	1.35087	1.06814	0.82979	5.52956	3.67315	2.25872
37060	0.38633	0.37716	0.29261	1.92495	1.69650	1.47889	5.42257	3.33826	1.69918	0.98045	0.89331	0.83119	1.31500	1.04246	0.82419	5.55423	3.67268	2.27398
37230	0.39099	0.37672	0.25203	1.94097	1.68303	1.52124	5.45532	3.34470	1.70442	0.98492	0.91762	0.85918	1.33522	1.05054	0.83092	5.53373	3.74577	2.33825
37390	0.39945	0.39045	0.25468	1.91668	1.70064	1.42475	5.44572	3.36413	1.71923	0.98844	0.94419	0.82217	1.33624	1.07111	0.83053	5.55116	3.70729	2.26305
37550	0.39963	0.37598	0.24894	2.01771	1.70829	1.46472	5.46251	3.33507	1.70449	0.95697	0.97765	0.83165	1.32745	1.06034	0.83196	5.47832	3.66674	2.34433
37720	0.38146	0.37136	0.24293	1.87819	1.73436	1.45299	5.47588	3.33192	1.71134	0.99091	0.89477	0.83365	1.32251	1.05373	0.81793	5.46368	3.65151	2.28948	25.81	6.1	0.00	7.35	0.01274	0.01291	0.01664	0.00781	0.00582	0.00637	0.00468	0.01267	0.01687	0.00679	0.00697	0.00895	0.01491	0.01097	0.01198	0.00217	0.00617	0.00868
37880	0.37729	0.36780	0.24240	1.88340	1.68265	1.45605	5.44961	3.31761	1.69929	0.97097	0.93529	0.89883	1.32178	1.04347	0.82216	5.54753	3.73062	2.29761
38040	0.37569	0.35939	0.23720	1.87528	1.65668	1.38354	5.43525	3.33863	1.69180	0.98861	0.91426	0.81651	1.31060	1.04496	0.82442	5.47288	3.63680	2.27980
38210	0.37374	0.35640	0.23615	1.87129	1.63733	1.41989	5.43797	3.32882	1.69044	0.93035	0.89084	0.80491	1.31010	1.02865	0.81973	5.48435	3.66343	2.23892
38370	0.37501	0.35460	0.22702	1.91314	1.69040	1.42674	5.46657	3.32402	1.69218	0.95513	0.92471	0.80718	1.30295	1.03709	0.81549	5.45605	3.63943	2.25594
38540	0.38112	0.36752	0.23680	1.86733	1.67409	1.42156	5.44199	3.31186	1.69150	0.93954	0.87105	0.80761	1.30505	1.04269	0.83044	5.50922	3.70608	2.24643
38700	0.39643	0.38287	0.29721	1.96489	1.80837	1.62596	5.47659	3.41451	1.78891	1.21134	1.40340	1.38100	1.50658	1.33652	1.18607	6.15861	4.46812	3.12963
38860	0.79824	0.78225	0.66074	2.64910	2.67014	2.37107	5.90820	3.86951	2.24633	1.95269	1.96246	1.77113	1.74875	1.55888	1.33603	6.46487	4.47516	3.10176
39030	0.79679	0.78966	0.66673	2.59018	2.40684	2.16675	5.87414	3.72229	2.05703	1.71767	1.53107	1.36912	1.64151	1.44171	1.22470	6.16847	4.21997	2.84628
39190	0.79153	0.68443	0.58073	2.53800	2.26867	2.05969	5.77495	3.68486	1.94315	1.41806	1.40266	1.39517	1.63248	1.34714	1.09204	5.82482	4.11787	2.75042
39360	0.66576	0.61536	0.44268	2.20284	2.04352	1.77317	5.61782	3.48608	1.81972	1.18194	1.09666	1.05866	1.42960	1.11204	0.90813	5.66303	3.78324	2.34344	25.81	6.1	0.00	6.58	0.01274	0.01290	0.01664	0.00781	0.00582	0.00637	0.00468	0.01267	0.01687	0.00679	0.00697	0.00895	0.01491	0.01097	0.01198	0.00217	0.00617	0.00869
39520	0.47378	0.44737	0.31837	2.05168	1.80548	1.52334	5.48081	3.38695	1.75140	1.06943	1.01268	0.89541	1.35978	1.08694	0.87049	5.55551	3.77361	2.30565
39690	0.40221	0.39783	0.28256	1.97055	1.78989	1.53116	5.47047	3.37433	1.73491	1.02946	0.92536	0.84477	1.34143	1.08105	0.85520	5.47988	3.67015	2.23769
39850	0.39177	0.38428	0.24817	1.92182	1.66787	1.39370	5.45706	3.31250	1.69887	0.94545	0.87674	0.77835	1.31910	1.05058	0.83568	5.47832	3.66326	2.25628
40020	0.37890	0.38130	0.24781	1.85979	1.67587	1.40565	5.44304	3.34472	1.70231	0.98441	0.88991	0.81787	1.32416	1.06912	0.84185	5.45010	3.64651	2.23565
40180	0.37433	0.36357	0.23432	1.86382	1.68962	1.46255	5.44817	3.31607	1.68608	0.96737	0.88137	0.81631	1.30744	1.03870	0.82536	5.47742	3.67225	2.24320
40340	0.38358	0.36498	0.23602	1.89184	1.66888	1.42067	5.45173	3.32354	1.69115	0.94892	0.90186	0.93668	1.31004	1.04035	0.82703	5.69597	3.65680	2.24257
40510	0.36199	0.35854	0.22586	1.96442	1.72265	1.46092	5.41009	3.31481	1.68678	0.97337	0.88636	0.79794	1.32557	1.04622	0.83172	5.45954	3.65367	2.23945
40670	0.38142	0.38368	0.24202	1.94555	1.73015	1.50870	5.44209	3.33520	1.73745	1.03216	0.98485	0.92559	1.35921	1.07266	0.87690	5.69438	3.96137	2.50086
40830	0.45565	0.45242	0.36478	2.31780	2.14931	1.87277	5.66150	3.52072	1.88655	1.47581	1.34511	1.40862	1.52103	1.46081	1.10547	6.12081	4.23709	2.87269
41000	0.67239	0.68626	0.58646	2.45691	2.34408	1.96724	5.79771	3.69743	2.02120	1.54819	1.42454	1.34534	1.62140	1.29494	1.06347	6.09538	4.16935	2.62205	25.81	6.0	0.00	7.42	0.01274	0.01291	0.01664	0.00781	0.00582	0.00638	0.00468	0.01267	0.01687	0.00679	0.00697	0.00895	0.01491	0.01097	0.01198	0.00217	0.00617	0.00869
41160	0.60837	0.58151	0.49571	2.25076	2.04915	1.88760	5.61917	3.54678	1.91703	1.29134	1.30055	1.13610	1.45318	1.19735	1.01361	5.82522	3.97733	2.49434
41320	0.53444	0.47125	0.35204	2.18467	1.92483	1.68904	5.60436	3.43726	1.80976	1.20931	1.06504	0.99641	1.38327	1.14907	0.95070	5.65064	3.85571	2.51910
41490	0.47237	0.45199	0.32563	2.05780	1.84668	1.60439	5.49417	3.42467	1.73806	1.04096	0.98699	0.95814	1.36266	1.11177	0.85588	5.61418	3.74399	2.29820
41650	0.40735	0.40380	0.27881	1.94908	1.70198	1.47962	5.47281	3.34977	1.73133	1.04134	1.00242	0.84163	1.33216	1.07539	0.86207	5.57066	3.75378	2.34241
41810	0.38413	0.37634	0.25590	1.96316	1.72763	1.45967	5.44226	3.35564	1.71151	0.99557	0.94709	0.84547	1.34820	1.06376	0.83258	5.57655	3.71720	2.29092
41980	0.37772	0.37654	0.23647	1.88254	1.65113	1.43443	5.44842	3.33809	1.70117	1.00903	0.94836	0.84710	1.32324	1.04770	0.83548	5.51899	3.72999	2.30596
42140	0.38113	0.38562	0.24128	1.90840	1.70880	1.43167	5.47261	3.34661	1.70417	0.92910	0.88456	0.80718	1.31541	1.05096	0.82928	5.48489	3.61996	2.23167
42310	0.37636	0.36744	0.23849	1.90750	1.67238	1.44981	5.41920	3.32586	1.71184	0.95227	0.84964	0.81127	1.30559	1.03879	0.81310	5.50995	3.73188	2.25534
42470	0.38065	0.36426	0.23403	1.91133	1.71325	1.40367	5.42558	3.32154	1.71506	0.97722	0.89490	0.82473	1.31647	1.04088	0.81802	5.49962	3.70873	2.29712
42630	0.38085	0.36137	0.23948	1.92460	1.72168	1.47232	5.43828	3.31889	1.69380	1.01392	0.92168	0.92215	1.31436	1.04759	0.82875	5.61423	3.71766	2.32500	25.81	6.1	0.00	7.35	0.01274	0.01291	0.01664	0.00781	0.00582	0.00638	0.00468	0.01267	0.01687	0.00679	0.00697	0.00895	0.01491	0.01097	0.01198	0.00217	0.00617	0.00869
42800	0.37174	0.37090	0.24546	1.92427	1.68027	1.42230	5.45502	3.34637	1.71723	0.99046	0.90547	0.83771	1.32824	1.25587	0.83469	5.57402	3.67439	2.26785
42960	0.73100	1.13329	0.26424	1.94070	1.72995	1.48833	5.49260	3.35608	1.72829	1.01043	1.01368	0.84061	1.32900	1.05933	0.83030	5.53490	3.70531	2.31533
43120	0.38759	0.37661	0.26617	1.95224	1.84623	1.60572	5.47334	3.40206	1.76124	1.17394	1.20466	1.24382	1.42566	1.15761	1.00448	6.02299	4.22151	2.80582
43290	0.56673	0.65309	0.57198	2.49072	2.40237	2.10510	5.79044	3.61554	1.97322	1.57743	1.64263	1.41967	1.56090	1.32758	1.08711	6.04780	4.29092	2.79791
43450	0.65685	0.61435	0.49931	2.38638	2.18261	1.92411	5.72266	3.54336	1.89113	1.35597	1.35060	1.25523	1.55212	1.23878	1.01367	5.86360	4.09383	2.69203
43610	0.59565	0.59307	0.45474	2.32929	2.06048	1.74482	5.61389	3.53506	1.85639	1.27068	1.25190	1.20965	1.46305	1.18874	0.98478	5.75185	4.07255	2.57169
43780	0.55793	0.50659	0.36753	2.13511	2.02256	1.70530	5.59139	3.45691	1.83454	1.18891	1.13078	1.04131	1.47076	1.15936	0.96033	5.70340	3.90211	2.44154
43940	0.48937	0.49249	0.32481	2.10984	1.79891	1.63971	5.49907	3.40534	1.78754	1.10505	1.03463	0.95233	1.39644	1.09544	0.89124	5.58686	3.75784	2.30276
44100	0.41791	0.38563	0.28464	2.05493	1.76074	1.51931	5.48174	3.37552	1.71893	1.02027	0.91983	0.85629	1.35009	1.08166	0.85133	5.50086	3.71670	2.35266
44270	0.41997	0.41133	0.25665	1.99085	1.68815	1.49731	5.46282	3.33881	1.70933	0.99213	0.96461	0.86450	1.34884	1.05601	0.84066	5.48738	3.67987	2.25793	25.81	6.1	0.00	7.31	0.01274	0.01291	0.01664	0.00781	0.00582	0.00638	0.00468	0.01267	0.01687	0.00679	0.00697	0.00895	0.01491	0.01097	0.01198	0.00217	0.00617	0.00868
44430	0.40487	0.36449	0.22926	1.89405	1.66241	1.40070	5.42232	3.31262	1.69695	0.95255	0.88995	0.84911	1.35226	1.04913	0.83805	5.43329	3.65976	2.22763
44590	0.36721	0.36813	0.23874	1.87422	1.70519	1.46812	5.41125	3.31411	1.69942	0.93495	0.86959	0.78906	1.30495	1.04362	0.81671	5.43710	3.79721	2.34201
44760	0.37176	0.35412	0.23206	2.12477	2.25069	1.41533	5.51736	3.32338	1.69036	1.53093	0.92758	0.79989	1.31006	1.04366	0.81565	5.43155	3.62110	2.22924
44920	0.37678	0.35868	0.23166	1.86571	1.64461	1.38853	5.45140	3.31100	1.69472	0.95381	0.91812	0.82646	1.31274	1.05067	0.85020	5.51649	3.63934	2.24087
45080	0.36342	0.35632	0.23321	1.88053	1.68626	1.52222	5.43738	3.33471	1.71514	0.95175	0.86257	0.80668	1.32953	1.03121	0.81660	5.44963	3.63007	2.19574
45250	0.36580	0.35150	0.22578	1.82671	1.64259	1.40272	5.41365	3.31841	1.67893	0.91008	0.83889	0.79683	1.31960	1.03275	0.81203	5.44226	3.62030	2.21022
45410	0.37642	0.35177	0.22771	1.85612	1.65735	1.40989	5.43044	3.31876	1.67297	0.93503	0.89235	0.80483	1.30176	1.03147	0.81784	5.44504	3.67491	2.23956
45570	0.36901	0.35681	0.23275	1.88450	1.65675	1.41416	5.49444	3.35844	1.70410	0.97880	0.87389	0.83369	1.32532	1.04481	0.82607	5.45816	3.66124	2.25599
45740	0.38016	0.35587	0.23197	1.89451	1.74052	1.45582	5.43702	3.33398	1.71078	0.95266	0.91358	0.83701	1.33006	1.05688	0.82706	5.51272	3.65143	2.27963
45900	0.37907	0.35790	0.23740	1.91212	1.71441	1.48887	5.43100	3.30263	1.70329	0.97326	0.94185	0.86711	1.30054	1.04694	0.82147	5.48836	3.63664	2.28571	25.75	6.0	0.00	7.36	0.01274	0.01291	0.01664	0.00781	0.00582	0.00638	0.00468	0.01267	0.01687	0.00679	0.00697	0.00895	0.01491	0.01097	0.01198	0.00217	0.00617	0.00868
46070	0.37927	0.36431	0.23547	1.88783	1.71877	1.43702	5.45485	3.32092	1.70967	0.97462	0.87790	0.86431	1.31735	1.06629	0.82172	5.44710	3.67654	2.29842
46230	0.37226	0.35888	0.23741	1.91099	1.72027	1.58938	5.46905	3.33124	1.74693	1.09840	1.09023	1.11744	1.40014	1.13250	1.02507	5.76346	4.14696	2.86548
46390	0.57863	0.70728	0.61400	2.38259	2.55089	2.30217	5.93755	3.93933	2.31092	2.04059	2.10952	1.97111	1.96969	1.61336	1.35525	6.54803	4.58698	3.24037
46560	0.87781	0.97625	0.73464	2.98450	2.66546	2.45043	6.03555	3.74071	2.11302	1.82705	1.75582	1.66385	1.65466	1.35495	1.17060	6.15822	4.37342	2.93266
46720	0.86193	0.76607	0.59154	2.58617	2.18711	1.92736	5.70339	3.53828	1.90057	1.48092	1.36500	1.33637	1.47804	1.32435	0.99390	5.91518	4.12248	2.55007
46880	0.57829	0.49271	0.36304	2.13600	1.88908	1.58030	5.57097	3.42304	1.76425	1.13746	1.08758	0.97038	1.43275	1.15676	0.92769	5.65854	3.79465	2.38157
47050	0.48256	0.43570	0.35048	1.98472	1.79346	1.51211	5.54373	3.37084	1.74738	1.02553	1.00548	0.87910	1.36344	1.09052	0.84133	5.51422	3.74575	2.35307
47210	0.40146	0.38726	0.25347	1.95454	1.73662	1.48560	5.45916	3.33953	1.72163	0.96687	0.94979	0.83661	1.32804	1.11051	0.83884	5.47720	3.67322	2.29257
47380	0.39566	0.39118	0.24889	1.86774	1.68726	1.43016	5.44300	3.32780	1.69966	0.99295	0.92202	0.85154	1.32317	1.04489	0.82263	5.49063	3.66114	2.30205
47540	0.38757	0.36834	0.24503	1.91200	1.67918	1.43760	5.44503	3.33379	1.70009	0.99695	1.00415	0.83865	1.32173	1.04491	0.81988	5.43620	3.63673	2.25799	25.75	6.2	0.00	7.34	0.01274	0.01291	0.01664	0.00781	0.00582	0.00638	0.00468	0.01267	0.01687	0.00679	0.00697	0.00895	0.01491	0.01097	0.01198	0.00217	0.00618	0.00869
47700	0.36084	0.34568	0.23971	1.88802	1.71677	1.39708	5.43280	3.32019	1.68533	0.93817	0.86014	0.78966	1.30401	1.03786	0.80972	5.47987	3.71218	2.29315
47870	0.38162	0.35664	0.23108	1.86473	1.71320	1.43802	5.42062	3.31170	1.67937	1.01507	0.94539	0.83389	1.31390	1.04036	0.81640	5.47864	3.64921	2.23145
48030	0.36498	0.35533	0.22618	1.88053	1.65036	1.39596	5.43307	3.33177	1.68384	0.92928	0.91338	0.79728	1.30379	1.03400	0.82110	5.49161	3.65368	2.21806
48200	0.37727	0.37370	0.23965	1.87750	1.64703	1.38692	5.43721	3.31938	1.70410	0.96707	0.90322	0.83294	1.30122	1.03646	0.81637	5.51715	3.69860	2.23007
48360	0.37163	0.35720	0.23340	1.88124	1.68609	1.44210	5.45328	3.32631	1.71079	0.96617	0.89883	0.84491	1.33278	1.04073	0.82719	5.50434	3.69090	2.32554
48530	0.40963	0.40591	0.25945	1.98582	1.71011	1.47192	5.49502	3.34020	1.70602	1.00884	0.99495	0.89025	1.34747	1.07430	0.83318	5.55327	3.68944	2.35192
48690	0.37989	0.39395	0.27589	1.93159	1.70052	1.45129	5.46641	3.34895	1.72399	1.05247	0.91441	0.85730	1.35409	1.06094	0.84145	5.51682	3.70819	2.25103
48850	0.39702	0.38962	0.24780	1.93640	1.70133	1.41598	5.43402	3.33023	1.70160	0.95922	0.92893	0.80655	1.33109	1.05995	0.84910	5.44247	3.65714	2.29154
49020	0.38606	0.37990	0.28178	1.90213	1.65914	1.42943	5.43532	3.33970	1.69105	0.95534	0.96748	0.86241	1.31879	1.05005	0.82537	5.51103	3.63417	2.23867
49180	0.37669	0.36001	0.23288	1.88188	1.66702	1.45172	5.44193	3.31270	1.68026	0.94125	0.87112	0.79949	1.29953	1.03260	0.82547	5.43853	3.60975	2.22605	25.81	6.1	0.00	7.36	0.01274	0.01291	0.01664	0.00781	0.00582	0.00638	0.00468	0.01267	0.01687	0.00679	0.00697	0.00895	0.01491	0.01097	0.01198	0.00217	0.00617	0.00869
49350	0.37504	0.36513	0.23764	1.90136	1.67262	1.39085	5.42962	3.31151	1.69569	0.91025	0.84979	0.76602	1.29368	1.02742	0.81716	5.44325	3.61577	2.23891
49510	0.36718	0.35216	0.22822	1.86600	1.61747	1.37776	5.40804	3.29555	1.69850	0.93256	0.87032	0.82502	1.30592	1.02904	0.80542	5.47508	3.66821	2.21897
49670	0.37497	0.34369	0.22754	1.85161	1.64672	1.36511	5.41252	3.32243	1.67981	0.97340	0.90441	0.84204	1.32306	1.03909	0.81447	5.67818	3.70257	2.31169
49840	0.37569	0.36138	0.23045	1.97796	1.68364	1.44858	5.43964	3.33906	1.71448	1.05479	0.97703	1.03644	1.34939	1.08690	0.86879	5.81566	4.03951	2.62344
50000	0.47544	0.47792	0.41182	2.38235	2.16355	1.85581	5.66320	3.54762	1.96570	1.49315	1.48894	1.45643	1.67286	1.30482	1.13581	5.87273	4.15761	2.71129
50170	0.63200	0.63286	0.40778	2.30753	2.04006	1.84053	5.70137	3.49795	1.88787	1.39208	1.44541	1.24570	1.53815	1.25149	1.01388	5.85778	4.07750	2.60201
50330	0.53049	0.49261	0.35474	2.16358	2.01818	1.63597	5.56401	3.40366	1.74993	1.12832	1.06451	1.03998	1.43350	1.16660	0.89940	5.53793	3.74245	2.32810
50490	0.44612	0.44564	0.29540	2.00788	1.83473	1.50490	5.49405	3.35648	1.71745	1.02444	0.94747	0.83157	1.36397	1.05203	0.84529	5.51780	3.69387	2.32884
50660	0.38303	0.38966	0.27396	1.90813	1.75220	1.46442	5.44343	3.32496	1.69073	0.93601	0.88212	0.83379	1.30503	1.04254	0.83665	5.46905	3.63011	2.25550
50820	0.38970	0.39362	0.25323	1.87257	1.65747	1.45452	5.43971	3.32240	1.69625	0.94953	0.89239	0.81077	1.30751	1.03210	0.81169	5.45169	3.60493	2.21409	25.81	6.2	0.00	7.36	0.01274	0.01291	0.01664	0.00781	0.00582	0.00638	0.00468	0.01267	0.01687	0.00679	0.00697	0.00895	0.01491	0.01097	0.01198	0.00217	0.00618	0.00869
50990	0.37612	0.37347	0.23791	1.84364	1.65890	1.39743	5.44165	3.32490	1.68841	0.92401	0.83827	0.75043	1.32139	1.04469	0.83262	5.41499	3.58451	2.23016
51150	0.38028	0.34984	0.23629	1.81210	1.64754	1.35423	5.40973	3.29947	1.69050	0.93201	0.85304	1.01069	1.38814	1.05558	0.82230	5.42723	3.62153	2.17179
51320	0.37645	0.36618	0.23849	1.82002	1.59819	1.36646	5.40910	3.29270	1.66985	0.91585	0.84796	0.74689	1.29761	1.02835	0.80279	5.43749	3.62319	2.20264
51480	0.36296	0.35971	0.22702	1.92374	1.63211	1.42609	5.43261	3.30555	1.66964	0.88770	0.93108	0.81710	1.29238	1.02877	0.81016	5.43607	3.62217	2.21315
51640	0.38234	0.36423	0.23868	1.88639	1.67604	1.39285	5.45859	3.31164	1.68808	0.96675	0.86218	0.78688	1.30623	1.03201	0.81723	5.44330	3.60987	2.23957
51810	0.37561	0.36134	0.22632	1.86614	1.63155	1.39548	5.41902	3.30950	1.67092	0.93345	0.87684	0.85657	1.32221	1.05048	0.81227	5.46094	3.68277	2.27030
51970	0.38755	0.38548	0.29100	1.98619	1.87013	1.76746	5.47985	3.40646	1.84830	1.33726	1.25111	1.28279	1.52628	1.27651	1.05330	6.03772	4.23684	2.79936
52140	0.56681	0.57240	0.45566	2.46344	2.21186	1.89439	5.62854	3.51637	1.89788	1.46980	1.37612	1.27764	1.60992	1.25891	1.09187	5.93202	4.04573	2.50614
52300	0.57818	0.57219	0.45792	2.24091	1.92314	1.68594	5.66779	3.52245	1.88603	1.19845	1.15891	1.05330	1.50103	1.19209	0.92730	5.63072	3.81050	2.37837
52470	0.48336	0.48976	0.35474	1.95803	1.76721	1.59552	5.53018	3.43206	1.76621	1.07845	1.01618	0.93389	1.36358	1.08396	0.90406	5.55755	3.68419	2.26351	25.81	6.1	0.00	7.37	0.01274	0.01291	0.01664	0.00781	0.00582	0.00638	0.00468	0.01267	0.01687	0.00679	0.00697	0.00895	0.01491	0.01097	0.01198	0.00217	0.00617	0.00869
52630	0.42478	0.41961	0.28558	1.90563	1.70194	1.46443	5.47850	3.35801	1.72821	0.99597	0.93646	0.82161	1.36318	1.06955	0.84650	5.49853	3.64502	2.26265
52790	0.40387	0.37795	0.25117	1.88191	1.69763	1.46389	5.43861	3.32980	1.73128	1.03568	1.06497	1.03798	1.40605	1.12864	0.91360	5.71764	3.89046	2.57227
52960	0.57607	0.52750	0.43137	2.27726	2.15261	1.93567	5.65422	3.58575	1.97925	1.50041	1.42349	1.47372	1.62110	1.31088	1.09521	5.91279	4.13451	2.66650
53120	0.68194	0.69968	0.54834	2.39617	2.14395	1.88302	5.76119	3.56503	1.97387	1.56091	1.33373	1.22754	1.55567	1.35256	1.14003	5.89068	4.09391	2.70595
53280	0.58366	0.54785	0.40995	2.14397	1.91855	1.65827	5.56472	3.46334	1.80527	1.17695	1.08792	1.04863	1.43030	1.23821	0.99273	5.61422	3.77142	2.36249
53450	0.48374	0.44125	0.32526	2.03811	1.76943	1.53316	5.52166	3.40111	1.76700	1.03004	0.96210	0.90467	1.34439	1.07515	0.84146	5.59276	3.67714	2.28746
53610	0.43020	0.43046	0.27724	1.90662	1.66484	1.40358	5.44224	3.31355	1.70229	0.93650	0.89514	0.83869	1.32563	1.06517	0.83812	5.45381	3.59659	2.18875
53770	0.38304	0.37334	0.25020	1.86330	1.65785	1.43241	5.43972	3.31172	1.69968	0.89448	0.86116	0.80906	1.29616	1.03358	0.82854	5.38294	3.59843	2.19110
53940	0.35724	0.34886	0.23382	1.82064	1.59131	1.37112	5.40985	3.28702	1.66988	0.91118	0.85598	0.77560	1.30051	1.03615	0.81159	5.42573	3.66141	2.22785
54100	0.38809	0.35391	0.23315	1.82112	1.69941	1.37618	5.43997	3.31748	1.68244	0.92745	0.85598	0.81183	1.29985	1.04416	0.83280	5.42423	3.59179	2.21519	25.75	6.0	0.00	7.40	0.01274	0.01291	0.01664	0.00781	0.00582	0.00638	0.00468	0.01267	0.01687	0.00679	0.00697	0.00895	0.01491	0.01097	0.01198	0.00217	0.00617	0.00869
54270	0.37272	0.37219	0.25089	1.88463	1.64415	1.37321	5.42128	3.29446	1.68028	0.88966	0.85743	0.78419	1.29910	1.02347	0.81687	5.39970	3.56739	2.17388
54430	0.36744	0.35505	0.23589	1.80286	1.61198	1.41436	5.41365	3.31909	1.69174	0.94295	0.91124	0.81791	1.33539	1.04011	0.83788	5.59757	3.74321	2.53292
54600	0.44025	0.43492	0.40415	2.09723	2.15976	1.69921	5.63326	3.48550	1.99822	1.68174	1.43530	1.48270	1.69365	1.49232	1.17612	6.22393	4.31196	3.15089
54760	0.84486	0.82091	0.72214	2.88512	2.45806	2.20908	5.91218	3.88752	2.23792	1.67025	1.63206	1.43715	1.82323	1.48990	1.21325	6.05569	4.21487	2.82226
54930	0.79655	0.76101	0.67654	2.61436	2.26637	2.00653	5.80896	3.83379	2.12662	1.73733	1.47819	1.25049	1.64129	1.36255	1.14300	6.02318	4.10709	2.66400
55090	0.63923	0.62020	0.48250	2.38262	2.24047	1.85241	5.65779	3.52197	1.86302	1.18594	1.21175	1.10039	1.51318	1.18907	0.92949	5.71405	3.82639	2.47306
55250	0.49397	0.44593	0.34531	2.03045	1.82086	1.53383	5.54354	3.42720	1.78167	1.13243	1.08572	0.94412	1.37449	1.10902	0.92700	5.50503	3.73062	2.31274
55420	0.42627	0.41449	0.28189	1.92816	1.70255	1.46077	5.46542	3.33501	1.72050	0.99965	0.96803	0.90023	1.34380	1.05685	0.84809	5.49314	3.63347	2.28490
55580	0.39196	0.37320	0.26654	1.94166	1.74273	1.45142	5.47690	3.36219	1.73023	0.97595	0.92762	0.85994	1.32395	1.05351	0.83926	5.50451	3.64404	2.19580
55750	0.38521	0.37468	0.23754	1.85379	1.63202	1.44358	5.43282	3.32201	1.71926	0.96823	0.90814	0.78541	1.30943	1.03152	0.82317	5.43960	3.59322	2.20099	25.81	6.1	0.00	7.33	0.01274	0.01291	0.01664	0.00781	0.00582	0.00638	0.00468	0.01267	0.01687	0.00679	0.00697	0.00895	0.01491	0.01097	0.01198	0.00217	0.00617	0.00869
55910	0.37295	0.35437	0.23566	1.83594	1.59962	1.36507	5.44008	3.31394	1.67633	0.92406	0.89676	0.77419	1.30024	1.02473	0.81492	5.41501	3.56747	2.15430
56070	0.37758	0.34765	0.22515	1.83850	1.59270	1.37330	5.40844	3.29178	1.66851	0.91865	0.82510	0.76872	1.28718	1.01648	0.80700	5.43378	3.57412	2.16649
56240	0.36173	0.34621	0.23326	1.80214	1.60908	1.35617	5.44979	3.27829	1.73017	0.87991	0.81050	0.76852	1.29859	1.01757	0.81092	5.44807	3.56543	2.18423
56400	0.38746	0.34918	0.22994	1.79224	1.59589	1.37722	5.44513	3.32801	1.67555	0.89497	0.81645	0.74001	1.29980	1.02983	0.80536	5.40535	3.57085	2.16840
56560	0.37382	0.35420	0.22078	1.82179	1.58868	1.31961	5.41580	3.29237	1.68347	0.86714	0.85332	0.75249	1.31446	1.03913	0.82146	5.44826	3.61111	2.20212
56730	0.36642	0.35061	0.23010	1.86929	1.65744	1.35577	5.40604	3.30521	1.66765	0.88493	0.91458	0.77128	1.29276	1.02637	0.80249	5.44729	3.64874	2.18991
56890	0.36046	0.33710	0.22174	1.82557	1.61543	1.36777	5.40836	3.30528	1.68316	0.88993	0.84286	0.79414	1.29341	1.03054	0.81425	5.39808	3.64074	2.22957
57060	0.37609	0.35980	0.23310	1.82542	1.61453	1.49504	5.43101	3.30131	1.69042	0.92470	0.84029	0.77612	1.35855	1.02857	0.81093	5.41334	3.58335	2.21788
57220	0.36798	0.35014	0.25096	1.83767	1.64723	1.36657	5.40616	3.28743	1.66719	0.91243	0.84189	0.74132	1.29369	1.02882	0.80790	5.41011	3.55792	2.19093
57390	0.36032	0.34533	0.21914	1.84171	1.58874	1.33840	5.39301	3.29952	1.67759	0.88151	0.84172	0.77385	1.28957	1.02291	0.80863	5.39655	3.57554	2.15132	25.81	6.1	0.00	7.35	0.01274	0.01291	0.01664	0.00781	0.00582	0.00638	0.00468	0.01267	0.01687	0.00679	0.00697	0.00895	0.01491	0.01097	0.01198	0.00217	0.00617	0.00869
57550	0.37574	0.34467	0.23672	1.82427	1.63368	1.39099	5.40622	3.30179	1.67063	0.88747	0.84000	0.74518	1.29156	1.03492	0.80571	5.40196	3.58921	2.19107
57710	0.36122	0.34372	0.22504	1.80015	1.60063	1.37097	5.41346	3.28235	1.65947	0.91752	0.83230	0.75064	1.33460	1.04695	0.81574	5.39578	3.58039	2.15975
57880	0.36949	0.34920	0.22138	1.81557	1.59859	1.33047	5.40409	3.30033	1.67192	0.86311	0.83244	0.75427	1.27545	1.01734	0.80917	5.38838	3.59334	2.19287
58040	0.36659	0.34434	0.22592	1.82713	1.60871	1.38005	5.39631	3.29189	1.68293	0.93299	0.85737	0.74015	1.30242	1.02676	0.81463	5.44745	3.56393	2.16450
58210	0.35897	0.34776	0.22764	1.82135	1.63084	1.34444	5.41720	3.30460	1.67901	0.92226	0.81149	0.75078	1.28556	1.02280	0.79726	5.38510	3.53659	2.17557
58370	0.36441	0.33482	0.22143	1.84661	1.61938	1.37910	5.40834	3.29797	1.67001	0.88703	0.83413	0.73835	1.28484	1.02002	0.80826	5.39494	3.58901	2.18324
58530	0.36006	0.35053	0.22937	1.78678	1.62770	1.36617	5.41842	3.30687	1.66357	0.91948	0.85124	0.76024	1.29404	1.03597	0.80256	5.40080	3.63038	2.28337
58700	0.38188	0.36287	0.25841	1.99759	1.83605	1.62846	5.49046	3.41051	1.80611	1.21420	1.13259	1.09556	1.43953	1.20396	1.02669	5.76970	4.07513	2.76775
58860	0.60839	0.59420	0.44567	2.39382	2.24825	2.01805	5.68487	3.61917	1.89119	1.45463	1.40942	1.29631	1.58516	1.28684	1.12374	5.97431	4.07972	2.75729
59030	0.62208	0.63333	0.49972	2.25527	2.01462	1.81559	5.74409	3.54065	1.89535	1.32728	1.22802	1.10059	1.48443	1.22354	0.99394	5.78748	3.96024	2.59882	25.81	6.1	0.00	7.34	0.01274	0.01291	0.01664	0.00781	0.00582	0.00638	0.00468	0.01267	0.01687	0.00679	0.00697	0.00895	0.01491	0.01097	0.01198	0.00217	0.00617	0.00869
59190	0.54773	0.51796	0.35609	2.08377	1.87280	1.63014	5.53874	3.43247	1.79564	1.16648	1.09544	1.07168	1.41493	1.12668	0.89881	5.58706	3.81049	2.38618
59350	0.42961	0.42577	0.26812	1.92333	1.76858	1.51820	5.49190	3.37890	1.73693	1.00028	0.90946	0.85767	1.35794	1.08327	0.86671	5.51590	3.68271	2.34050
59520	0.39853	0.37689	0.25141	1.90425	1.71557	1.42846	5.44272	3.33958	1.70548	0.95292	0.89347	0.81159	1.38386	1.04663	0.83940	5.46622	3.60231	2.24720
59680	0.38376	0.35813	0.25399	1.88177	1.64717	1.43795	5.43246	3.31768	1.68571	0.92227	0.85119	0.79913	1.31593	1.04876	0.81645	5.42723	3.56974	2.19798
59850	0.36578	0.33842	0.23393	1.79535	1.57681	1.38605	5.41198	3.29705	1.66082	0.90891	0.82142	0.74505	1.30202	1.01608	0.80676	5.40358	3.56056	2.14485
60010	0.35851	0.34192	0.22094	1.82753	1.58190	1.33357	5.40002	3.28519	1.64980	0.90448	0.79402	0.77262	1.28993	1.01224	0.80019	5.36502	3.60069	2.18545
60180	0.35932	0.35162	0.23114	1.83058	1.60293	1.34243	5.41631	3.29969	1.67027	0.90928	0.88569	0.82651	1.30194	1.02980	0.81353	5.40435	3.64037	2.19666
60340	0.37341	0.36118	0.22444	1.84692	1.68196	1.41788	5.40871	3.30905	1.68346	0.89440	0.85898	0.75592	1.31170	1.02847	0.81499	5.40300	3.55287	2.17699
60500	0.38130	0.37096	0.22754	1.82436	1.64307	1.37889	5.43577	3.29448	1.68045	0.90165	0.87046	0.78001	1.28682	1.01689	0.79212	5.36002	3.58370	2.20738
60670	0.35570	0.34817	0.22780	1.82611	1.60152	1.37114	5.41140	3.28581	1.66967	0.89914	0.82685	0.79203	1.29542	1.09309	0.82310	5.44873	3.62387	2.24380	25.75	6.1	0.00	7.35	0.01274	0.01291	0.01664	0.00781	0.00582	0.00637	0.00468	0.01267	0.01687	0.00679	0.00697	0.00895	0.01491	0.01097	0.01198	0.00217	0.00617	0.00869
60830	0.37389	0.38355	0.24907	1.87345	1.62142	1.43168	5.47476	3.51088	1.69328	0.92860	0.91510	0.90743	1.45935	1.05917	0.83749	5.47521	3.69003	2.25087
60990	0.40344	0.38158	0.27226	1.93821	1.69518	1.47950	5.47848	3.35818	1.73443	1.04587	0.98258	0.92797	1.36704	1.12930	0.89106	5.55192	3.76825	2.43817
61160	0.44315	0.41344	0.32949	2.08440	1.88014	1.78477	5.53286	3.47019	1.87406	1.14555	1.15144	1.20702	1.48811	1.23789	1.00670	5.73456	4.07912	2.58794
61320	0.54123	0.53666	0.46312	2.21624	2.02471	1.68995	5.60037	3.57229	1.90242	1.32102	1.40490	1.32624	1.61812	1.30686	1.07426	6.02304	4.12642	2.73200
61490	0.65436	0.64212	0.55539	2.31599	2.21883	1.97615	5.70287	3.58897	1.96904	1.52854	1.36593	1.20678	1.53630	1.26218	1.06055	5.83524	4.16400	2.75051
61650	0.63414	0.56766	0.44247	2.31846	2.00800	1.74798	5.61337	3.54750	1.88025	1.22358	1.12214	1.05709	1.43376	1.15726	0.96313	5.63752	3.90227	2.44097
61810	0.55190	0.47780	0.35489	2.08800	1.84231	1.51261	5.52896	3.39449	1.81644	1.04262	0.98348	0.92937	1.43106	1.14450	0.97409	5.54304	3.80726	2.56179
61980	0.56941	0.49342	0.39674	2.24858	2.02966	1.83350	5.65090	3.50077	1.91994	1.57208	1.55996	1.36982	1.53413	1.32237	1.13263	6.16550	4.39153	3.17725
62140	0.76770	0.72616	0.59793	2.58588	2.31315	2.11982	5.96726	3.77319	2.08426	1.60597	1.53315	1.54703	1.76644	1.42295	1.20664	6.12302	4.21642	2.80316
62310	0.75296	0.72437	0.62583	2.39225	2.23230	1.91079	5.74987	3.60344	2.01001	1.36679	1.20488	1.23650	1.59824	1.30163	1.05406	5.76583	3.96836	2.58507	25.81	6.1	0.00	7.33	0.01274	0.01291	0.01664	0.00781	0.00582	0.00637	0.00468	0.01267	0.01687	0.00679	0.00697	0.00895	0.01491	0.01097	0.01198	0.00217	0.00617	0.00869
62470	0.55116	0.50053	0.40445	2.15962	1.91591	1.62835	5.52132	3.40101	1.83168	1.08261	1.01945	0.94811	1.41091	1.12847	0.89749	5.56680	3.75517	2.40143
62630	0.45462	0.42667	0.28463	2.00560	1.76974	1.52676	5.48046	3.36969	1.76311	1.04835	0.95059	0.87080	1.35757	1.06361	0.83298	5.50211	3.68597	2.31740
62800	0.38846	0.39998	0.25551	1.91978	1.69458	1.43158	5.46181	3.34731	1.69133	0.97016	0.95085	0.90051	1.33569	1.07699	0.85429	5.51942	3.70586	2.28516
62960	0.41913	0.41749	0.27859	1.94496	1.69499	1.46437	5.48656	3.37367	1.77270	1.01907	0.91687	0.89568	1.38710	1.06547	0.85689	5.49568	3.68160	2.29417
63120	0.40634	0.37416	0.26659	1.90451	1.70354	1.47916	5.49910	3.35710	1.70818	1.01765	0.89737	0.81692	1.36051	1.11674	0.83899	5.43810	3.60844	2.24212
63290	0.40015	0.36788	0.22819	1.83727	1.61317	1.41870	5.44055	3.35670	1.69168	0.92592	0.82938	0.77908	1.30659	1.03591	0.81843	5.41075	3.58931	2.22543
63450	0.37740	0.36171	0.22961	1.84165	1.61267	1.37782	5.43278	3.31611	1.67689	0.91206	1.38027	0.78934	1.30280	1.04405	0.81510	5.43248	3.90061	2.24100
63620	0.37800	0.35474	0.23022	1.86023	1.66233	1.35948	5.44391	3.29591	1.67656	0.90590	0.85520	0.75762	1.29537	1.02662	0.81281	5.41809	3.58562	2.18726
63780	0.37600	0.35109	0.23288	1.86250	1.71776	1.54025	5.43886	3.32310	1.68964	0.94086	0.83799	0.79033	1.31157	1.03277	0.81460	5.42009	3.60741	2.21087
63950	0.36389	0.35335	0.23593	1.81091	1.63403	1.36328	5.43191	3.31490	1.68989	0.89950	0.82631	0.76957	1.31316	1.04975	0.81790	5.40616	3.60356	2.22318	25.81	6.1	0.00	7.35	0.01274	0.01291	0.01664	0.00781	0.00582	0.00638	0.00468	0.01267	0.01687	0.00679	0.00697	0.00894	0.01491	0.01097	0.01198	0.00217	0.00617	0.00869
64110	0.38762	0.35459	0.23138	1.86142	1.60278	1.33451	5.44336	3.29861	1.67754	0.89240	0.86508	0.79760	1.30021	1.03125	0.81398	5.41776	3.64321	2.70795
64270	0.37195	0.36331	0.23444	1.85383	1.67469	1.72024	5.43665	3.30475	1.67357	1.20703	0.86691	0.81705	1.31149	1.03515	0.83404	5.42272	3.60148	2.22141
64440	0.36903	0.36578	0.23498	1.82600	1.60223	1.38731	5.42104	3.29807	1.67784	0.91036	0.85412	0.76835	1.29209	1.02834	0.81294	5.43827	3.61900	2.19837
64600	0.35836	0.34245	0.22884	1.84603	1.62600	1.39122	5.43866	3.30417	1.68087	0.93264	0.86481	0.81981	1.29884	1.02953	0.80803	5.43685	3.61117	2.18164
64770	0.36978	0.35336	0.22684	1.81662	1.59856	1.40342	5.42025	3.31556	1.67366	0.93182	0.86919	0.80116	1.31711	1.02868	0.81405	5.44842	3.68186	2.34862
64930	0.39523	0.38149	0.24552	1.94733	1.75546	1.58471	5.49592	3.41457	1.77106	1.22092	1.20923	1.14678	1.46877	1.22944	1.02263	5.80373	4.05854	2.76253
65100	0.63694	0.59147	0.47988	2.46989	2.20931	1.91855	5.70705	3.57590	1.97742	1.55471	1.42036	1.42324	1.70148	1.37822	1.20600	6.01743	4.18428	2.79800
65260	0.71374	0.70547	0.53911	2.52288	2.13727	1.96516	5.71926	3.66648	2.07560	1.48993	1.41925	1.30157	1.58277	1.36945	1.07200	5.89878	4.11770	2.70255
65430	0.54871	0.52686	0.42769	2.12321	1.94838	1.63959	5.64357	3.47005	1.85378	1.29430	1.17603	1.04821	1.43551	1.17480	0.96541	5.63460	3.88978	2.42580
65590	0.47311	0.47187	0.33839	2.03527	1.80084	1.53963	5.51633	3.38623	1.72756	1.07625	0.98525	0.94482	1.35333	1.08938	0.86125	5.49764	3.66313	2.28492	25.81	6.1	0.00	7.31	0.01274	0.01291	0.01664	0.00781	0.00582	0.00638	0.00468	0.01267	0.01687	0.00679	0.00697	0.00895	0.01491	0.01097	0.01198	0.00217	0.00617	0.00869
65760	0.42160	0.40199	0.28374	1.92521	1.72831	1.51511	5.47509	3.39367	1.77761	0.98557	0.91913	0.83375	1.33711	1.07508	0.85408	5.45233	3.68028	2.27546
65920	0.42098	0.38388	0.30129	1.88815	1.70375	1.43773	5.46283	3.33000	1.72755	1.06632	0.99518	0.90391	1.32474	1.05537	0.82858	5.49121	3.66266	2.27723
66080	0.40547	0.37314	0.25241	1.92368	1.70263	1.41252	5.46263	3.32605	1.70053	0.90562	0.85890	0.80223	1.32078	1.05783	0.82677	5.47661	3.60945	2.19895
66250	0.37525	0.37859	0.25741	1.85664	1.61803	1.43698	5.44326	3.34228	1.68154	1.03524	0.97471	0.81282	1.40237	1.04907	0.84717	5.44974	3.64937	2.20738
66410	0.39982	0.36019	0.23614	1.87320	1.66973	1.42241	5.43052	3.32610	1.68983	0.92402	0.86991	0.79470	1.31272	1.06442	0.89414	5.46586	3.62490	2.26559
66580	0.38845	0.35679	0.23668	1.84208	1.67329	1.40457	5.43794	3.34299	1.70772	0.93536	0.87010	0.78518	1.30905	1.03841	0.82897	5.50076	3.63943	2.20216
66740	0.36933	0.34417	0.23361	1.82823	1.60861	1.37547	5.44330	3.32586	1.68198	0.92884	0.84049	0.77051	1.30253	1.02883	0.81669	5.42733	3.62296	2.20407
66900	0.37109	0.35939	0.22843	1.87545	1.63120	1.39544	5.41201	3.30409	1.68418	0.89432	0.82750	0.76470	1.29490	1.02683	0.80946	5.38967	3.58872	2.15996
