WetView ver 7.1	07-16-2018	23:30:16
AC9 Absorption and Attenuation Meter
00000266		; Serial number
2	; structure version number
Reserved
0.000000	0.000000		; Depth calibration
19200			; Baud rate
0.100000			; Path length (meters)
31			; number of temperature calibration bins
				12.59339	13.44920	14.48425	15.49668	16.50852	17.49564	18.50545	19.52458	20.50176	21.48889	22.47318	23.48707	24.50962	25.49370	26.49784	27.51372	28.50746	29.47237	30.47938	31.50214	32.50470	33.49235	34.50337	35.50914	36.50618	37.52058	38.51018	39.51308	40.49994	41.49866	42.47204	; temperature bins
a650	Blue	20.34952		-0.00383	-0.00415	-0.00430	-0.00391	-0.00363	-0.00317	-0.00269	-0.00237	-0.00179	-0.00130	-0.00099	-0.00071	-0.00015	0.00000	0.00004	-0.00001	0.00015	0.00036	0.00058	0.00101	0.00161	0.00132	0.00160	0.00169	0.00242	0.00273	0.00336	0.00365	0.00427	0.00566	0.00670		; offset and temperature correction info
a676	Green	20.51193		-0.00398	-0.00384	-0.00360	-0.00306	-0.00302	-0.00255	-0.00235	-0.00212	-0.00163	-0.00136	-0.00118	-0.00089	-0.00029	0.00000	0.00068	0.00082	0.00099	0.00137	0.00145	0.00212	0.00260	0.00252	0.00321	0.00354	0.00457	0.00535	0.00617	0.00648	0.00742	0.00887	0.01002		; offset and temperature correction info
a715	Brown	20.23230		-0.00421	-0.00394	-0.00391	-0.00291	-0.00264	-0.00192	-0.00204	-0.00179	-0.00188	-0.00239	-0.00180	-0.00187	-0.00099	0.00000	0.00084	0.00162	0.00188	0.00224	0.00321	0.00381	0.00466	0.00528	0.00588	0.00696	0.00859	0.01041	0.01148	0.01282	0.01333	0.01456	0.01617		; offset and temperature correction info
c510	Red	20.40042		-0.00261	-0.00247	-0.00258	-0.00225	-0.00203	-0.00197	-0.00199	-0.00203	-0.00154	-0.00103	-0.00069	-0.00019	-0.00007	0.00000	0.00011	-0.00021	-0.00042	-0.00056	-0.00040	0.00011	0.00036	0.00050	0.00077	0.00079	0.00050	0.00042	0.00043	0.00092	0.00147	0.00200	0.00232		; offset and temperature correction info
c532	Magenta	20.40760		-0.00248	-0.00265	-0.00278	-0.00279	-0.00296	-0.00292	-0.00238	-0.00206	-0.00129	-0.00096	-0.00092	-0.00052	-0.00009	0.00000	0.00007	-0.00049	-0.00136	-0.00107	-0.00079	-0.00065	-0.00074	-0.00105	-0.00152	-0.00192	-0.00236	-0.00269	-0.00252	-0.00233	-0.00172	-0.00128	-0.00067		; offset and temperature correction info
c555	Black	20.50654		-0.00053	-0.00063	-0.00106	-0.00094	-0.00068	-0.00055	-0.00053	-0.00039	-0.00028	-0.00025	-0.00011	-0.00035	-0.00007	0.00000	-0.00037	-0.00055	-0.00036	-0.00014	0.00019	0.00044	0.00032	0.00040	0.00050	0.00028	0.00014	0.00013	0.00030	0.00073	0.00117	0.00176	0.00241		; offset and temperature correction info
a412	LtBlue	17.15231		-0.01972	-0.01823	-0.01612	-0.01381	-0.01272	-0.01080	-0.00959	-0.00866	-0.00710	-0.00532	-0.00354	-0.00148	-0.00028	0.00000	0.00176	0.00297	0.00394	0.00440	0.00453	0.00487	0.00804	0.00856	0.01065	0.01248	0.01388	0.01439	0.01659	0.01881	0.02256	0.02450	0.02719		; offset and temperature correction info
a440	LtGreen	18.00171		-0.00729	-0.00642	-0.00581	-0.00502	-0.00426	-0.00349	-0.00244	-0.00218	-0.00179	-0.00101	-0.00046	-0.00006	0.00036	0.00000	0.00040	0.00045	0.00030	-0.00015	-0.00024	-0.00035	0.00012	-0.00013	-0.00033	-0.00089	-0.00142	-0.00189	-0.00231	-0.00205	-0.00140	-0.00140	-0.00146		; offset and temperature correction info
a488	Yellow	18.86491		-0.00113	-0.00102	-0.00106	-0.00064	-0.00027	-0.00020	-0.00030	-0.00037	-0.00047	-0.00059	-0.00052	-0.00012	0.00008	0.00000	0.00025	0.00012	-0.00013	-0.00043	-0.00065	-0.00076	-0.00025	0.00010	0.00090	0.00111	0.00113	0.00104	0.00073	0.00068	0.00120	0.00186	0.00258		; offset and temperature correction info
c650	Blue	20.46075		-0.00145	-0.00097	-0.00092	-0.00139	-0.00185	-0.00196	-0.00237	-0.00266	-0.00238	-0.00163	-0.00083	-0.00041	-0.00010	0.00000	0.00005	-0.00001	0.00015	0.00034	0.00029	0.00065	0.00101	0.00164	0.00126	0.00156	0.00175	0.00270	0.00287	0.00371	0.00407	0.00473	0.00534		; offset and temperature correction info
c676	Green	20.10118		-0.00170	-0.00144	-0.00149	-0.00177	-0.00188	-0.00194	-0.00198	-0.00196	-0.00177	-0.00156	-0.00140	-0.00091	-0.00033	0.00000	0.00050	0.00092	0.00110	0.00141	0.00167	0.00199	0.00216	0.00265	0.00269	0.00289	0.00315	0.00374	0.00367	0.00408	0.00486	0.00561	0.00646		; offset and temperature correction info
c715	Brown	19.91219		-0.01201	-0.01097	-0.00859	-0.00680	-0.00651	-0.00592	-0.00535	-0.00440	-0.00387	-0.00303	-0.00222	-0.00153	-0.00028	0.00000	0.00093	0.00149	0.00247	0.00322	0.00330	0.00427	0.00373	0.00464	0.00536	0.00551	0.00643	0.00733	0.00779	0.00884	0.00899	0.01021	0.01120		; offset and temperature correction info
a510	Red	19.21192		0.00201	0.00193	0.00158	0.00098	0.00089	0.00049	0.00011	-0.00016	-0.00016	-0.00005	0.00028	0.00025	0.00006	0.00000	0.00035	-0.00022	-0.00023	-0.00080	-0.00144	-0.00154	-0.00153	-0.00204	-0.00220	-0.00219	-0.00190	-0.00128	-0.00069	-0.00018	0.00068	0.00152	0.00241		; offset and temperature correction info
a532	Magenta	19.41084		-0.00097	-0.00072	-0.00060	-0.00081	-0.00062	-0.00071	-0.00040	0.00020	0.00028	0.00043	0.00000	-0.00035	0.00007	0.00000	-0.00011	-0.00059	-0.00080	-0.00098	-0.00137	-0.00162	-0.00163	-0.00130	-0.00073	-0.00018	0.00090	0.00185	0.00175	0.00247	0.00291	0.00327	0.00349		; offset and temperature correction info
a555	Black	19.69776		0.00171	0.00183	0.00183	0.00186	0.00191	0.00170	0.00115	0.00131	0.00097	0.00073	0.00060	0.00013	0.00015	0.00000	0.00014	-0.00029	-0.00066	-0.00082	-0.00116	-0.00139	-0.00134	-0.00167	-0.00119	-0.00093	-0.00048	0.00053	0.00111	0.00095	0.00178	0.00206	0.00273		; offset and temperature correction info
c412	LtBlue	19.91180		-0.02051	-0.01853	-0.01589	-0.01311	-0.01059	-0.00877	-0.00705	-0.00581	-0.00413	-0.00231	-0.00098	-0.00066	-0.00011	0.00000	-0.00013	-0.00085	-0.00170	-0.00170	-0.00302	-0.00330	-0.00429	-0.00551	-0.00626	-0.00775	-0.00978	-0.01181	-0.01113	-0.01108	-0.01116	-0.01192	-0.01291		; offset and temperature correction info
c440	LtGreen	20.06241		-0.01064	-0.00992	-0.00892	-0.00766	-0.00639	-0.00531	-0.00478	-0.00384	-0.00287	-0.00187	-0.00102	-0.00063	-0.00023	0.00000	-0.00007	-0.00053	-0.00090	-0.00119	-0.00169	-0.00197	-0.00226	-0.00257	-0.00260	-0.00289	-0.00394	-0.00470	-0.00481	-0.00493	-0.00520	-0.00580	-0.00620		; offset and temperature correction info
c488	Yellow	20.35984		-0.01125	-0.01082	-0.00966	-0.00833	-0.00726	-0.00661	-0.00579	-0.00500	-0.00389	-0.00278	-0.00167	-0.00113	-0.00041	0.00000	0.00055	0.00121	0.00187	0.00226	0.00222	0.00251	0.00281	0.00359	0.00414	0.00427	0.00401	0.00404	0.00486	0.00563	0.00638	0.00684	0.00718		; offset and temperature correction info
0.003500	0.004000	0.015000	0.020000	0.015000	0.020000	2500.000000	2000.000000	1000.000000	; maxANoise	maxCNoise	maxADifference	maxCDifference	minACounts	minCCounts	minRCounts	maxTempSdev	maxDepthSdev
0			; auxilliary capabilities
1			; acquisition binsize
0	0.11449	0.12195	0.08121	0.39013	0.43792	0.38819	0.79675	0.49473	0.29281	0.36327	0.35988	0.35383	0.23643	0.22076	0.18178	0.25606	0.32685	0.41654	25.21	6.0	0.00	7.23	0.01281	0.01297	0.01677	0.00806	0.00600	0.00656	0.00473	0.01277	0.01699	0.00697	0.00716	0.00919	0.01501	0.01104	0.01206	0.00226	0.00641	0.00898
170	0.11179	0.12538	0.08339	0.39069	0.43898	0.38961	0.80115	0.49706	0.29366	0.36486	0.36097	0.35481	0.23896	0.22333	0.18153	0.25923	0.32864	0.41756
330	0.11317	0.12149	0.08058	0.38844	0.43642	0.38769	0.79157	0.49357	0.29224	0.36249	0.35983	0.35248	0.23716	0.22289	0.17920	0.25949	0.32747	0.41726
500	0.11355	0.12252	0.08254	0.38814	0.43784	0.38719	0.79083	0.49411	0.29298	0.36271	0.35946	0.35276	0.23473	0.22042	0.18090	0.25709	0.32697	0.41665
660	0.11205	0.11989	0.07981	0.38738	0.43517	0.38474	0.79400	0.49163	0.29007	0.36104	0.35738	0.35075	0.23546	0.22450	0.18135	0.26149	0.32987	0.41968
830	0.11590	0.12339	0.08309	0.39019	0.43786	0.38870	0.79734	0.49668	0.29353	0.36348	0.35995	0.35244	0.23766	0.22085	0.18229	0.25983	0.32782	0.41648
990	0.11209	0.12216	0.08208	0.38807	0.43722	0.38644	0.79368	0.49390	0.29303	0.36359	0.35872	0.35247	0.23574	0.22248	0.18126	0.25791	0.32741	0.41599
1150	0.11350	0.12315	0.08123	0.38790	0.43695	0.38672	0.79545	0.49596	0.29317	0.36319	0.35895	0.35319	0.23643	0.21943	0.18043	0.25709	0.32651	0.41601
1320	0.11142	0.12183	0.07856	0.38677	0.43560	0.38461	0.79516	0.49420	0.29242	0.36075	0.35678	0.35081	0.23619	0.22212	0.17922	0.25824	0.32699	0.41647
1480	0.11342	0.12267	0.08197	0.38704	0.43614	0.38586	0.78889	0.49446	0.29153	0.36113	0.35740	0.35147	0.24045	0.22406	0.18019	0.26079	0.32774	0.41831
1650	0.11409	0.12390	0.08336	0.38900	0.43744	0.38644	0.79521	0.49760	0.29251	0.36162	0.35894	0.35129	0.24007	0.22356	0.18239	0.25420	0.32656	0.41570	25.21	6.0	0.00	7.61	0.01281	0.01297	0.01677	0.00806	0.00600	0.00656	0.00473	0.01277	0.01699	0.00697	0.00716	0.00919	0.01501	0.01104	0.01206	0.00226	0.00641	0.00898
1810	0.11112	0.12324	0.08185	0.38656	0.43739	0.38773	0.80136	0.49903	0.29478	0.36325	0.36026	0.35226	0.23802	0.22411	0.18253	0.25653	0.32786	0.41734
1980	0.11322	0.12286	0.08108	0.38686	0.43511	0.38430	0.79172	0.49405	0.29060	0.35975	0.35720	0.35000	0.24149	0.22299	0.18337	0.25542	0.32829	0.41767
2140	0.11600	0.12533	0.08294	0.38881	0.43691	0.38605	0.80628	0.49495	0.29509	0.36164	0.35980	0.35100	0.23740	0.22256	0.18320	0.25424	0.32666	0.41510
2310	0.11453	0.12285	0.08179	0.38745	0.43593	0.38610	0.79288	0.49711	0.29446	0.36053	0.35791	0.35067	0.23727	0.22312	0.17825	0.25384	0.32512	0.41456
2470	0.11075	0.12241	0.08134	0.38413	0.43242	0.38282	0.79411	0.49401	0.29111	0.35697	0.35529	0.34818	0.23425	0.22138	0.17883	0.24856	0.32250	0.41168
2630	0.11313	0.12445	0.08345	0.38618	0.43441	0.38630	0.79629	0.49798	0.29475	0.35993	0.35756	0.35074	0.23556	0.22409	0.18178	0.25295	0.32504	0.41356
2800	0.11106	0.12295	0.08071	0.38458	0.43346	0.38277	0.79470	0.49362	0.29011	0.35640	0.35492	0.34781	0.23546	0.22032	0.18105	0.24915	0.32212	0.41041
2960	0.11318	0.12471	0.08263	0.38640	0.43596	0.38650	0.79944	0.49812	0.29491	0.36089	0.35935	0.35107	0.24149	0.22670	0.18341	0.25413	0.32696	0.41587
3120	0.11319	0.12331	0.08165	0.38614	0.43411	0.38349	0.79219	0.49375	0.29312	0.35717	0.35540	0.34760	0.23706	0.22249	0.18043	0.25262	0.32521	0.41374
3290	0.11243	0.12192	0.08215	0.38432	0.43286	0.38298	0.79368	0.49448	0.29352	0.35699	0.35520	0.34747	0.23616	0.22213	0.17855	0.24940	0.32307	0.41092	25.21	6.2	0.00	7.38	0.01281	0.01297	0.01677	0.00806	0.00600	0.00656	0.00473	0.01277	0.01699	0.00697	0.00716	0.00919	0.01501	0.01104	0.01206	0.00226	0.00641	0.00898
3450	0.11246	0.12085	0.07949	0.38199	0.42964	0.38040	0.79110	0.48880	0.28858	0.35491	0.35392	0.34522	0.23426	0.22168	0.18076	0.24962	0.32469	0.41338
3620	0.11355	0.12374	0.08154	0.38493	0.43304	0.38237	0.78967	0.49493	0.29132	0.35673	0.35555	0.34684	0.23677	0.22109	0.18095	0.25010	0.32398	0.41258
3780	0.11231	0.12229	0.08043	0.38298	0.43094	0.38087	0.79309	0.49174	0.28880	0.35544	0.35345	0.34578	0.23873	0.22181	0.18318	0.24977	0.32716	0.41510
3940	0.11399	0.12485	0.08302	0.38612	0.43389	0.38380	0.79493	0.49375	0.29307	0.35757	0.35615	0.34761	0.23825	0.22265	0.18244	0.25080	0.32385	0.41217
4110	0.11198	0.12238	0.08220	0.38469	0.43417	0.38355	0.79124	0.49378	0.29174	0.35708	0.35563	0.34733	0.23670	0.22030	0.17926	0.25003	0.32363	0.41137
4270	0.11186	0.12022	0.07829	0.38291	0.43065	0.37988	0.79476	0.48940	0.28856	0.35374	0.35289	0.34438	0.23648	0.22081	0.18119	0.25058	0.32537	0.41306
4440	0.11463	0.12220	0.08227	0.38532	0.43467	0.38427	0.79803	0.49599	0.29301	0.35734	0.35651	0.34735	0.23719	0.22067	0.18367	0.25173	0.32521	0.41265
4600	0.11262	0.12232	0.08234	0.38515	0.43361	0.38237	0.79564	0.49700	0.29196	0.35653	0.35531	0.34674	0.23894	0.22354	0.18234	0.25272	0.32674	0.41371
4770	0.11666	0.12289	0.08307	0.38590	0.43427	0.38398	0.79338	0.49647	0.29304	0.35725	0.35693	0.34773	0.23705	0.22103	0.18193	0.24988	0.32391	0.41222
4930	0.10893	0.12477	0.08195	0.38308	0.43540	0.38361	0.79071	0.49599	0.29511	0.35860	0.35785	0.34846	0.23827	0.22329	0.18334	0.25420	0.32532	0.41360	25.15	6.2	0.00	7.27	0.01281	0.01297	0.01677	0.00806	0.00600	0.00656	0.00473	0.01277	0.01699	0.00696	0.00716	0.00919	0.01501	0.01104	0.01206	0.00226	0.00641	0.00898
5100	0.11238	0.12282	0.07992	0.38414	0.43355	0.38174	0.79162	0.49169	0.29082	0.35508	0.35430	0.34555	0.23961	0.22291	0.18391	0.25667	0.32686	0.41468
5260	0.11435	0.12492	0.08317	0.38644	0.43541	0.38369	0.79702	0.49565	0.29315	0.35650	0.35477	0.34724	0.23612	0.22104	0.18095	0.25365	0.32420	0.41147
5430	0.11306	0.12437	0.08286	0.38558	0.43529	0.38482	0.79815	0.49749	0.29459	0.35747	0.35561	0.34828	0.23812	0.22171	0.18321	0.25250	0.32504	0.41324
5590	0.11172	0.11962	0.08147	0.38436	0.43213	0.38109	0.79262	0.49171	0.28984	0.35552	0.35406	0.34646	0.23647	0.22341	0.18034	0.25121	0.32460	0.41351
5760	0.11376	0.12286	0.08166	0.38473	0.43313	0.38170	0.79343	0.49466	0.29192	0.35597	0.35379	0.34611	0.23580	0.22066	0.18102	0.24985	0.32296	0.41080
5920	0.11035	0.12119	0.07986	0.38165	0.43235	0.37895	0.78771	0.49174	0.29015	0.35290	0.35316	0.34491	0.23918	0.22457	0.18460	0.25512	0.32715	0.41564
6080	0.11613	0.12549	0.08386	0.38666	0.43635	0.38394	0.80492	0.49483	0.29355	0.35777	0.35687	0.34783	0.23886	0.22245	0.18081	0.25261	0.32429	0.41233
6250	0.11412	0.12553	0.08465	0.38746	0.43823	0.38625	0.80292	0.50008	0.29802	0.35980	0.35809	0.35055	0.23783	0.22580	0.18378	0.25527	0.32671	0.41472
6410	0.11291	0.12365	0.08180	0.38562	0.43480	0.38261	0.79778	0.49623	0.29387	0.35607	0.35427	0.34667	0.23575	0.22134	0.18162	0.25128	0.32291	0.41193
6570	0.11158	0.12176	0.08169	0.38446	0.43376	0.38194	0.79212	0.49437	0.29089	0.35459	0.35184	0.34533	0.23659	0.22071	0.17916	0.25360	0.32236	0.41047	25.15	6.1	0.00	7.26	0.01281	0.01297	0.01677	0.00806	0.00600	0.00656	0.00473	0.01277	0.01699	0.00697	0.00716	0.00919	0.01501	0.01104	0.01206	0.00226	0.00641	0.00898
6740	0.11087	0.12122	0.07936	0.38368	0.43315	0.38205	0.80655	0.49492	0.29161	0.35486	0.35261	0.34554	0.23380	0.22190	0.17781	0.25316	0.32147	0.40919
6900	0.11242	0.12421	0.08410	0.38665	0.43728	0.38602	0.80097	0.50025	0.29634	0.35998	0.35653	0.34953	0.24076	0.22520	0.18441	0.25910	0.32698	0.41425
7060	0.11372	0.12395	0.08125	0.38626	0.43492	0.38336	0.79524	0.49463	0.29474	0.35621	0.35438	0.34622	0.23839	0.22356	0.17886	0.25656	0.32435	0.41210
7230	0.10973	0.12125	0.08151	0.38421	0.43329	0.38209	0.79286	0.49497	0.29158	0.35581	0.35271	0.34593	0.23364	0.22043	0.17917	0.25331	0.32309	0.41107
7390	0.11091	0.12106	0.08060	0.38411	0.43275	0.38169	0.78954	0.49388	0.29141	0.35563	0.35285	0.34616	0.23435	0.21871	0.17845	0.25460	0.32238	0.41041
7550	0.11234	0.12529	0.08272	0.38731	0.43725	0.38598	0.79994	0.50206	0.29594	0.35955	0.35755	0.34894	0.23810	0.22354	0.18290	0.25888	0.32768	0.41583
7720	0.11317	0.12311	0.08089	0.38647	0.43513	0.38375	0.79143	0.49506	0.29177	0.35691	0.35341	0.34681	0.23677	0.22081	0.18074	0.25508	0.32397	0.41158
7880	0.11204	0.12219	0.08105	0.38410	0.43314	0.38194	0.78885	0.49485	0.28947	0.35620	0.35323	0.34521	0.23509	0.21970	0.17885	0.25342	0.32209	0.41079
8050	0.10950	0.12345	0.08172	0.38334	0.43470	0.38507	0.79227	0.49509	0.29511	0.35835	0.35452	0.34787	0.23756	0.22446	0.18058	0.25837	0.32600	0.41455
8210	0.11094	0.12427	0.08129	0.38473	0.43350	0.38212	0.79849	0.49179	0.29197	0.35589	0.35402	0.34600	0.23394	0.21981	0.18019	0.25320	0.32366	0.41168	25.15	5.9	0.00	7.60	0.01281	0.01297	0.01677	0.00806	0.00600	0.00656	0.00473	0.01277	0.01699	0.00696	0.00716	0.00919	0.01501	0.01104	0.01206	0.00226	0.00641	0.00898
8370	0.10945	0.12070	0.08407	0.38351	0.43540	0.38581	0.79868	0.50091	0.29649	0.35952	0.35729	0.34939	0.24089	0.22364	0.18432	0.25800	0.32722	0.41619
8540	0.11345	0.12366	0.08120	0.38680	0.43451	0.38332	0.80227	0.49419	0.29209	0.35669	0.35385	0.34560	0.23622	0.22396	0.18333	0.25844	0.32649	0.41603
8700	0.11330	0.12502	0.08291	0.38763	0.43548	0.38429	0.80205	0.49634	0.29322	0.35750	0.35533	0.34710	0.23597	0.22139	0.17976	0.25449	0.32353	0.41261
8860	0.11019	0.12098	0.07955	0.38416	0.43176	0.37980	0.79224	0.49327	0.28697	0.35460	0.35159	0.34449	0.23658	0.22451	0.18283	0.25826	0.32813	0.41597
9030	0.11328	0.12352	0.08220	0.38716	0.43403	0.38318	0.80146	0.49791	0.29325	0.35674	0.35467	0.34617	0.23434	0.22168	0.17849	0.25335	0.32418	0.41319
9190	0.11178	0.12347	0.08245	0.38684	0.43573	0.38428	0.79991	0.49772	0.29301	0.35776	0.35506	0.34627	0.23496	0.22181	0.18002	0.25427	0.32566	0.41377
9360	0.11106	0.12310	0.08115	0.38571	0.43389	0.38314	0.79672	0.49552	0.29348	0.35783	0.35415	0.34566	0.23406	0.21993	0.17942	0.25360	0.32401	0.41217
9520	0.11266	0.12516	0.08282	0.38935	0.43753	0.38590	0.80616	0.50019	0.29575	0.35970	0.35589	0.34794	0.23960	0.22573	0.18338	0.25863	0.32851	0.41547
9680	0.11536	0.12249	0.08210	0.38715	0.43405	0.38287	0.79726	0.49437	0.29233	0.35638	0.35284	0.34517	0.23733	0.22604	0.18274	0.25818	0.32832	0.41593
9850	0.11235	0.12355	0.08203	0.38722	0.43508	0.38353	0.80182	0.49512	0.29270	0.35520	0.35293	0.34622	0.23599	0.22168	0.18099	0.25775	0.32612	0.41417	25.21	6.2	0.00	7.34	0.01281	0.01297	0.01677	0.00806	0.00600	0.00656	0.00473	0.01277	0.01699	0.00696	0.00716	0.00919	0.01501	0.01104	0.01206	0.00226	0.00641	0.00898
10010	0.11055	0.11960	0.07903	0.38514	0.43225	0.38121	0.79137	0.49036	0.28867	0.35506	0.35175	0.34310	0.23460	0.22303	0.18287	0.25930	0.32925	0.41656
10180	0.11277	0.12485	0.08249	0.38866	0.43647	0.38446	0.79926	0.49413	0.29499	0.35759	0.35577	0.34708	0.23545	0.22256	0.18122	0.25864	0.32626	0.41409
10340	0.11602	0.12606	0.08372	0.38951	0.43785	0.38661	0.79886	0.49944	0.29443	0.35929	0.35558	0.34859	0.23969	0.22497	0.18227	0.26034	0.32862	0.41577
10510	0.11252	0.12197	0.08188	0.38709	0.43472	0.38286	0.79309	0.49574	0.29101	0.35638	0.35340	0.34517	0.23911	0.22184	0.18193	0.25930	0.32796	0.41534
10670	0.10996	0.12316	0.08083	0.38762	0.43576	0.38455	0.79063	0.49437	0.29126	0.35614	0.35377	0.34613	0.23650	0.22097	0.18206	0.25794	0.32621	0.41466
10830	0.11130	0.12345	0.07977	0.38528	0.43364	0.38105	0.79127	0.49147	0.28876	0.35506	0.35101	0.34390	0.23667	0.22182	0.18082	0.25904	0.32716	0.41549
11000	0.11165	0.12375	0.08259	0.38701	0.43620	0.38448	0.80159	0.49424	0.29247	0.35709	0.35442	0.34719	0.24090	0.22278	0.18102	0.26004	0.32895	0.41652
11160	0.11369	0.12350	0.07921	0.38793	0.43597	0.38367	0.78680	0.49310	0.29216	0.35653	0.35300	0.34575	0.23858	0.22478	0.18392	0.26203	0.32972	0.41781
11330	0.11485	0.12565	0.08111	0.38906	0.43717	0.38585	0.79329	0.49766	0.29324	0.35656	0.35524	0.34697	0.23714	0.21984	0.18090	0.25915	0.32775	0.41506
11500	0.11247	0.12389	0.08287	0.38684	0.43761	0.38629	0.79502	0.49896	0.29366	0.35909	0.35643	0.34806	0.23937	0.22399	0.18269	0.26091	0.33109	0.41681	25.27	6.2	0.00	7.22	0.01281	0.01297	0.01677	0.00806	0.00600	0.00656	0.00473	0.01277	0.01699	0.00697	0.00716	0.00919	0.01501	0.01104	0.01206	0.00226	0.00641	0.00898
11660	0.11285	0.12357	0.08019	0.38837	0.43661	0.38346	0.79836	0.49535	0.29134	0.35624	0.35430	0.34583	0.23814	0.22504	0.18430	0.26180	0.33220	0.41918
11820	0.11503	0.12411	0.08342	0.39108	0.43841	0.38637	0.79507	0.49844	0.29460	0.35839	0.35658	0.34776	0.23851	0.22334	0.18321	0.25911	0.32981	0.41683
11990	0.11462	0.12553	0.08325	0.39089	0.43943	0.38739	0.80195	0.49835	0.29406	0.35921	0.35685	0.34873	0.23816	0.22468	0.18343	0.26228	0.33201	0.41795
12150	0.11273	0.11988	0.08024	0.38890	0.43719	0.38419	0.79676	0.49423	0.29162	0.35615	0.35358	0.34608	0.23593	0.22256	0.17768	0.25922	0.32782	0.41445
12310	0.11327	0.12533	0.08386	0.38981	0.43939	0.38797	0.80055	0.49952	0.29637	0.35918	0.35778	0.34872	0.24109	0.22778	0.18362	0.26450	0.33259	0.41926
12480	0.11188	0.12223	0.08048	0.38936	0.43730	0.38501	0.79745	0.49523	0.29158	0.35649	0.35487	0.34597	0.23494	0.22240	0.18029	0.26007	0.32898	0.41523
12640	0.11498	0.12491	0.08100	0.38996	0.43919	0.38711	0.80466	0.49676	0.29550	0.35795	0.35667	0.34882	0.23912	0.22432	0.18393	0.26213	0.33285	0.41879
12800	0.11214	0.11961	0.08135	0.38879	0.43714	0.38494	0.79939	0.49338	0.29041	0.35641	0.35492	0.34609	0.23501	0.22050	0.17953	0.26032	0.32937	0.41467
12960	0.11274	0.12214	0.07967	0.38907	0.43759	0.38547	0.79526	0.49609	0.29231	0.35666	0.35594	0.34647	0.23645	0.22124	0.17958	0.26173	0.32976	0.41570
13130	0.11011	0.11919	0.08041	0.38593	0.43603	0.38326	0.79775	0.49435	0.29208	0.35510	0.35503	0.34563	0.23362	0.22174	0.17860	0.25961	0.32936	0.41466	25.21	6.2	0.00	7.40	0.01281	0.01297	0.01677	0.00806	0.00600	0.00656	0.00473	0.01277	0.01699	0.00697	0.00716	0.00919	0.01501	0.01104	0.01206	0.00226	0.00641	0.00898
13290	0.10890	0.12038	0.07909	0.38523	0.43483	0.38079	0.79376	0.49346	0.28901	0.35333	0.35387	0.34316	0.23807	0.22159	0.18169	0.26308	0.33206	0.41756
13460	0.11098	0.12285	0.08369	0.38775	0.43736	0.38433	0.79819	0.49546	0.29285	0.35611	0.35617	0.34589	0.23787	0.22051	0.17959	0.26042	0.32955	0.41483
13620	0.10994	0.12175	0.07968	0.38531	0.43283	0.38158	0.78910	0.49016	0.28746	0.35298	0.35262	0.34306	0.23844	0.22288	0.18509	0.26374	0.33426	0.41984
13780	0.11531	0.12563	0.08268	0.39014	0.43859	0.38599	0.79730	0.49774	0.29325	0.35706	0.35696	0.34762	0.23793	0.22276	0.18210	0.26149	0.33200	0.41711
13950	0.11128	0.12309	0.08106	0.38679	0.43725	0.38470	0.79345	0.49534	0.29228	0.35491	0.35461	0.34632	0.23829	0.22345	0.17977	0.26389	0.33037	0.41628
14110	0.10982	0.12316	0.07997	0.38649	0.43484	0.38270	0.79811	0.49191	0.28991	0.35391	0.35404	0.34453	0.23620	0.22243	0.17950	0.26182	0.32986	0.41572
14280	0.11094	0.12291	0.08014	0.38767	0.43680	0.38501	0.80087	0.49755	0.29056	0.35599	0.35763	0.34632	0.23989	0.22223	0.18151	0.26215	0.33126	0.41607
14440	0.11230	0.12373	0.07992	0.38860	0.43709	0.38486	0.79593	0.49592	0.29078	0.35543	0.35677	0.34628	0.23920	0.22316	0.18230	0.26341	0.33241	0.41725
14610	0.11362	0.12416	0.08182	0.38942	0.43825	0.38551	0.79411	0.49421	0.29326	0.35636	0.35675	0.34729	0.23889	0.22268	0.17988	0.26057	0.32996	0.41489
14770	0.10936	0.12243	0.08153	0.38741	0.43839	0.38664	0.79721	0.49442	0.29597	0.35806	0.35829	0.34765	0.24137	0.22357	0.18351	0.26546	0.33109	0.41762	25.21	6.2	0.00	7.29	0.01281	0.01297	0.01677	0.00806	0.00600	0.00656	0.00472	0.01277	0.01699	0.00696	0.00716	0.00919	0.01501	0.01104	0.01206	0.00226	0.00641	0.00898
14940	0.11335	0.12401	0.08095	0.38791	0.43681	0.38398	0.78825	0.49469	0.29042	0.35562	0.35460	0.34595	0.23721	0.22323	0.18390	0.26590	0.33252	0.41828
15100	0.11559	0.12327	0.08296	0.39056	0.43940	0.38695	0.79517	0.49898	0.29545	0.35771	0.35724	0.34821	0.23634	0.22215	0.18218	0.26376	0.33056	0.41627
15270	0.11402	0.12469	0.08379	0.38861	0.43821	0.38545	0.79105	0.49568	0.29314	0.35686	0.35706	0.34772	0.23945	0.22240	0.18165	0.26261	0.33005	0.41513
15430	0.11146	0.12254	0.08094	0.38742	0.43691	0.38410	0.79227	0.49207	0.29179	0.35531	0.35495	0.34614	0.23585	0.22211	0.17884	0.26235	0.32781	0.41287
15590	0.11294	0.12508	0.08404	0.38886	0.44039	0.38701	0.80147	0.49985	0.29587	0.35735	0.35707	0.34887	0.23773	0.22612	0.18015	0.26634	0.33184	0.41671
15760	0.11248	0.12395	0.08179	0.38805	0.43696	0.38339	0.79623	0.49447	0.29164	0.35494	0.35602	0.34674	0.23677	0.22345	0.18266	0.26475	0.33093	0.41617
15920	0.11275	0.12059	0.08085	0.38712	0.43790	0.38509	0.79336	0.49551	0.29163	0.35510	0.35543	0.34624	0.23600	0.22109	0.18048	0.26383	0.32820	0.41367
16090	0.11090	0.12090	0.08021	0.38464	0.43480	0.38180	0.78677	0.49328	0.28818	0.35324	0.35397	0.34429	0.23687	0.22435	0.18414	0.26623	0.33257	0.41747
16250	0.11384	0.12315	0.08189	0.38953	0.43861	0.38519	0.79512	0.49529	0.29365	0.35669	0.35692	0.34748	0.23664	0.22185	0.17970	0.26239	0.32906	0.41392
16410	0.11286	0.12414	0.08300	0.38901	0.43951	0.38671	0.79946	0.49603	0.29510	0.35795	0.35741	0.34781	0.23983	0.22254	0.18191	0.26294	0.33064	0.41471	25.27	6.1	0.00	7.25	0.01281	0.01297	0.01677	0.00806	0.00600	0.00656	0.00472	0.01277	0.01699	0.00697	0.00716	0.00918	0.01501	0.01104	0.01206	0.00226	0.00641	0.00898
16580	0.11266	0.12301	0.08085	0.38642	0.43715	0.38352	0.79661	0.49313	0.29077	0.35572	0.35672	0.34623	0.23539	0.22334	0.18019	0.26116	0.32964	0.41408
16740	0.11220	0.12313	0.08207	0.38704	0.43788	0.38504	0.78985	0.49318	0.29293	0.35644	0.35805	0.34632	0.23716	0.22350	0.18003	0.26205	0.32857	0.41442
16910	0.11024	0.12108	0.07970	0.38501	0.43513	0.38150	0.78658	0.48903	0.28744	0.35277	0.35412	0.34415	0.23916	0.22357	0.18229	0.26456	0.33197	0.41676
17070	0.11246	0.12404	0.08163	0.38894	0.43841	0.38508	0.79432	0.49506	0.29115	0.35726	0.35802	0.34765	0.23643	0.22220	0.18030	0.26179	0.32829	0.41407
17240	0.11477	0.12561	0.08384	0.39043	0.44189	0.38745	0.79811	0.49744	0.29784	0.35909	0.36068	0.34972	0.23967	0.22627	0.18220	0.26489	0.33284	0.41708
17400	0.11511	0.12456	0.08256	0.38937	0.43830	0.38504	0.79911	0.49227	0.29302	0.35563	0.35744	0.34708	0.23518	0.22240	0.17984	0.26065	0.32852	0.41368
17560	0.11169	0.12204	0.08003	0.38626	0.43551	0.38283	0.78491	0.49169	0.28964	0.35440	0.35518	0.34510	0.23532	0.22072	0.18123	0.25839	0.32843	0.41420
17730	0.11370	0.12289	0.08365	0.38745	0.43748	0.38407	0.79319	0.49706	0.29309	0.35527	0.35658	0.34644	0.23566	0.22158	0.17911	0.25928	0.32761	0.41288
17890	0.11249	0.12041	0.08048	0.38502	0.43528	0.38180	0.79186	0.49535	0.29001	0.35420	0.35518	0.34517	0.23872	0.22420	0.18318	0.26338	0.33104	0.41586
18060	0.11501	0.12371	0.08174	0.38839	0.43736	0.38461	0.79625	0.49614	0.29469	0.35633	0.35701	0.34647	0.23740	0.22186	0.18035	0.26160	0.32781	0.41273	25.27	6.0	0.00	7.26	0.01281	0.01297	0.01676	0.00806	0.00600	0.00656	0.00472	0.01277	0.01699	0.00697	0.00716	0.00918	0.01501	0.01104	0.01206	0.00226	0.00641	0.00898
18220	0.11161	0.12214	0.08422	0.38531	0.43651	0.38363	0.78905	0.49782	0.29505	0.35686	0.35785	0.34613	0.23827	0.22264	0.18160	0.25824	0.32816	0.41240
18380	0.11103	0.12202	0.08123	0.38466	0.43521	0.38164	0.78802	0.49532	0.29128	0.35478	0.35560	0.34498	0.23614	0.22118	0.18056	0.25998	0.32877	0.41324
18550	0.11074	0.12287	0.08232	0.38556	0.43577	0.38268	0.79596	0.49367	0.29343	0.35443	0.35614	0.34493	0.23937	0.22155	0.18219	0.25924	0.32688	0.41130
18710	0.11159	0.12170	0.08008	0.38294	0.43326	0.37932	0.79036	0.49140	0.28890	0.35262	0.35302	0.34235	0.23743	0.22385	0.18438	0.26101	0.33109	0.41581
18880	0.11418	0.12381	0.08312	0.38828	0.43761	0.38363	0.80097	0.49512	0.29510	0.35605	0.35640	0.34563	0.23572	0.22469	0.18193	0.26064	0.32746	0.41222
19040	0.11338	0.12384	0.08528	0.38786	0.43908	0.38482	0.79434	0.50079	0.29493	0.35754	0.35737	0.34783	0.23998	0.22580	0.18125	0.26153	0.32987	0.41461
19210	0.11356	0.12344	0.08205	0.38594	0.43626	0.38165	0.79589	0.49644	0.29381	0.35455	0.35393	0.34429	0.23996	0.22804	0.18225	0.26190	0.33014	0.41493
19370	0.11460	0.12478	0.08421	0.38606	0.43662	0.38216	0.79972	0.49705	0.29338	0.35493	0.35480	0.34460	0.23718	0.22405	0.17802	0.25846	0.32644	0.41136
19530	0.11162	0.12225	0.07904	0.38220	0.43279	0.37906	0.79382	0.49437	0.29032	0.35097	0.35171	0.34196	0.23640	0.22282	0.18394	0.26190	0.32939	0.41444
19700	0.11512	0.12433	0.08244	0.38679	0.43725	0.38180	0.79411	0.49706	0.29391	0.35391	0.35407	0.34448	0.23829	0.22306	0.17812	0.26011	0.32690	0.41136	25.27	6.0	0.00	7.27	0.01281	0.01297	0.01676	0.00806	0.00600	0.00656	0.00472	0.01277	0.01699	0.00697	0.00716	0.00918	0.01501	0.01104	0.01206	0.00226	0.00641	0.00898
19860	0.11432	0.12404	0.08153	0.38586	0.43681	0.38231	0.79411	0.49517	0.29410	0.35573	0.35456	0.34509	0.23813	0.22082	0.18084	0.26052	0.32721	0.41169
20020	0.11237	0.12398	0.08108	0.38370	0.43534	0.37976	0.79119	0.49493	0.29316	0.35442	0.35401	0.34353	0.23529	0.22084	0.18042	0.25904	0.32568	0.40981
20190	0.11371	0.12416	0.08507	0.38670	0.43847	0.38417	0.79942	0.50128	0.29580	0.35764	0.35688	0.34638	0.23853	0.22443	0.18267	0.26355	0.32996	0.41432
20350	0.11261	0.12388	0.08102	0.38493	0.43581	0.38022	0.79055	0.49490	0.29316	0.35445	0.35338	0.34329	0.23463	0.22217	0.17988	0.25960	0.32706	0.41154
20510	0.11154	0.12132	0.08238	0.38435	0.43506	0.38044	0.79096	0.49381	0.29139	0.35437	0.35226	0.34310	0.23477	0.22130	0.17816	0.25908	0.32587	0.41027
20680	0.10958	0.12202	0.08108	0.38141	0.43132	0.37799	0.79074	0.49102	0.28996	0.35179	0.35062	0.34172	0.23471	0.22083	0.17882	0.25860	0.32762	0.41286
20840	0.11186	0.12263	0.08056	0.38470	0.43468	0.38053	0.79617	0.49103	0.29270	0.35343	0.35386	0.34318	0.23827	0.22370	0.18066	0.26022	0.32942	0.41482
21010	0.11248	0.12183	0.08118	0.38629	0.43627	0.38172	0.79291	0.49547	0.29436	0.35480	0.35465	0.34404	0.23592	0.22194	0.18014	0.26041	0.32753	0.41256
21170	0.11142	0.12395	0.08165	0.38471	0.43720	0.38293	0.79278	0.49804	0.29494	0.35604	0.35554	0.34541	0.23798	0.22261	0.18341	0.26144	0.32961	0.41445
21340	0.11293	0.12282	0.08164	0.38539	0.43556	0.38028	0.79573	0.49586	0.29203	0.35473	0.35435	0.34316	0.23810	0.22526	0.18436	0.26423	0.33148	0.41661	25.27	6.1	0.00	7.32	0.01281	0.01297	0.01676	0.00806	0.00600	0.00656	0.00472	0.01277	0.01699	0.00697	0.00716	0.00918	0.01501	0.01104	0.01206	0.00226	0.00641	0.00898
21500	0.11405	0.12510	0.08282	0.38909	0.43782	0.38369	0.80063	0.49673	0.29494	0.35754	0.35592	0.34594	0.23971	0.22313	0.18271	0.26272	0.32904	0.41398
21670	0.11390	0.12422	0.08372	0.38793	0.43834	0.38402	0.79785	0.49811	0.29611	0.35640	0.35648	0.34582	0.23753	0.22556	0.18130	0.26301	0.33060	0.41506
21830	0.11327	0.12299	0.08006	0.38617	0.43471	0.38034	0.79254	0.49520	0.29294	0.35369	0.35203	0.34306	0.23730	0.22040	0.18001	0.25755	0.32704	0.41139
21990	0.11233	0.12430	0.08254	0.38712	0.43749	0.38308	0.79797	0.49638	0.29439	0.35601	0.35438	0.34553	0.23779	0.22462	0.18109	0.26139	0.32937	0.41448
22160	0.11166	0.12089	0.08133	0.38572	0.43387	0.38039	0.79190	0.49312	0.29172	0.35392	0.35134	0.34270	0.23438	0.22102	0.17680	0.25677	0.32581	0.41136
22320	0.11377	0.12317	0.08157	0.38668	0.43724	0.38298	0.79556	0.49505	0.29514	0.35603	0.35468	0.34594	0.23550	0.22313	0.18325	0.26135	0.32925	0.41480
22480	0.11179	0.12200	0.07976	0.38487	0.43466	0.38053	0.79310	0.49130	0.29338	0.35308	0.35133	0.34330	0.23462	0.21921	0.17977	0.25652	0.32554	0.41074
22650	0.11226	0.12263	0.08317	0.38701	0.43652	0.38327	0.79588	0.50085	0.29485	0.35653	0.35481	0.34611	0.23790	0.22396	0.18050	0.26113	0.33007	0.41470
22810	0.11397	0.12055	0.07943	0.38559	0.43425	0.37919	0.79448	0.49420	0.29102	0.35262	0.35182	0.34312	0.23600	0.21878	0.17688	0.25633	0.32491	0.41110
22970	0.11102	0.12318	0.08125	0.38620	0.43559	0.38220	0.79182	0.49755	0.29511	0.35544	0.35423	0.34480	0.23830	0.22336	0.18117	0.25952	0.32935	0.41483	25.27	6.1	0.00	7.27	0.01281	0.01297	0.01676	0.00806	0.00600	0.00656	0.00472	0.01277	0.01699	0.00696	0.00716	0.00918	0.01501	0.01104	0.01206	0.00226	0.00641	0.00898
23140	0.11103	0.12238	0.08128	0.38464	0.43346	0.37973	0.79019	0.49246	0.29176	0.35304	0.35138	0.34243	0.23655	0.22001	0.17635	0.25325	0.32496	0.41073
23300	0.11194	0.12423	0.08283	0.38635	0.43582	0.38406	0.79538	0.49719	0.29459	0.35523	0.35383	0.34521	0.23803	0.22537	0.18322	0.25908	0.32953	0.41480
23460	0.11132	0.12327	0.08098	0.38521	0.43405	0.38054	0.79223	0.49467	0.29236	0.35201	0.35043	0.34321	0.23470	0.21865	0.17784	0.25402	0.32545	0.41101
23630	0.11323	0.12367	0.08367	0.38676	0.43706	0.38454	0.79796	0.50090	0.29725	0.35619	0.35521	0.34656	0.23873	0.22609	0.18631	0.26059	0.33065	0.41625
23790	0.11336	0.12238	0.08177	0.38648	0.43464	0.38153	0.79735	0.49501	0.29288	0.35295	0.35182	0.34348	0.23614	0.22215	0.18135	0.25760	0.32739	0.41262
23950	0.11207	0.12090	0.07915	0.38388	0.43265	0.37964	0.79069	0.49368	0.29270	0.35167	0.35051	0.34270	0.23389	0.22047	0.18017	0.25624	0.32540	0.40983
24120	0.11144	0.12021	0.07983	0.38141	0.42986	0.37733	0.79100	0.49309	0.28712	0.35019	0.35031	0.34134	0.23795	0.22089	0.18009	0.25546	0.32744	0.41250
24280	0.11161	0.12255	0.08142	0.38524	0.43305	0.38084	0.78693	0.49313	0.29058	0.35236	0.35293	0.34288	0.23735	0.22372	0.18104	0.25790	0.32803	0.41287
24450	0.11430	0.12274	0.08157	0.38461	0.43378	0.38149	0.79540	0.49598	0.29100	0.35365	0.35210	0.34311	0.23683	0.22248	0.18451	0.25779	0.32732	0.41296
24610	0.11218	0.12102	0.08115	0.38397	0.43233	0.37975	0.78672	0.49422	0.29033	0.35096	0.35140	0.34181	0.23658	0.22474	0.18450	0.25812	0.33176	0.41693	25.21	6.1	0.00	7.22	0.01281	0.01297	0.01676	0.00806	0.00600	0.00656	0.00472	0.01277	0.01699	0.00696	0.00716	0.00918	0.01501	0.01104	0.01206	0.00226	0.00641	0.00898
24780	0.11414	0.12400	0.08605	0.38853	0.43616	0.38405	0.79581	0.49586	0.29687	0.35465	0.35376	0.34479	0.23881	0.22468	0.18181	0.26011	0.33053	0.41442
24940	0.11431	0.12512	0.08347	0.38520	0.43519	0.38342	0.79522	0.49700	0.29370	0.35457	0.35376	0.34462	0.23788	0.22689	0.18286	0.25967	0.33046	0.41491
25100	0.11368	0.12289	0.08032	0.38450	0.43287	0.37971	0.79171	0.49561	0.29117	0.35100	0.35117	0.34197	0.23726	0.22224	0.17777	0.25745	0.32839	0.41290
25270	0.11140	0.12153	0.08010	0.38322	0.43159	0.37922	0.78812	0.49475	0.29033	0.35122	0.34960	0.34144	0.23687	0.22239	0.18234	0.25465	0.32741	0.41160
25430	0.11232	0.12082	0.08070	0.38168	0.43090	0.37730	0.78581	0.49064	0.28978	0.35064	0.34980	0.34047	0.23725	0.22341	0.18104	0.25568	0.32860	0.41289
25600	0.11372	0.12298	0.08066	0.38393	0.43267	0.37981	0.79137	0.49390	0.29091	0.35120	0.35145	0.34164	0.23644	0.22163	0.17970	0.25623	0.32749	0.41270
25760	0.11292	0.12181	0.08046	0.38318	0.43119	0.37804	0.78198	0.49139	0.28907	0.35096	0.35062	0.34045	0.24006	0.22366	0.18514	0.25967	0.33252	0.41683
25920	0.11609	0.12554	0.08292	0.38732	0.43626	0.38209	0.79736	0.49819	0.29444	0.35446	0.35357	0.34323	0.23782	0.22258	0.18225	0.25716	0.32852	0.41282
26090	0.11543	0.12577	0.08463	0.38751	0.43685	0.38377	0.80172	0.49923	0.29687	0.35580	0.35482	0.34532	0.24177	0.22627	0.18263	0.26266	0.33152	0.41586
26250	0.11478	0.12266	0.08119	0.38582	0.43358	0.38079	0.79352	0.49464	0.29338	0.35177	0.35099	0.34237	0.23498	0.22517	0.18095	0.25578	0.32666	0.41327	25.27	6.1	0.00	7.25	0.01281	0.01297	0.01676	0.00806	0.00600	0.00656	0.00472	0.01277	0.01699	0.00696	0.00716	0.00918	0.01501	0.01104	0.01206	0.00226	0.00641	0.00898
26410	0.11228	0.12176	0.08159	0.38356	0.43180	0.37924	0.79330	0.49220	0.29077	0.34971	0.35073	0.34117	0.23526	0.21913	0.17846	0.25087	0.32473	0.41067
26580	0.11013	0.12379	0.08173	0.38289	0.43121	0.37916	0.79470	0.49194	0.29113	0.35059	0.35030	0.34135	0.23568	0.22173	0.18002	0.25153	0.32416	0.40983
26740	0.11333	0.12292	0.08261	0.38623	0.43579	0.38208	0.80053	0.49690	0.29652	0.35443	0.35476	0.34444	0.23879	0.22518	0.18306	0.25840	0.32896	0.41473
26900	0.11408	0.12266	0.08141	0.38515	0.43236	0.37978	0.78920	0.49455	0.29267	0.35245	0.35081	0.34252	0.23669	0.22198	0.17969	0.25512	0.32651	0.41318
27070	0.11133	0.12232	0.08017	0.38324	0.43170	0.37921	0.79635	0.49171	0.29110	0.35119	0.35128	0.34074	0.23508	0.22114	0.18027	0.25257	0.32572	0.41187
27230	0.11179	0.12254	0.08121	0.38293	0.43179	0.37866	0.79281	0.49583	0.29162	0.35211	0.35127	0.34110	0.23605	0.22133	0.18125	0.25356	0.32737	0.41255
27400	0.11337	0.12163	0.08141	0.38467	0.43319	0.37969	0.79670	0.49475	0.29464	0.35284	0.35179	0.34134	0.23822	0.22229	0.17943	0.25404	0.32699	0.41328
27560	0.11189	0.12223	0.08230	0.38454	0.43380	0.38048	0.79502	0.49511	0.29345	0.35305	0.35253	0.34189	0.23582	0.22238	0.17994	0.25630	0.32774	0.41402
27720	0.11194	0.12348	0.08111	0.38439	0.43178	0.37903	0.79758	0.49536	0.29210	0.35105	0.35125	0.34106	0.24052	0.22526	0.18221	0.25755	0.33090	0.41730
27890	0.11615	0.12476	0.08288	0.38689	0.43442	0.38148	0.79597	0.49674	0.29609	0.35366	0.35309	0.34265	0.24030	0.22402	0.18053	0.25591	0.32934	0.41457	25.27	6.0	0.00	7.63	0.01281	0.01297	0.01676	0.00806	0.00600	0.00656	0.00472	0.01276	0.01699	0.00696	0.00716	0.00918	0.01501	0.01104	0.01206	0.00226	0.00641	0.00898
28050	0.11149	0.12431	0.08302	0.38455	0.43319	0.38096	0.80106	0.49633	0.29523	0.35404	0.35306	0.34222	0.23853	0.22318	0.18179	0.25406	0.32780	0.41312
28220	0.11182	0.12289	0.07883	0.38350	0.43250	0.37858	0.78988	0.49414	0.29145	0.35198	0.34974	0.34056	0.23388	0.22092	0.17910	0.25067	0.32476	0.41092
28380	0.11097	0.12193	0.08428	0.38165	0.43269	0.38104	0.80008	0.49766	0.29372	0.35459	0.35328	0.34287	0.23897	0.22089	0.17875	0.25543	0.32837	0.41369
28540	0.11192	0.12443	0.08270	0.38370	0.43099	0.37884	0.79152	0.49374	0.29076	0.35128	0.35146	0.34038	0.23505	0.21790	0.18039	0.25148	0.32403	0.40942
28710	0.11281	0.12377	0.08373	0.38581	0.43529	0.38242	0.79610	0.50035	0.29658	0.35608	0.35459	0.34414	0.23869	0.22452	0.18516	0.25798	0.33012	0.41540
28870	0.11302	0.12444	0.08234	0.38504	0.43228	0.37952	0.79482	0.49436	0.29145	0.35192	0.35188	0.34185	0.23833	0.22121	0.17915	0.25443	0.32628	0.41269
29030	0.11237	0.12234	0.08012	0.38286	0.43187	0.37877	0.79310	0.49418	0.29289	0.35116	0.35081	0.34052	0.23419	0.22112	0.17819	0.25314	0.32556	0.41159
29200	0.11062	0.12113	0.07940	0.38120	0.42985	0.37745	0.78754	0.49410	0.28985	0.35005	0.35051	0.33905	0.23871	0.22253	0.18320	0.25384	0.32723	0.41244
29360	0.11349	0.12331	0.08202	0.38345	0.43230	0.38015	0.79927	0.49687	0.29161	0.35168	0.35229	0.34141	0.23795	0.22334	0.17985	0.25314	0.32598	0.41080
29530	0.11244	0.12139	0.07987	0.38127	0.43037	0.37851	0.79031	0.49372	0.28918	0.34909	0.35067	0.33898	0.24115	0.22574	0.18395	0.25679	0.32992	0.41644	25.27	6.1	0.00	7.28	0.01281	0.01297	0.01676	0.00806	0.00600	0.00656	0.00472	0.01276	0.01699	0.00696	0.00716	0.00918	0.01501	0.01104	0.01206	0.00226	0.00641	0.00898
29690	0.11463	0.12322	0.08107	0.38481	0.43389	0.38153	0.79950	0.49625	0.29419	0.35295	0.35477	0.34277	0.23800	0.22291	0.17920	0.25657	0.32638	0.41260
29850	0.11333	0.12666	0.08415	0.38580	0.43560	0.38357	0.79687	0.49866	0.29720	0.35489	0.35593	0.34394	0.23977	0.22334	0.18181	0.25783	0.32942	0.41417
30020	0.11509	0.12423	0.08070	0.38494	0.43309	0.38058	0.80373	0.49627	0.29244	0.35233	0.35305	0.34159	0.23760	0.22342	0.18386	0.25472	0.32736	0.41260
30180	0.11310	0.12167	0.08063	0.38265	0.43153	0.37908	0.79175	0.49300	0.29157	0.35076	0.35022	0.34011	0.23603	0.22148	0.18132	0.25281	0.32435	0.40981
30350	0.10989	0.12165	0.08008	0.38104	0.42917	0.37727	0.79075	0.49401	0.28910	0.34873	0.35085	0.33877	0.23637	0.22139	0.18357	0.25591	0.32803	0.41395
30510	0.11415	0.12196	0.08024	0.38399	0.43214	0.38011	0.79193	0.49655	0.29096	0.35212	0.35321	0.34160	0.23495	0.22113	0.17987	0.25672	0.32520	0.41119
30670	0.11231	0.12202	0.08161	0.38379	0.43300	0.38202	0.80041	0.49396	0.29403	0.35299	0.35422	0.34281	0.23646	0.22403	0.17981	0.25428	0.32512	0.41151
30840	0.11206	0.12228	0.08251	0.38136	0.43094	0.37831	0.79807	0.49528	0.29073	0.35077	0.35262	0.34102	0.23555	0.22020	0.18115	0.25642	0.32571	0.41121
31000	0.11257	0.12179	0.08275	0.38323	0.43235	0.37924	0.79903	0.49567	0.29152	0.35160	0.35350	0.34159	0.24043	0.22256	0.18318	0.25742	0.32731	0.41248
31170	0.11525	0.12371	0.08167	0.38436	0.43392	0.38191	0.79450	0.49584	0.29264	0.35197	0.35372	0.34206	0.23684	0.21830	0.17952	0.25695	0.32533	0.41064	25.33	6.0	0.00	7.65	0.01281	0.01297	0.01676	0.00806	0.00600	0.00656	0.00472	0.01276	0.01699	0.00696	0.00716	0.00918	0.01501	0.01104	0.01205	0.00226	0.00641	0.00898
31330	0.11251	0.12238	0.08314	0.38260	0.43374	0.38148	0.79238	0.49531	0.29342	0.35315	0.35521	0.34214	0.23955	0.22261	0.18196	0.25622	0.32681	0.41244
31500	0.11260	0.12261	0.08246	0.38248	0.43249	0.38011	0.79226	0.49533	0.29120	0.35156	0.35204	0.34046	0.23850	0.22346	0.18447	0.25854	0.32828	0.41387
31660	0.11596	0.12433	0.08452	0.38481	0.43417	0.38237	0.79875	0.49733	0.29314	0.35281	0.35476	0.34274	0.23881	0.22203	0.17970	0.25658	0.32634	0.41132
31830	0.11494	0.12398	0.08362	0.38478	0.43595	0.38340	0.79614	0.49736	0.29499	0.35389	0.35597	0.34383	0.23848	0.22576	0.18032	0.25987	0.32771	0.41185
31990	0.11350	0.12375	0.08213	0.38298	0.43335	0.38040	0.79523	0.49266	0.29219	0.35128	0.35263	0.34138	0.23777	0.22276	0.17981	0.25806	0.32749	0.41266
32160	0.11426	0.12415	0.08007	0.38309	0.43370	0.37995	0.79319	0.49854	0.29152	0.35111	0.35428	0.34224	0.23661	0.22123	0.18026	0.25740	0.32558	0.41037
32320	0.11005	0.12171	0.08079	0.38109	0.43203	0.37802	0.79368	0.49173	0.28901	0.34944	0.35260	0.34080	0.23950	0.22581	0.18377	0.26175	0.33004	0.41584
32480	0.11521	0.12602	0.08248	0.38620	0.43687	0.38259	0.79523	0.49596	0.29390	0.35301	0.35567	0.34425	0.23890	0.22516	0.18145	0.25780	0.32688	0.41183
32650	0.11466	0.12488	0.08500	0.38530	0.43784	0.38475	0.79629	0.49693	0.29576	0.35493	0.35801	0.34574	0.23978	0.22571	0.18433	0.26102	0.32816	0.41342
32810	0.11270	0.12213	0.08173	0.38393	0.43513	0.38122	0.79434	0.49500	0.29263	0.35207	0.35410	0.34273	0.23831	0.22346	0.17952	0.25758	0.32693	0.41145	25.33	6.1	0.00	7.23	0.01281	0.01297	0.01676	0.00806	0.00600	0.00656	0.00472	0.01276	0.01699	0.00696	0.00716	0.00918	0.01501	0.01104	0.01205	0.00226	0.00641	0.00898
32970	0.11240	0.12075	0.08026	0.38217	0.43338	0.37970	0.79405	0.49170	0.29091	0.35177	0.35276	0.34196	0.23724	0.22036	0.17897	0.25603	0.32486	0.40963
33140	0.11152	0.12031	0.07939	0.38086	0.43314	0.37967	0.79892	0.49123	0.28971	0.34986	0.35367	0.34157	0.23597	0.22278	0.18175	0.25687	0.32630	0.41095
33300	0.11208	0.12262	0.08042	0.38240	0.43561	0.38161	0.79729	0.49454	0.29207	0.35116	0.35504	0.34281	0.23751	0.22500	0.17900	0.25543	0.32528	0.41025
33470	0.11000	0.12147	0.08056	0.38041	0.43291	0.37929	0.79287	0.49264	0.28864	0.34982	0.35289	0.34085	0.23994	0.22531	0.18242	0.26086	0.32951	0.41423
33630	0.11323	0.12556	0.08303	0.38502	0.43651	0.38322	0.79466	0.50058	0.29407	0.35282	0.35623	0.34482	0.23818	0.22030	0.17906	0.25569	0.32630	0.41000
33800	0.11406	0.12317	0.08329	0.38570	0.43890	0.38535	0.80017	0.49938	0.29737	0.35535	0.35931	0.34722	0.24337	0.22304	0.18124	0.26145	0.32996	0.41417
33960	0.11432	0.12443	0.08032	0.38508	0.43694	0.38315	0.79056	0.49403	0.29315	0.35214	0.35552	0.34482	0.23866	0.22008	0.18019	0.25831	0.32620	0.41069
34120	0.11225	0.12023	0.08042	0.38311	0.43434	0.38120	0.79916	0.49343	0.29137	0.35080	0.35427	0.34266	0.23714	0.22396	0.17863	0.25813	0.32957	0.41356
34290	0.11432	0.12340	0.08290	0.38626	0.43654	0.38352	0.79029	0.49590	0.29323	0.35269	0.35607	0.34480	0.23726	0.22273	0.18080	0.25721	0.32673	0.41125
34450	0.11147	0.12164	0.07847	0.38409	0.43506	0.38082	0.79003	0.49265	0.29077	0.34959	0.35463	0.34257	0.24083	0.22656	0.18415	0.26245	0.33188	0.41689	25.33	6.1	0.00	7.20	0.01281	0.01297	0.01676	0.00806	0.00600	0.00656	0.00472	0.01277	0.01699	0.00696	0.00716	0.00918	0.01501	0.01104	0.01205	0.00226	0.00641	0.00898
34620	0.11441	0.12601	0.08406	0.38961	0.44049	0.38683	0.79455	0.49738	0.29599	0.35455	0.35820	0.34677	0.23897	0.22327	0.18037	0.25998	0.33118	0.41428
34780	0.11125	0.12507	0.08253	0.38691	0.43937	0.38574	0.79763	0.49854	0.29588	0.35463	0.35766	0.34657	0.23825	0.22439	0.18117	0.25994	0.32947	0.41392
34940	0.11164	0.12241	0.08195	0.38597	0.43648	0.38245	0.78198	0.49584	0.29188	0.35075	0.35432	0.34325	0.23444	0.22160	0.18012	0.25433	0.32510	0.41057
35110	0.11170	0.12267	0.08340	0.38667	0.43846	0.38523	0.79460	0.49702	0.29548	0.35475	0.35797	0.34606	0.24007	0.22583	0.18134	0.25990	0.32983	0.41407
35270	0.11100	0.12394	0.08202	0.38643	0.43574	0.38344	0.78930	0.49798	0.29349	0.35235	0.35530	0.34368	0.23600	0.21823	0.18087	0.25444	0.32642	0.41210
35430	0.11271	0.12525	0.08331	0.38738	0.43857	0.38598	0.79256	0.49901	0.29454	0.35491	0.35849	0.34593	0.23868	0.22439	0.18207	0.25828	0.32917	0.41424
35600	0.11211	0.12350	0.08113	0.38687	0.43595	0.38314	0.79406	0.49168	0.29112	0.35200	0.35485	0.34359	0.23676	0.22096	0.17798	0.25518	0.32581	0.41150
35760	0.11128	0.12281	0.08292	0.38777	0.43769	0.38613	0.79428	0.49747	0.29663	0.35512	0.35718	0.34565	0.23854	0.22217	0.17946	0.26057	0.32939	0.41564
35920	0.11047	0.12102	0.07988	0.38606	0.43617	0.38325	0.79399	0.49355	0.29304	0.35320	0.35580	0.34354	0.23416	0.21779	0.17813	0.25662	0.32642	0.41319
36090	0.11148	0.12464	0.08387	0.38891	0.43891	0.38734	0.79909	0.50031	0.29614	0.35727	0.35887	0.34661	0.23947	0.22583	0.18285	0.26264	0.33298	0.41750	25.27	6.2	0.00	6.43	0.01281	0.01297	0.01676	0.00806	0.00600	0.00656	0.00472	0.01277	0.01699	0.00696	0.00716	0.00918	0.01501	0.01104	0.01205	0.00226	0.00641	0.00898
36250	0.11321	0.12477	0.08125	0.38741	0.43598	0.38454	0.79678	0.49492	0.29284	0.35383	0.35673	0.34377	0.23827	0.22197	0.17983	0.25980	0.33099	0.41537
36410	0.11206	0.12284	0.08063	0.38589	0.43515	0.38353	0.79294	0.49423	0.29095	0.35284	0.35512	0.34286	0.23553	0.22124	0.18089	0.25758	0.32845	0.41369
36580	0.10934	0.12265	0.07977	0.38537	0.43428	0.38283	0.79319	0.49126	0.28956	0.35287	0.35569	0.34244	0.23577	0.22075	0.18161	0.25991	0.33014	0.41503
36740	0.11105	0.12267	0.08254	0.38645	0.43660	0.38508	0.79564	0.49571	0.29345	0.35421	0.35713	0.34400	0.23690	0.22357	0.18277	0.25972	0.33039	0.41468
36910	0.11052	0.12262	0.08009	0.38520	0.43385	0.38205	0.79262	0.49206	0.28944	0.35231	0.35502	0.34209	0.23850	0.22414	0.18218	0.26142	0.33354	0.41891
37070	0.11425	0.12360	0.08237	0.38882	0.43717	0.38516	0.80179	0.49572	0.29360	0.35589	0.35619	0.34424	0.23710	0.21993	0.17993	0.25965	0.33015	0.41492
37240	0.11271	0.12521	0.08565	0.38922	0.43803	0.38780	0.80777	0.50144	0.29662	0.35640	0.35832	0.34730	0.23948	0.22503	0.18347	0.26268	0.33306	0.41709
37400	0.11192	0.12301	0.08267	0.38723	0.43587	0.38453	0.79746	0.49756	0.29274	0.35411	0.35625	0.34395	0.23794	0.22165	0.18155	0.26094	0.33023	0.41394
37560	0.11172	0.12475	0.07956	0.38468	0.43374	0.38279	0.79324	0.49422	0.29165	0.35331	0.35589	0.34309	0.23886	0.22320	0.18231	0.26179	0.33232	0.41582
37730	0.11461	0.12361	0.08189	0.38685	0.43647	0.38509	0.80205	0.49734	0.29090	0.35478	0.35622	0.34505	0.23923	0.22167	0.18223	0.26004	0.33167	0.41524	25.33	6.1	0.00	7.55	0.01281	0.01297	0.01676	0.00806	0.00600	0.00656	0.00472	0.01277	0.01699	0.00696	0.00716	0.00918	0.01501	0.01104	0.01205	0.00226	0.00641	0.00898
37890	0.11272	0.12279	0.08180	0.38589	0.43581	0.38502	0.80328	0.49844	0.29229	0.35488	0.35651	0.34527	0.23936	0.22389	0.18172	0.25867	0.33114	0.41578
38060	0.11228	0.12412	0.08241	0.38592	0.43553	0.38407	0.79720	0.49713	0.29295	0.35484	0.35519	0.34470	0.23684	0.21987	0.18277	0.26029	0.33110	0.41622
38220	0.11287	0.12367	0.08295	0.38701	0.43629	0.38641	0.79883	0.49682	0.29296	0.35586	0.35700	0.34503	0.23805	0.22291	0.18155	0.25907	0.33092	0.41530
38390	0.11380	0.12488	0.08290	0.38735	0.43529	0.38618	0.79521	0.49651	0.29290	0.35623	0.35730	0.34576	0.23871	0.22183	0.18028	0.25871	0.33044	0.41614
38550	0.11257	0.12418	0.08177	0.38651	0.43630	0.38506	0.79322	0.49691	0.29308	0.35601	0.35687	0.34545	0.23949	0.22354	0.17985	0.25933	0.33037	0.41620
38720	0.11411	0.12493	0.08305	0.38649	0.43623	0.38537	0.78804	0.49588	0.29186	0.35552	0.35585	0.34625	0.23980	0.22317	0.18139	0.26103	0.33134	0.41618
38880	0.11256	0.12324	0.08295	0.38682	0.43712	0.38634	0.80018	0.49708	0.29370	0.35676	0.35674	0.34624	0.23842	0.22394	0.18112	0.26122	0.33171	0.41579
39050	0.11454	0.12398	0.08394	0.38572	0.43503	0.38429	0.79005	0.49397	0.29129	0.35541	0.35559	0.34558	0.23840	0.22273	0.18298	0.26336	0.33250	0.41743
39210	0.11620	0.12519	0.08270	0.38769	0.43707	0.38632	0.79536	0.49686	0.29221	0.35740	0.35604	0.34689	0.23787	0.22319	0.18277	0.25992	0.33008	0.41479
39380	0.11319	0.12522	0.08189	0.38826	0.43694	0.38698	0.79242	0.49862	0.29361	0.35759	0.35711	0.34729	0.23763	0.22340	0.18312	0.25967	0.33063	0.41641	25.33	6.1	0.00	7.21	0.01281	0.01297	0.01676	0.00806	0.00600	0.00656	0.00472	0.01277	0.01699	0.00696	0.00715	0.00918	0.01501	0.01104	0.01205	0.00226	0.00641	0.00898
39540	0.11276	0.12310	0.08091	0.38667	0.43422	0.38518	0.79075	0.49528	0.29106	0.35572	0.35445	0.34501	0.23847	0.22302	0.18457	0.26167	0.33155	0.41604
39700	0.11228	0.12652	0.08292	0.38683	0.43569	0.38576	0.79593	0.49797	0.29185	0.35647	0.35478	0.34499	0.23665	0.22026	0.17999	0.25705	0.32889	0.41379
39870	0.11346	0.12280	0.08254	0.38901	0.43747	0.38713	0.79675	0.49883	0.29612	0.35935	0.35805	0.34743	0.23783	0.22287	0.18199	0.26211	0.33136	0.41714
40030	0.11445	0.12300	0.08191	0.38678	0.43516	0.38484	0.79325	0.49402	0.29122	0.35535	0.35516	0.34451	0.23861	0.22525	0.18185	0.26082	0.33144	0.41669
40200	0.11062	0.12317	0.08276	0.38794	0.43546	0.38575	0.79345	0.49441	0.29273	0.35738	0.35516	0.34497	0.23696	0.22554	0.18142	0.26130	0.33168	0.41743
40360	0.11322	0.12522	0.08458	0.38802	0.43651	0.38745	0.78969	0.49818	0.29324	0.35888	0.35717	0.34581	0.23807	0.22273	0.17948	0.25801	0.32999	0.41555
40530	0.11191	0.12468	0.08209	0.38707	0.43686	0.38777	0.79067	0.49777	0.29416	0.35916	0.35791	0.34636	0.23960	0.22651	0.18063	0.26137	0.33168	0.41681
40690	0.11359	0.12377	0.08117	0.38792	0.43617	0.38630	0.79957	0.49527	0.29274	0.35683	0.35613	0.34525	0.23721	0.22271	0.18135	0.25783	0.32944	0.41535
40850	0.11132	0.12367	0.08335	0.38691	0.43717	0.38868	0.79606	0.50065	0.29607	0.35963	0.35952	0.34809	0.24003	0.22745	0.18133	0.26307	0.33422	0.41901
41020	0.11309	0.12387	0.08303	0.38968	0.43670	0.38579	0.79537	0.49647	0.29139	0.35683	0.35733	0.34392	0.23772	0.22271	0.18083	0.26226	0.33261	0.41792	25.39	6.1	0.00	7.38	0.01281	0.01297	0.01676	0.00806	0.00600	0.00656	0.00472	0.01277	0.01699	0.00696	0.00716	0.00918	0.01501	0.01104	0.01205	0.00226	0.00641	0.00898
41180	0.11426	0.12469	0.08366	0.39031	0.43764	0.38722	0.79896	0.49843	0.29441	0.35699	0.35773	0.34527	0.23700	0.22281	0.17959	0.26096	0.33127	0.41621
41340	0.11221	0.12032	0.08151	0.38747	0.43374	0.38337	0.79161	0.49376	0.28986	0.35390	0.35437	0.34297	0.23874	0.22403	0.18186	0.26030	0.33350	0.41881
41510	0.11333	0.12336	0.08226	0.38995	0.43666	0.38594	0.79483	0.49707	0.29282	0.35652	0.35795	0.34478	0.23626	0.22124	0.18081	0.25797	0.32966	0.41482
41670	0.11086	0.12183	0.07941	0.38641	0.43359	0.38283	0.78549	0.49369	0.28886	0.35307	0.35516	0.34230	0.23703	0.22426	0.18189	0.26163	0.33397	0.41946
41840	0.11394	0.12701	0.08264	0.39091	0.43732	0.38710	0.79653	0.49759	0.29397	0.35722	0.35898	0.34570	0.23706	0.22028	0.17896	0.26045	0.33057	0.41598
42000	0.11159	0.12506	0.08227	0.39025	0.43782	0.38796	0.79449	0.49959	0.29553	0.35826	0.35997	0.34709	0.23873	0.22415	0.18155	0.26418	0.33274	0.41800
42160	0.11328	0.12207	0.08025	0.38866	0.43613	0.38496	0.80223	0.49591	0.29159	0.35598	0.35709	0.34497	0.23711	0.22339	0.18141	0.26052	0.33313	0.41809
42330	0.11351	0.12349	0.08198	0.38848	0.43676	0.38523	0.79559	0.49589	0.29274	0.35677	0.35841	0.34601	0.23800	0.22394	0.18171	0.25982	0.33083	0.41672
42490	0.10986	0.12071	0.08056	0.38770	0.43586	0.38392	0.79402	0.49458	0.28965	0.35551	0.35747	0.34389	0.23812	0.22383	0.18120	0.26159	0.33444	0.41875
42660	0.11296	0.12491	0.08161	0.38969	0.43722	0.38591	0.80096	0.49776	0.29310	0.35753	0.35837	0.34611	0.23633	0.22164	0.18087	0.25974	0.33089	0.41676	25.33	6.0	0.00	7.19	0.01281	0.01297	0.01676	0.00806	0.00600	0.00656	0.00472	0.01277	0.01699	0.00696	0.00715	0.00918	0.01501	0.01104	0.01205	0.00226	0.00640	0.00898
42820	0.11290	0.12455	0.08288	0.38989	0.43839	0.38687	0.80352	0.50103	0.29645	0.35852	0.35937	0.34788	0.23793	0.22431	0.18156	0.26302	0.33300	0.41805
42990	0.11114	0.12488	0.08285	0.38844	0.43619	0.38505	0.79712	0.49365	0.29255	0.35590	0.35715	0.34593	0.23852	0.22460	0.18370	0.26048	0.33275	0.41779
43150	0.11166	0.12297	0.08142	0.38916	0.43742	0.38562	0.80187	0.49523	0.29346	0.35729	0.35850	0.34650	0.23619	0.22382	0.18115	0.25966	0.33201	0.41678
43310	0.11178	0.12404	0.08107	0.39002	0.43776	0.38730	0.80101	0.49719	0.29290	0.35836	0.35918	0.34716	0.23788	0.22217	0.18116	0.26092	0.33204	0.41693
43480	0.11258	0.12254	0.08067	0.38798	0.43750	0.38530	0.80000	0.49468	0.29168	0.35629	0.35835	0.34602	0.23835	0.22201	0.18273	0.26014	0.33357	0.41879
43640	0.11243	0.12400	0.08225	0.38999	0.43795	0.38528	0.79501	0.49457	0.29263	0.35587	0.35813	0.34693	0.23946	0.22574	0.18163	0.26169	0.33473	0.41960
43810	0.11417	0.12496	0.08401	0.39164	0.43944	0.38690	0.80273	0.49969	0.29439	0.35777	0.36068	0.34809	0.23725	0.22267	0.18163	0.26096	0.33377	0.41798
43970	0.11268	0.12322	0.08242	0.38929	0.43962	0.38671	0.80157	0.49847	0.29593	0.35918	0.36029	0.34940	0.23857	0.22511	0.18247	0.26498	0.33438	0.41851
44140	0.11236	0.12324	0.08188	0.39100	0.43847	0.38606	0.79307	0.49719	0.29226	0.35802	0.36028	0.34758	0.24057	0.22493	0.18399	0.26565	0.33806	0.42146
44300	0.11512	0.12589	0.08234	0.39385	0.44199	0.38904	0.80030	0.50003	0.29580	0.35752	0.36052	0.34989	0.23756	0.22293	0.18239	0.26276	0.33400	0.41860	25.33	6.0	0.00	7.25	0.01281	0.01297	0.01676	0.00806	0.00600	0.00656	0.00472	0.01277	0.01699	0.00696	0.00715	0.00918	0.01501	0.01104	0.01205	0.00226	0.00640	0.00898
44470	0.11252	0.12531	0.08181	0.39207	0.44167	0.38784	0.80131	0.49953	0.29604	0.35883	0.36049	0.34987	0.23951	0.22494	0.18341	0.26272	0.33430	0.41922
44630	0.11305	0.12244	0.08077	0.39009	0.43851	0.38513	0.79396	0.49628	0.28949	0.35658	0.35768	0.34699	0.23682	0.22147	0.18205	0.26398	0.33325	0.41838
44790	0.11219	0.12298	0.08052	0.39011	0.43905	0.38632	0.79632	0.49716	0.29156	0.35790	0.35912	0.34807	0.23732	0.22150	0.18267	0.26258	0.33387	0.41867
44960	0.11417	0.12332	0.08146	0.38868	0.43815	0.38520	0.79042	0.49442	0.28992	0.35638	0.35857	0.34727	0.23849	0.22429	0.18225	0.26657	0.33536	0.42092
45120	0.11509	0.12411	0.08330	0.39225	0.44129	0.38828	0.79794	0.49879	0.29308	0.35907	0.36058	0.35014	0.23817	0.22123	0.18202	0.26420	0.33162	0.41755
45290	0.11467	0.12570	0.08455	0.39353	0.44298	0.39054	0.80227	0.50152	0.29652	0.36199	0.36200	0.35240	0.24224	0.22536	0.18515	0.26435	0.33532	0.42044
45450	0.11233	0.12390	0.08035	0.39172	0.44044	0.38739	0.79268	0.49758	0.29320	0.35934	0.35916	0.34984	0.23925	0.22387	0.18181	0.26298	0.33377	0.42022
45620	0.11284	0.12322	0.08055	0.39146	0.43917	0.38698	0.79541	0.49794	0.29218	0.35881	0.35807	0.34931	0.23479	0.22162	0.17979	0.26040	0.33023	0.41713
45780	0.11103	0.12021	0.07981	0.38798	0.43683	0.38452	0.78740	0.49368	0.28819	0.35603	0.35602	0.34757	0.23801	0.22395	0.18465	0.26405	0.33475	0.42108
45940	0.11191	0.12559	0.08120	0.39227	0.44049	0.38829	0.80175	0.49513	0.29347	0.35901	0.35990	0.34935	0.23781	0.22131	0.18111	0.26057	0.33310	0.41768	25.33	6.0	0.00	7.26	0.01280	0.01297	0.01676	0.00806	0.00600	0.00656	0.00472	0.01277	0.01699	0.00696	0.00715	0.00918	0.01501	0.01104	0.01205	0.00226	0.00640	0.00898
46110	0.11146	0.12435	0.08277	0.39225	0.44219	0.38929	0.79730	0.49922	0.29410	0.36097	0.36125	0.35124	0.23931	0.22306	0.18233	0.26264	0.33526	0.41921
46270	0.11253	0.12370	0.08171	0.39123	0.43948	0.38716	0.79177	0.49423	0.29123	0.35755	0.35846	0.34870	0.23893	0.22451	0.18058	0.26353	0.33564	0.42030
46440	0.11118	0.12269	0.08179	0.39197	0.44163	0.38792	0.79706	0.49560	0.29341	0.35955	0.36146	0.34946	0.24026	0.22336	0.18281	0.26538	0.33575	0.42087
46600	0.11309	0.12600	0.08103	0.39345	0.44223	0.38895	0.79571	0.49947	0.29494	0.36065	0.36077	0.35074	0.23812	0.22187	0.18048	0.26286	0.33468	0.41912
46770	0.11253	0.12314	0.08126	0.39151	0.44167	0.38799	0.79534	0.49765	0.29408	0.36000	0.36057	0.34963	0.23794	0.22220	0.18224	0.26589	0.33498	0.41978
46930	0.11214	0.12236	0.08000	0.39265	0.44109	0.38763	0.79824	0.49468	0.29388	0.35927	0.35998	0.34866	0.23869	0.22315	0.18208	0.26419	0.33329	0.41814
47090	0.10971	0.12224	0.08203	0.39102	0.44261	0.39101	0.80303	0.50168	0.29616	0.36179	0.36251	0.35167	0.24201	0.22347	0.18318	0.26881	0.33741	0.42263
47260	0.11255	0.12534	0.08054	0.39353	0.44198	0.38857	0.79062	0.49508	0.29329	0.35923	0.36031	0.34934	0.24066	0.22407	0.18412	0.26748	0.33982	0.42348
47420	0.11436	0.12514	0.08346	0.39611	0.44416	0.38998	0.80171	0.49808	0.29484	0.36129	0.36242	0.35033	0.23892	0.22535	0.18234	0.26600	0.33771	0.42156
47590	0.11327	0.12375	0.08293	0.39406	0.44278	0.38889	0.79477	0.49589	0.29459	0.36057	0.36111	0.35019	0.23784	0.22385	0.18140	0.26588	0.33615	0.42040	25.39	6.1	0.00	7.21	0.01281	0.01297	0.01676	0.00806	0.00600	0.00656	0.00472	0.01276	0.01699	0.00696	0.00715	0.00918	0.01501	0.01104	0.01205	0.00226	0.00640	0.00898
47750	0.11100	0.12206	0.08194	0.39280	0.44141	0.38666	0.79529	0.49456	0.29196	0.35903	0.36064	0.34868	0.23568	0.21953	0.18097	0.26185	0.33302	0.41826
47910	0.11351	0.12335	0.08310	0.39432	0.44363	0.38943	0.80085	0.49695	0.29482	0.36173	0.36253	0.35129	0.23910	0.22447	0.18398	0.26536	0.33779	0.42178
48080	0.11234	0.12116	0.08248	0.39360	0.44151	0.38728	0.79445	0.49520	0.29035	0.35953	0.36075	0.34894	0.23476	0.22086	0.18051	0.26281	0.33421	0.41843
48240	0.11324	0.12471	0.08404	0.39585	0.44423	0.39135	0.80092	0.50088	0.29635	0.36277	0.36307	0.35187	0.23929	0.22584	0.18417	0.27153	0.33947	0.42336
48400	0.11331	0.12284	0.08100	0.39531	0.44299	0.38923	0.79622	0.49475	0.29310	0.35969	0.36140	0.34927	0.23884	0.22355	0.18363	0.26858	0.33790	0.42322
48570	0.11200	0.12201	0.08162	0.39443	0.44221	0.38791	0.79959	0.49482	0.29129	0.35963	0.35959	0.34940	0.23767	0.22126	0.18011	0.26540	0.33633	0.42053
48730	0.11212	0.12341	0.08048	0.39207	0.44040	0.38586	0.79423	0.49310	0.28962	0.35793	0.35834	0.34797	0.23776	0.22470	0.18528	0.26809	0.33972	0.42413
48900	0.11401	0.12507	0.08176	0.39513	0.44417	0.38964	0.79667	0.49691	0.29305	0.35977	0.36037	0.34974	0.23747	0.22157	0.18095	0.26499	0.33501	0.42042
49060	0.11339	0.12418	0.08251	0.39544	0.44592	0.39109	0.79974	0.50092	0.29561	0.36249	0.36215	0.35197	0.23882	0.22346	0.18174	0.26954	0.33852	0.42231
49230	0.11079	0.12435	0.08119	0.39491	0.44270	0.38871	0.79475	0.49530	0.29019	0.35965	0.36006	0.34948	0.23598	0.22179	0.18111	0.26896	0.33794	0.42232	25.39	6.1	0.00	7.30	0.01281	0.01297	0.01676	0.00806	0.00600	0.00656	0.00472	0.01276	0.01699	0.00696	0.00715	0.00918	0.01501	0.01104	0.01205	0.00226	0.00640	0.00898
49390	0.11190	0.12197	0.08271	0.39562	0.44477	0.38988	0.79514	0.49713	0.29209	0.36054	0.36112	0.35057	0.23732	0.22315	0.18131	0.26741	0.33733	0.42264
49550	0.11210	0.12408	0.08164	0.39468	0.44251	0.38784	0.79305	0.49384	0.29035	0.35937	0.35881	0.34773	0.23868	0.22466	0.18399	0.27218	0.34015	0.42433
49720	0.11547	0.12442	0.08323	0.39701	0.44610	0.38997	0.79942	0.49649	0.29450	0.36177	0.36090	0.35153	0.24210	0.22505	0.18450	0.27266	0.34215	0.42619
49880	0.11604	0.12685	0.08380	0.39981	0.44826	0.39296	0.80205	0.50296	0.29765	0.36410	0.36293	0.35454	0.23996	0.22546	0.18480	0.27395	0.34149	0.42582
50050	0.11410	0.12593	0.08256	0.39832	0.44635	0.39285	0.79979	0.50101	0.29713	0.36425	0.36265	0.35277	0.23957	0.22243	0.18377	0.27295	0.34093	0.42435
50210	0.11314	0.12245	0.07988	0.39654	0.44469	0.39041	0.79047	0.49668	0.29225	0.36097	0.36063	0.35060	0.23416	0.21963	0.17984	0.26900	0.33745	0.42156
50370	0.11059	0.12185	0.08116	0.39538	0.44604	0.39203	0.79332	0.49733	0.29566	0.36385	0.36164	0.35261	0.23745	0.22211	0.18243	0.27332	0.34015	0.42371
50540	0.11280	0.12147	0.08134	0.39724	0.44485	0.39033	0.78937	0.49373	0.29214	0.36168	0.36102	0.35094	0.23689	0.22121	0.17668	0.27018	0.33793	0.42247
50700	0.11048	0.12280	0.08184	0.39646	0.44590	0.39262	0.79711	0.49840	0.29483	0.36448	0.36464	0.35426	0.24005	0.22471	0.18188	0.27743	0.34321	0.42642
50860	0.11131	0.12223	0.08083	0.39743	0.44516	0.39119	0.79316	0.49467	0.29213	0.36158	0.36141	0.35111	0.23676	0.22401	0.18441	0.27285	0.34215	0.42677	25.39	6.1	0.00	7.29	0.01281	0.01297	0.01676	0.00806	0.00600	0.00656	0.00472	0.01276	0.01699	0.00696	0.00715	0.00918	0.01501	0.01104	0.01205	0.00226	0.00640	0.00898
51030	0.11089	0.12218	0.07989	0.39862	0.44586	0.39220	0.80395	0.49778	0.29293	0.36213	0.36147	0.35174	0.23917	0.22401	0.18003	0.27241	0.34198	0.42684
51190	0.11231	0.12215	0.08076	0.39726	0.44318	0.39059	0.79308	0.49569	0.28955	0.36130	0.36092	0.34979	0.23854	0.22622	0.18280	0.27503	0.34540	0.43054
51360	0.11572	0.12277	0.08200	0.40085	0.44678	0.39345	0.79918	0.49746	0.29279	0.36318	0.36250	0.35217	0.23877	0.22134	0.17896	0.27330	0.34247	0.42702
51520	0.11385	0.12550	0.08368	0.40163	0.45070	0.39703	0.80936	0.50050	0.29708	0.36599	0.36694	0.35551	0.24116	0.22616	0.18646	0.27855	0.34715	0.43148
51690	0.11419	0.12424	0.08205	0.40127	0.44846	0.39355	0.79537	0.49591	0.29196	0.36252	0.36304	0.35259	0.24073	0.22449	0.18065	0.27822	0.34799	0.43231
51850	0.11454	0.12456	0.08307	0.40180	0.44790	0.39384	0.79569	0.49874	0.29404	0.36360	0.36314	0.35300	0.23915	0.22362	0.18175	0.27248	0.34395	0.42787
52010	0.11209	0.12544	0.08227	0.40051	0.44850	0.39429	0.80434	0.49929	0.29543	0.36510	0.36461	0.35376	0.23690	0.22186	0.18233	0.27574	0.34453	0.42857
52180	0.11189	0.12303	0.08172	0.39919	0.44755	0.39321	0.79203	0.49595	0.29238	0.36335	0.36490	0.35246	0.23800	0.22265	0.18070	0.27363	0.34329	0.42715
52340	0.11437	0.12431	0.08320	0.40196	0.45048	0.39623	0.79714	0.50068	0.29591	0.36579	0.36584	0.35519	0.23952	0.22467	0.18328	0.27818	0.34667	0.43045
52510	0.11314	0.12260	0.08030	0.39896	0.44738	0.39172	0.79388	0.49453	0.29149	0.36324	0.36310	0.35236	0.23955	0.22182	0.18195	0.27314	0.34409	0.42819	25.39	6.1	0.00	7.26	0.01281	0.01297	0.01676	0.00806	0.00600	0.00656	0.00472	0.01276	0.01699	0.00696	0.00715	0.00918	0.01501	0.01104	0.01205	0.00226	0.00640	0.00898
52670	0.11255	0.12310	0.08114	0.39844	0.44818	0.39387	0.79381	0.49724	0.29428	0.36440	0.36434	0.35318	0.23784	0.22189	0.17977	0.27199	0.34273	0.42805
52830	0.11229	0.12186	0.08044	0.39708	0.44487	0.39089	0.79255	0.49211	0.28901	0.36206	0.36212	0.35165	0.23887	0.22442	0.18223	0.27713	0.34567	0.43079
53000	0.11482	0.12406	0.08056	0.39902	0.44787	0.39379	0.79555	0.49891	0.29304	0.36440	0.36462	0.35367	0.24035	0.22631	0.18185	0.27780	0.34677	0.43144
53160	0.11476	0.12460	0.08538	0.40184	0.45077	0.39684	0.80263	0.49853	0.29762	0.36654	0.36709	0.35607	0.24078	0.22377	0.18338	0.27850	0.34587	0.42971
53330	0.11299	0.12400	0.08170	0.39977	0.44873	0.39425	0.80172	0.49731	0.29377	0.36500	0.36547	0.35456	0.23822	0.22291	0.18088	0.27517	0.34374	0.42773
53490	0.11341	0.12286	0.08000	0.39817	0.44675	0.39247	0.79786	0.49832	0.29345	0.36425	0.36447	0.35367	0.23689	0.22135	0.17957	0.27273	0.34171	0.42643
53650	0.11044	0.12149	0.08217	0.39682	0.44867	0.39366	0.80246	0.50024	0.29477	0.36569	0.36684	0.35530	0.23722	0.22420	0.18093	0.27466	0.34405	0.42769
53820	0.11277	0.12176	0.08194	0.39801	0.44674	0.39296	0.79592	0.49639	0.29251	0.36430	0.36467	0.35262	0.23660	0.22069	0.18143	0.27314	0.34035	0.42537
53980	0.11041	0.12412	0.08432	0.39693	0.44969	0.39714	0.79867	0.50296	0.29857	0.36826	0.36797	0.35687	0.24294	0.22429	0.18590	0.27943	0.34637	0.43191
54140	0.11283	0.12338	0.08235	0.40107	0.44977	0.39451	0.79528	0.49633	0.29387	0.36517	0.36513	0.35453	0.24090	0.22451	0.18275	0.27889	0.34597	0.43048	25.39	6.1	0.00	7.30	0.01280	0.01297	0.01675	0.00806	0.00600	0.00656	0.00472	0.01276	0.01699	0.00696	0.00715	0.00918	0.01501	0.01104	0.01205	0.00226	0.00640	0.00898
54310	0.11295	0.12279	0.08092	0.39969	0.44997	0.39368	0.80027	0.49807	0.29482	0.36393	0.36571	0.35415	0.23699	0.22140	0.18042	0.27282	0.34296	0.42660
54470	0.10935	0.12022	0.07861	0.39541	0.44570	0.39000	0.79601	0.49394	0.28896	0.36012	0.36296	0.35064	0.23880	0.22253	0.18297	0.27830	0.34567	0.43069
54640	0.11338	0.12398	0.08036	0.39990	0.44973	0.39278	0.79496	0.49666	0.29523	0.36346	0.36463	0.35334	0.23736	0.22140	0.18020	0.27367	0.34249	0.42619
54800	0.11146	0.12546	0.08049	0.39839	0.45127	0.39474	0.80051	0.49785	0.29690	0.36460	0.36616	0.35429	0.23902	0.22390	0.18267	0.27648	0.34372	0.42778
54960	0.11309	0.12240	0.08040	0.39798	0.44943	0.39234	0.80005	0.49624	0.29292	0.36249	0.36468	0.35252	0.23785	0.22214	0.18074	0.27334	0.34173	0.42550
55130	0.11467	0.12588	0.08228	0.40045	0.45229	0.39661	0.80784	0.50148	0.29975	0.36644	0.36763	0.35564	0.24125	0.22620	0.18202	0.27963	0.34594	0.42987
55290	0.11668	0.12412	0.08270	0.39870	0.44919	0.39351	0.79636	0.49577	0.29439	0.36202	0.36381	0.35213	0.23993	0.22391	0.18228	0.27578	0.34457	0.42811
55450	0.11343	0.12156	0.08200	0.39745	0.44771	0.39096	0.79855	0.49767	0.29323	0.36172	0.36409	0.35158	0.24015	0.22208	0.18069	0.27267	0.34242	0.42581
55620	0.11273	0.11983	0.07933	0.39514	0.44453	0.38927	0.79432	0.49314	0.29058	0.35930	0.36231	0.35005	0.23737	0.22415	0.18424	0.27548	0.34422	0.42768
55780	0.11067	0.12309	0.08075	0.39842	0.44891	0.39290	0.80073	0.49763	0.29480	0.36235	0.36356	0.35213	0.23642	0.22249	0.18105	0.27483	0.34200	0.42575	25.39	6.1	0.00	7.25	0.01280	0.01297	0.01675	0.00806	0.00600	0.00656	0.00472	0.01277	0.01699	0.00696	0.00715	0.00918	0.01501	0.01104	0.01205	0.00226	0.00640	0.00898
55950	0.11174	0.12362	0.08234	0.39853	0.44856	0.39284	0.79987	0.50086	0.29467	0.36297	0.36378	0.35264	0.23922	0.22338	0.18228	0.27627	0.34341	0.42667
56110	0.11456	0.12287	0.08112	0.39833	0.44865	0.39191	0.80218	0.49720	0.29444	0.36322	0.36277	0.35223	0.23869	0.22225	0.17905	0.27568	0.34324	0.42696
56280	0.11218	0.12281	0.08222	0.39770	0.44860	0.39196	0.80255	0.49703	0.29524	0.36218	0.36347	0.35268	0.23908	0.22381	0.17948	0.27783	0.34306	0.42733
56440	0.11445	0.12365	0.08352	0.39769	0.44837	0.39220	0.79395	0.49701	0.29540	0.36204	0.36358	0.35202	0.23829	0.22456	0.18204	0.27613	0.34091	0.42694
56610	0.11375	0.12463	0.08274	0.39743	0.44841	0.39247	0.80157	0.49843	0.29287	0.36298	0.36363	0.35185	0.23941	0.22411	0.18145	0.27642	0.34337	0.42738
56770	0.11435	0.12399	0.08238	0.39806	0.44804	0.39099	0.79400	0.49774	0.29337	0.36156	0.36201	0.35140	0.23806	0.22392	0.18169	0.27542	0.34307	0.42735
56940	0.11379	0.12420	0.08106	0.39857	0.44848	0.39175	0.79456	0.50012	0.29466	0.36208	0.36195	0.35199	0.23613	0.22337	0.18082	0.27583	0.34177	0.42626
57100	0.11240	0.12287	0.08251	0.39743	0.44753	0.39338	0.79862	0.50172	0.29421	0.36277	0.36309	0.35265	0.24099	0.22430	0.18264	0.27602	0.34272	0.42833
57270	0.11339	0.12335	0.07981	0.39693	0.44590	0.39126	0.79392	0.49619	0.29128	0.36141	0.36158	0.35109	0.23923	0.22504	0.18293	0.27731	0.34460	0.42994
57430	0.11427	0.12335	0.08371	0.39812	0.44823	0.39177	0.79817	0.49710	0.29394	0.36222	0.36100	0.35213	0.23994	0.22256	0.18118	0.27330	0.34074	0.42490	25.39	6.0	0.00	7.37	0.01280	0.01297	0.01675	0.00806	0.00600	0.00656	0.00472	0.01277	0.01699	0.00696	0.00715	0.00918	0.01501	0.01104	0.01205	0.00226	0.00640	0.00898
57590	0.11420	0.12528	0.08356	0.39803	0.44890	0.39322	0.80181	0.50133	0.29673	0.36474	0.36268	0.35348	0.24048	0.22252	0.18136	0.27648	0.34294	0.42692
57760	0.11286	0.12292	0.08034	0.39588	0.44529	0.38994	0.79497	0.49614	0.29322	0.36211	0.36016	0.35099	0.24205	0.22523	0.18538	0.27615	0.34530	0.42914
57920	0.11548	0.12565	0.08188	0.39870	0.44850	0.39296	0.79696	0.49969	0.29526	0.36419	0.36272	0.35288	0.23907	0.22501	0.17889	0.27508	0.34166	0.42541
58090	0.11425	0.12372	0.08368	0.39932	0.45012	0.39470	0.80650	0.50298	0.29893	0.36647	0.36399	0.35461	0.24280	0.22490	0.18394	0.27770	0.34442	0.42881
58250	0.11334	0.12427	0.08216	0.39759	0.44674	0.39106	0.80291	0.49923	0.29450	0.36396	0.36081	0.35233	0.23801	0.22616	0.18400	0.27737	0.34420	0.42917
58420	0.11435	0.12263	0.08360	0.39833	0.44784	0.39253	0.80815	0.49849	0.29334	0.36435	0.36089	0.35366	0.23626	0.22076	0.18045	0.27304	0.34128	0.42570
58580	0.11168	0.12176	0.08202	0.39422	0.44329	0.38870	0.79259	0.49469	0.29052	0.36197	0.35807	0.35033	0.23895	0.22527	0.18313	0.27741	0.34605	0.43031
58740	0.11484	0.12645	0.08373	0.39940	0.44843	0.39394	0.80864	0.49932	0.29511	0.36607	0.36181	0.35384	0.23873	0.22412	0.17997	0.27715	0.34361	0.42745
58910	0.11298	0.12395	0.08173	0.39668	0.44604	0.39155	0.80028	0.49647	0.29477	0.36465	0.36048	0.35401	0.23706	0.22169	0.18197	0.27689	0.34398	0.42766
59070	0.11261	0.12375	0.08064	0.39667	0.44380	0.39062	0.79612	0.49263	0.29185	0.36364	0.35955	0.35164	0.24158	0.22598	0.18367	0.27912	0.34629	0.43044	25.39	6.1	0.00	7.24	0.01281	0.01297	0.01675	0.00806	0.00600	0.00656	0.00472	0.01277	0.01699	0.00696	0.00715	0.00918	0.01501	0.01104	0.01205	0.00226	0.00640	0.00898
59240	0.11552	0.12560	0.08234	0.39992	0.44751	0.39439	0.79636	0.49776	0.29471	0.36706	0.36287	0.35389	0.24140	0.22435	0.18520	0.28093	0.34793	0.43177
59400	0.11653	0.12754	0.08455	0.40247	0.45058	0.39649	0.80044	0.50332	0.29924	0.36986	0.36438	0.35633	0.24195	0.22395	0.18622	0.28164	0.34769	0.43106
59560	0.11507	0.12582	0.08387	0.40063	0.44878	0.39533	0.80472	0.50242	0.29710	0.36830	0.36294	0.35563	0.24033	0.22388	0.18254	0.27941	0.34554	0.42948
59730	0.11250	0.12218	0.08211	0.39875	0.44620	0.39285	0.79649	0.49764	0.29390	0.36660	0.35956	0.35366	0.23497	0.22030	0.18032	0.27590	0.34322	0.42636
59890	0.11136	0.12421	0.08230	0.39689	0.44650	0.39482	0.80091	0.49942	0.29489	0.36801	0.36218	0.35458	0.23663	0.22349	0.18178	0.28027	0.34526	0.42929
60060	0.11113	0.12257	0.08218	0.39925	0.44690	0.39317	0.79776	0.49705	0.29321	0.36739	0.36103	0.35366	0.23575	0.21886	0.18039	0.27705	0.34372	0.42815
60220	0.11179	0.12414	0.08388	0.39834	0.44816	0.39709	0.79914	0.49997	0.29585	0.36907	0.36412	0.35631	0.23784	0.22332	0.18230	0.28171	0.34726	0.43065
60380	0.11451	0.12369	0.08148	0.40076	0.44692	0.39419	0.79113	0.49388	0.29224	0.36661	0.36026	0.35307	0.23824	0.22440	0.18403	0.28193	0.34855	0.43228
60550	0.11314	0.12388	0.08355	0.40075	0.44882	0.39535	0.80044	0.49941	0.29306	0.36796	0.36272	0.35492	0.23807	0.22182	0.18006	0.27975	0.34639	0.43094
60710	0.11051	0.12287	0.08364	0.40173	0.44978	0.39533	0.79884	0.49801	0.29525	0.36987	0.36375	0.35490	0.23850	0.22462	0.18149	0.28232	0.34791	0.43176	25.45	6.1	0.00	7.24	0.01280	0.01297	0.01675	0.00806	0.00600	0.00656	0.00472	0.01276	0.01699	0.00696	0.00715	0.00918	0.01501	0.01104	0.01205	0.00226	0.00640	0.00898
60880	0.11288	0.12326	0.08210	0.40047	0.44852	0.39446	0.79798	0.49716	0.29190	0.36773	0.36226	0.35394	0.23645	0.22260	0.18637	0.28044	0.34883	0.43381
61040	0.11496	0.12408	0.08184	0.40182	0.44916	0.39649	0.80336	0.49665	0.29385	0.36917	0.36394	0.35539	0.23944	0.21984	0.18094	0.28166	0.34696	0.43154
61210	0.11389	0.12448	0.08330	0.40251	0.45207	0.39776	0.80553	0.49881	0.29524	0.37072	0.36476	0.35691	0.24084	0.22414	0.18281	0.28321	0.34960	0.43381
61370	0.11411	0.12272	0.08223	0.40164	0.44963	0.39584	0.79156	0.49478	0.29318	0.36856	0.36390	0.35568	0.23889	0.22221	0.18268	0.28266	0.34892	0.43347
61540	0.11239	0.12434	0.08285	0.40235	0.45085	0.39749	0.79571	0.49668	0.29498	0.36914	0.36493	0.35526	0.23803	0.22317	0.18059	0.27955	0.34754	0.43127
61700	0.11354	0.12472	0.08294	0.40264	0.45233	0.39784	0.79697	0.49901	0.29658	0.37021	0.36680	0.35690	0.24018	0.22365	0.18028	0.28184	0.34828	0.43299
61870	0.11388	0.12505	0.08148	0.40254	0.45144	0.39651	0.79859	0.50017	0.29366	0.37042	0.36562	0.35676	0.23833	0.22295	0.18432	0.28210	0.34894	0.43253
62030	0.11459	0.12380	0.08208	0.40270	0.45140	0.39658	0.79097	0.49612	0.29536	0.36924	0.36631	0.35674	0.23987	0.22324	0.17941	0.28155	0.34746	0.43195
62190	0.10997	0.12157	0.08140	0.40071	0.44891	0.39366	0.79992	0.49489	0.29124	0.36785	0.36337	0.35408	0.23972	0.22309	0.18125	0.27918	0.34774	0.43241
62360	0.11128	0.12422	0.08155	0.40191	0.45037	0.39654	0.79943	0.49560	0.29199	0.36941	0.36432	0.35574	0.24049	0.22636	0.18623	0.28482	0.34998	0.43379	25.45	6.0	0.00	7.38	0.01280	0.01297	0.01675	0.00806	0.00600	0.00656	0.00472	0.01276	0.01699	0.00696	0.00715	0.00918	0.01501	0.01104	0.01205	0.00226	0.00640	0.00898
62530	0.11373	0.12501	0.08048	0.40367	0.45212	0.39770	0.80214	0.49857	0.29366	0.36994	0.36562	0.35689	0.24059	0.22686	0.18686	0.28511	0.35318	0.43700
62690	0.11807	0.12599	0.08627	0.40692	0.45434	0.40039	0.80312	0.50201	0.29729	0.37255	0.36785	0.35934	0.24282	0.22660	0.18694	0.28626	0.35091	0.43508
62850	0.11399	0.12339	0.08338	0.40366	0.45120	0.39814	0.79520	0.49678	0.29548	0.36989	0.36585	0.35725	0.23872	0.22216	0.18561	0.28141	0.34844	0.43258
63020	0.11262	0.12288	0.08099	0.40162	0.44938	0.39568	0.79218	0.49515	0.29086	0.36875	0.36528	0.35623	0.24000	0.22621	0.18722	0.28819	0.35414	0.43750
63180	0.11651	0.12627	0.08549	0.40725	0.45443	0.40050	0.80366	0.49995	0.29840	0.37282	0.36766	0.35997	0.23876	0.22777	0.18488	0.28715	0.35203	0.43457
63350	0.11569	0.12539	0.08639	0.40549	0.45515	0.40121	0.80054	0.50033	0.29962	0.37366	0.36894	0.36040	0.24087	0.22736	0.18497	0.28793	0.35261	0.43501
