WetView ver 7.1	07-16-2018	12:57:00
AC9 Absorption and Attenuation Meter
00000266		; Serial number
2	; structure version number
Reserved
0.000000	0.000000		; Depth calibration
19200			; Baud rate
0.100000			; Path length (meters)
31			; number of temperature calibration bins
				12.59339	13.44920	14.48425	15.49668	16.50852	17.49564	18.50545	19.52458	20.50176	21.48889	22.47318	23.48707	24.50962	25.49370	26.49784	27.51372	28.50746	29.47237	30.47938	31.50214	32.50470	33.49235	34.50337	35.50914	36.50618	37.52058	38.51018	39.51308	40.49994	41.49866	42.47204	; temperature bins
a650	Blue	20.34952		-0.00383	-0.00415	-0.00430	-0.00391	-0.00363	-0.00317	-0.00269	-0.00237	-0.00179	-0.00130	-0.00099	-0.00071	-0.00015	0.00000	0.00004	-0.00001	0.00015	0.00036	0.00058	0.00101	0.00161	0.00132	0.00160	0.00169	0.00242	0.00273	0.00336	0.00365	0.00427	0.00566	0.00670		; offset and temperature correction info
a676	Green	20.51193		-0.00398	-0.00384	-0.00360	-0.00306	-0.00302	-0.00255	-0.00235	-0.00212	-0.00163	-0.00136	-0.00118	-0.00089	-0.00029	0.00000	0.00068	0.00082	0.00099	0.00137	0.00145	0.00212	0.00260	0.00252	0.00321	0.00354	0.00457	0.00535	0.00617	0.00648	0.00742	0.00887	0.01002		; offset and temperature correction info
a715	Brown	20.23230		-0.00421	-0.00394	-0.00391	-0.00291	-0.00264	-0.00192	-0.00204	-0.00179	-0.00188	-0.00239	-0.00180	-0.00187	-0.00099	0.00000	0.00084	0.00162	0.00188	0.00224	0.00321	0.00381	0.00466	0.00528	0.00588	0.00696	0.00859	0.01041	0.01148	0.01282	0.01333	0.01456	0.01617		; offset and temperature correction info
c510	Red	20.40042		-0.00261	-0.00247	-0.00258	-0.00225	-0.00203	-0.00197	-0.00199	-0.00203	-0.00154	-0.00103	-0.00069	-0.00019	-0.00007	0.00000	0.00011	-0.00021	-0.00042	-0.00056	-0.00040	0.00011	0.00036	0.00050	0.00077	0.00079	0.00050	0.00042	0.00043	0.00092	0.00147	0.00200	0.00232		; offset and temperature correction info
c532	Magenta	20.40760		-0.00248	-0.00265	-0.00278	-0.00279	-0.00296	-0.00292	-0.00238	-0.00206	-0.00129	-0.00096	-0.00092	-0.00052	-0.00009	0.00000	0.00007	-0.00049	-0.00136	-0.00107	-0.00079	-0.00065	-0.00074	-0.00105	-0.00152	-0.00192	-0.00236	-0.00269	-0.00252	-0.00233	-0.00172	-0.00128	-0.00067		; offset and temperature correction info
c555	Black	20.50654		-0.00053	-0.00063	-0.00106	-0.00094	-0.00068	-0.00055	-0.00053	-0.00039	-0.00028	-0.00025	-0.00011	-0.00035	-0.00007	0.00000	-0.00037	-0.00055	-0.00036	-0.00014	0.00019	0.00044	0.00032	0.00040	0.00050	0.00028	0.00014	0.00013	0.00030	0.00073	0.00117	0.00176	0.00241		; offset and temperature correction info
a412	LtBlue	17.15231		-0.01972	-0.01823	-0.01612	-0.01381	-0.01272	-0.01080	-0.00959	-0.00866	-0.00710	-0.00532	-0.00354	-0.00148	-0.00028	0.00000	0.00176	0.00297	0.00394	0.00440	0.00453	0.00487	0.00804	0.00856	0.01065	0.01248	0.01388	0.01439	0.01659	0.01881	0.02256	0.02450	0.02719		; offset and temperature correction info
a440	LtGreen	18.00171		-0.00729	-0.00642	-0.00581	-0.00502	-0.00426	-0.00349	-0.00244	-0.00218	-0.00179	-0.00101	-0.00046	-0.00006	0.00036	0.00000	0.00040	0.00045	0.00030	-0.00015	-0.00024	-0.00035	0.00012	-0.00013	-0.00033	-0.00089	-0.00142	-0.00189	-0.00231	-0.00205	-0.00140	-0.00140	-0.00146		; offset and temperature correction info
a488	Yellow	18.86491		-0.00113	-0.00102	-0.00106	-0.00064	-0.00027	-0.00020	-0.00030	-0.00037	-0.00047	-0.00059	-0.00052	-0.00012	0.00008	0.00000	0.00025	0.00012	-0.00013	-0.00043	-0.00065	-0.00076	-0.00025	0.00010	0.00090	0.00111	0.00113	0.00104	0.00073	0.00068	0.00120	0.00186	0.00258		; offset and temperature correction info
c650	Blue	20.46075		-0.00145	-0.00097	-0.00092	-0.00139	-0.00185	-0.00196	-0.00237	-0.00266	-0.00238	-0.00163	-0.00083	-0.00041	-0.00010	0.00000	0.00005	-0.00001	0.00015	0.00034	0.00029	0.00065	0.00101	0.00164	0.00126	0.00156	0.00175	0.00270	0.00287	0.00371	0.00407	0.00473	0.00534		; offset and temperature correction info
c676	Green	20.10118		-0.00170	-0.00144	-0.00149	-0.00177	-0.00188	-0.00194	-0.00198	-0.00196	-0.00177	-0.00156	-0.00140	-0.00091	-0.00033	0.00000	0.00050	0.00092	0.00110	0.00141	0.00167	0.00199	0.00216	0.00265	0.00269	0.00289	0.00315	0.00374	0.00367	0.00408	0.00486	0.00561	0.00646		; offset and temperature correction info
c715	Brown	19.91219		-0.01201	-0.01097	-0.00859	-0.00680	-0.00651	-0.00592	-0.00535	-0.00440	-0.00387	-0.00303	-0.00222	-0.00153	-0.00028	0.00000	0.00093	0.00149	0.00247	0.00322	0.00330	0.00427	0.00373	0.00464	0.00536	0.00551	0.00643	0.00733	0.00779	0.00884	0.00899	0.01021	0.01120		; offset and temperature correction info
a510	Red	19.21192		0.00201	0.00193	0.00158	0.00098	0.00089	0.00049	0.00011	-0.00016	-0.00016	-0.00005	0.00028	0.00025	0.00006	0.00000	0.00035	-0.00022	-0.00023	-0.00080	-0.00144	-0.00154	-0.00153	-0.00204	-0.00220	-0.00219	-0.00190	-0.00128	-0.00069	-0.00018	0.00068	0.00152	0.00241		; offset and temperature correction info
a532	Magenta	19.41084		-0.00097	-0.00072	-0.00060	-0.00081	-0.00062	-0.00071	-0.00040	0.00020	0.00028	0.00043	0.00000	-0.00035	0.00007	0.00000	-0.00011	-0.00059	-0.00080	-0.00098	-0.00137	-0.00162	-0.00163	-0.00130	-0.00073	-0.00018	0.00090	0.00185	0.00175	0.00247	0.00291	0.00327	0.00349		; offset and temperature correction info
a555	Black	19.69776		0.00171	0.00183	0.00183	0.00186	0.00191	0.00170	0.00115	0.00131	0.00097	0.00073	0.00060	0.00013	0.00015	0.00000	0.00014	-0.00029	-0.00066	-0.00082	-0.00116	-0.00139	-0.00134	-0.00167	-0.00119	-0.00093	-0.00048	0.00053	0.00111	0.00095	0.00178	0.00206	0.00273		; offset and temperature correction info
c412	LtBlue	19.91180		-0.02051	-0.01853	-0.01589	-0.01311	-0.01059	-0.00877	-0.00705	-0.00581	-0.00413	-0.00231	-0.00098	-0.00066	-0.00011	0.00000	-0.00013	-0.00085	-0.00170	-0.00170	-0.00302	-0.00330	-0.00429	-0.00551	-0.00626	-0.00775	-0.00978	-0.01181	-0.01113	-0.01108	-0.01116	-0.01192	-0.01291		; offset and temperature correction info
c440	LtGreen	20.06241		-0.01064	-0.00992	-0.00892	-0.00766	-0.00639	-0.00531	-0.00478	-0.00384	-0.00287	-0.00187	-0.00102	-0.00063	-0.00023	0.00000	-0.00007	-0.00053	-0.00090	-0.00119	-0.00169	-0.00197	-0.00226	-0.00257	-0.00260	-0.00289	-0.00394	-0.00470	-0.00481	-0.00493	-0.00520	-0.00580	-0.00620		; offset and temperature correction info
c488	Yellow	20.35984		-0.01125	-0.01082	-0.00966	-0.00833	-0.00726	-0.00661	-0.00579	-0.00500	-0.00389	-0.00278	-0.00167	-0.00113	-0.00041	0.00000	0.00055	0.00121	0.00187	0.00226	0.00222	0.00251	0.00281	0.00359	0.00414	0.00427	0.00401	0.00404	0.00486	0.00563	0.00638	0.00684	0.00718		; offset and temperature correction info
0.003500	0.004000	0.015000	0.020000	0.015000	0.020000	2500.000000	2000.000000	1000.000000	; maxANoise	maxCNoise	maxADifference	maxCDifference	minACounts	minCCounts	minRCounts	maxTempSdev	maxDepthSdev
0			; auxilliary capabilities
1			; acquisition binsize
0	0.51135	0.45574	0.30664	2.78060	2.32250	1.89193	9.45147	5.72897	2.71145	1.12404	1.03825	0.88230	2.05914	1.58243	1.22216	9.76059	6.27291	3.44527	30.12	6.1	0.00	7.53	0.01267	0.01288	0.01633	0.00779	0.00580	0.00636	0.00467	0.01263	0.01679	0.00677	0.00698	0.00880	0.01487	0.01092	0.01194	0.00217	0.00616	0.00865
160	0.52573	0.47341	0.31745	2.79020	2.36637	1.94715	9.46758	5.73450	2.70524	1.14758	1.05971	0.91968	2.05155	1.56187	1.22139	9.82017	6.30488	3.44016
320	0.50104	0.44747	0.31249	2.76306	2.33273	1.91673	9.43869	5.71815	2.69360	1.09569	1.01261	0.86498	2.04242	1.57579	1.21902	9.78104	6.28430	3.42376
490	0.49658	0.45860	0.31465	2.74638	2.31396	1.93994	9.45638	5.70850	2.69943	1.09545	1.02143	0.87169	2.04076	1.56057	1.21335	9.78384	6.29706	3.43714
650	0.50780	0.46465	0.31252	2.76807	2.35064	1.93583	9.43544	5.70424	2.71561	1.11853	1.05060	0.90043	2.04693	1.58356	1.21616	9.76567	6.26290	3.39766
810	0.50658	0.45802	0.30447	2.75103	2.31353	1.90675	9.43716	5.70013	2.69334	1.08697	1.02080	0.86808	2.04656	1.57620	1.20573	9.77315	6.26945	3.39468
980	0.49986	0.44260	0.30052	2.72160	2.31159	1.92063	9.46841	5.69459	2.70039	1.12753	1.00301	0.88006	2.04788	1.56715	1.21131	9.75122	6.24121	3.39683
1140	0.49148	0.44905	0.29917	2.74460	2.30301	1.88496	9.45851	5.70374	2.69308	1.08928	0.98299	0.86678	2.05523	1.56812	1.20197	9.75820	6.23560	3.38614
1300	0.49527	0.45015	0.30419	2.73977	2.30182	1.90690	9.42192	5.71230	2.69556	1.10599	1.00789	0.87039	2.04307	1.57135	1.20400	9.72894	6.25203	3.41987
1470	0.49054	0.44158	0.29086	2.73909	2.28404	1.88692	9.43527	5.69445	2.69262	1.11279	0.99836	0.87567	2.02898	1.56149	1.19808	9.72765	6.22638	3.37195
1630	0.49015	0.43789	0.29808	2.73563	2.30696	1.89301	9.44625	5.69491	2.68322	1.09605	1.00298	0.87808	2.02991	1.55711	1.21172	9.77085	6.25988	3.40127	30.12	6.2	0.00	7.47	0.01267	0.01288	0.01632	0.00779	0.00580	0.00636	0.00467	0.01263	0.01679	0.00677	0.00698	0.00880	0.01487	0.01092	0.01194	0.00217	0.00616	0.00865
1790	0.49735	0.44037	0.29887	2.72853	2.30225	1.89852	9.43880	5.70243	2.69018	1.09318	1.00998	0.88768	2.03632	1.56939	1.21209	9.73927	6.24743	3.39335
1950	0.50009	0.45546	0.31109	2.73377	2.27606	1.89961	9.47486	5.71699	2.70816	1.07367	0.99178	0.85411	2.04960	1.57283	1.21076	9.74932	6.29366	3.41556
2120	0.49955	0.44658	0.30102	2.73938	2.28633	1.88122	9.41885	5.69522	2.68662	1.08277	0.99174	0.85243	2.02594	1.56881	1.20102	9.73052	6.25025	3.40011
2280	0.49263	0.44977	0.29085	2.74366	2.30811	1.92072	9.45122	5.69159	2.68570	1.09491	1.01258	0.88844	2.04314	1.56125	1.20048	9.76098	6.26309	3.43730
2440	0.49778	0.45959	0.31225	2.80222	2.36043	1.91912	9.47373	5.73325	2.71446	1.13310	1.01760	0.89760	2.05210	1.58768	1.21313	9.79363	6.26660	3.41539
2610	0.49565	0.46602	0.32153	2.76067	2.31654	1.91533	9.46016	5.71407	2.70494	1.11316	0.99102	0.86689	2.05083	1.57973	1.21551	9.74016	6.24340	3.40333
2770	0.50177	0.45865	0.32116	2.76160	2.33025	1.89500	9.43638	5.70023	2.69695	1.08424	1.00839	0.87890	2.04528	1.56867	1.21710	9.73469	6.26007	3.43794
2940	0.49850	0.45634	0.31210	2.78337	2.32521	1.90083	9.45821	5.69834	2.68508	1.08644	0.99939	0.89017	2.05272	1.56817	1.21199	9.73449	6.22495	3.37984
3100	0.50702	0.46059	0.31045	2.74290	2.28722	1.87150	9.47284	5.70988	2.69782	1.09202	1.00078	0.85632	2.03786	1.56719	1.21464	9.72992	6.25368	3.43785
3270	0.49288	0.44632	0.29354	2.74423	2.30835	1.89153	9.44681	5.70293	2.69826	1.07995	0.97837	0.87323	2.03896	1.56567	1.21433	9.73655	6.24947	3.42054	30.12	6.1	0.00	7.47	0.01267	0.01288	0.01632	0.00779	0.00580	0.00636	0.00466	0.01263	0.01679	0.00677	0.00698	0.00880	0.01486	0.01092	0.01194	0.00217	0.00616	0.00865
3430	0.50836	0.46247	0.30774	2.76233	2.31678	1.93059	9.48979	5.72823	2.70698	1.11435	1.04781	0.92456	2.05930	1.59335	1.23160	9.79889	6.35388	3.47035
3600	0.53104	0.49107	0.32567	2.79644	2.37975	1.93629	9.47963	5.71803	2.72795	1.15278	1.06933	0.93692	2.06663	1.59158	1.24116	9.78669	6.29762	3.46553
3760	0.51109	0.47413	0.32066	2.77120	2.31911	1.91576	9.45527	5.72765	2.71258	1.09538	1.01160	0.87889	2.03718	1.57333	1.22364	9.75745	6.27076	3.42120
3920	0.51356	0.45520	0.29690	2.80422	2.34273	1.92727	9.45444	5.70676	2.70046	1.10849	1.05095	0.96478	2.03910	1.57184	1.23461	9.76273	6.29789	3.40537
4090	0.49452	0.44792	0.31572	2.74853	2.30714	1.88456	9.45060	5.71206	2.68621	1.07880	0.99273	0.88545	2.04731	1.57239	1.21067	9.74182	6.22454	3.39269
4250	0.50696	0.45289	0.30935	2.74811	2.32118	1.89954	9.45391	5.70617	2.69388	1.08606	0.97782	0.86083	2.03571	1.57125	1.21470	9.76463	6.24308	3.38621
4420	0.49540	0.46626	0.30718	2.75141	2.31390	1.88037	9.47180	5.71673	2.70020	1.09613	0.99868	0.86385	2.03684	1.55472	1.20455	9.74918	6.24243	3.39204
4580	0.48888	0.43689	0.29136	2.73822	2.31059	1.88952	9.44912	5.69103	2.68279	1.07414	1.01022	0.84689	2.03391	1.57476	1.20764	9.73565	6.25472	3.38563
4740	0.49425	0.44105	0.29200	2.74185	2.32586	1.87602	9.45817	5.70145	2.69609	1.08651	0.99333	0.91068	2.04246	1.56969	1.21440	9.80169	6.24816	3.40656
4910	0.50063	0.45059	0.31360	2.75847	2.33189	1.91038	9.44898	5.71361	2.71511	1.10435	1.01967	0.87192	2.06942	1.58606	1.23370	9.78127	6.26788	3.41231	30.17	6.0	0.00	7.03	0.01267	0.01288	0.01632	0.00779	0.00580	0.00636	0.00466	0.01263	0.01678	0.00677	0.00697	0.00880	0.01487	0.01092	0.01194	0.00217	0.00616	0.00865
5070	0.50180	0.45336	0.31358	2.73645	2.31671	1.90900	9.46177	5.70565	2.69984	1.10712	1.01526	0.87405	2.05465	1.58063	1.21994	9.77029	6.31007	3.40859
5230	0.50811	0.45954	0.30741	2.74026	2.30932	1.89126	9.47398	5.71567	2.69713	1.10169	0.98639	0.85170	2.03885	1.57783	1.21217	9.76132	6.25338	3.40607
5400	0.49768	0.44773	0.30812	2.73484	2.31477	1.90919	9.46568	5.70714	2.69535	1.09391	0.97630	0.85540	2.03806	1.56992	1.23086	9.76132	6.24752	3.40054
5560	0.48708	0.45262	0.30917	2.74300	2.28587	1.89112	9.44537	5.71005	2.68876	1.09722	1.01804	0.87184	2.05197	1.57075	1.22303	9.76172	6.25224	3.43306
5720	0.50108	0.44311	0.30361	2.74124	2.29913	1.90120	9.46153	5.69660	2.70028	1.11098	0.98644	0.90702	2.04510	1.59057	1.22205	9.75753	6.24133	3.41330
5890	0.49944	0.44988	0.31411	2.75126	2.35408	1.93240	9.45957	5.70969	2.72299	1.14356	1.02785	0.88562	2.06178	1.57844	1.21756	9.78147	6.34774	3.48456
6050	0.51177	0.47552	0.32691	2.82447	2.36133	1.99865	9.46663	5.74219	2.72238	1.20992	1.08206	0.92412	2.10109	1.61124	1.27518	9.88102	6.33310	3.47898
6220	0.53875	0.50135	0.34172	2.92055	2.36810	2.03268	9.47879	5.73109	2.72696	1.16937	1.08974	0.95903	2.09172	1.60494	1.25304	9.87054	6.34060	3.49435
6380	0.51628	0.49110	0.32726	2.79053	2.34852	1.96814	9.47499	5.72215	2.72260	1.14180	1.05551	0.89636	2.08301	1.58920	1.23302	9.78117	6.26182	3.39318
6540	0.51405	0.45544	0.30782	2.77060	2.31903	1.90659	9.46888	5.71319	2.70451	1.13169	1.05505	0.92306	2.07513	1.57243	1.21836	9.74719	6.24931	3.44492	30.17	6.2	0.00	7.42	0.01267	0.01288	0.01632	0.00779	0.00580	0.00636	0.00466	0.01263	0.01678	0.00677	0.00698	0.00880	0.01486	0.01092	0.01194	0.00217	0.00616	0.00865
6710	0.50071	0.45335	0.30130	2.78170	2.30740	1.88232	9.43774	5.70417	2.69900	1.12307	1.01822	0.88680	2.05282	1.57450	1.21684	9.77030	6.29452	3.45568
6870	0.49130	0.44935	0.30117	2.76796	2.31336	1.92043	9.46378	5.71696	2.70245	1.11027	0.99840	0.86246	2.04035	1.58231	1.21254	9.80526	6.26887	3.44029
7030	0.49574	0.46545	0.31165	2.81741	2.35700	1.93282	9.46597	5.71485	2.72172	1.20230	1.07461	0.93614	2.07041	1.59909	1.23557	9.82019	6.27812	3.44335
7200	0.52420	0.47092	0.30972	2.77770	2.33826	1.93818	9.48116	5.72250	2.70933	1.14021	1.04832	0.92676	2.07766	1.60301	1.25254	9.82179	6.37079	3.46508
7360	0.53524	0.48060	0.33187	2.79085	2.34153	1.96273	9.46402	5.72640	2.70567	1.13494	1.02373	0.90711	2.06349	1.58137	1.21491	9.80166	6.30192	3.42041
7530	0.50822	0.46384	0.32583	2.80820	2.34644	1.97637	9.46835	5.73638	2.70780	1.12114	1.06318	0.93824	2.07769	1.60705	1.23793	9.82169	6.32455	3.48752
7690	0.52537	0.47535	0.33856	2.81181	2.33801	1.92777	9.48829	5.75653	2.73041	1.11057	1.04249	0.94357	2.07081	1.58382	1.23722	9.82379	6.27501	3.47657
7860	0.52280	0.50209	0.32856	2.83551	2.35528	1.95048	9.46082	5.73490	2.69865	1.12240	1.00459	0.88987	2.05383	1.58545	1.25251	9.78916	6.30832	3.47834
8020	0.51440	0.47162	0.31911	2.78647	2.34614	1.93422	9.46870	5.71640	2.73278	1.12382	1.04174	0.91424	2.07291	1.59090	1.24368	9.80276	6.29520	3.44594
8180	0.50389	0.47411	0.30920	2.78547	2.33185	1.95140	9.46619	5.73140	2.72994	1.18943	1.07033	0.94409	2.05228	1.63298	1.23971	9.82141	6.32754	3.48696	30.17	6.1	0.00	7.45	0.01266	0.01288	0.01632	0.00779	0.00580	0.00636	0.00466	0.01263	0.01678	0.00676	0.00698	0.00879	0.01486	0.01092	0.01193	0.00217	0.00616	0.00865
8350	0.52984	0.46590	0.31709	2.82329	2.38008	1.98597	9.46281	5.75860	2.73757	1.18845	1.11233	0.97298	2.07253	1.59772	1.24059	9.85102	6.35674	3.49461
8510	0.52923	0.47852	0.34019	2.80814	2.35697	1.94559	9.51570	5.75486	2.75605	1.18763	1.05157	0.92408	2.08751	1.60970	1.24306	9.82492	6.31009	3.47680
8670	0.52833	0.47599	0.34098	2.82310	2.40103	1.95164	9.47449	5.70974	2.73599	1.15214	1.05803	0.91579	2.06423	1.59879	1.24343	9.79419	6.29045	3.43196
8840	0.50423	0.46360	0.31069	2.76053	2.31428	1.92653	9.46453	5.72505	2.72106	1.16317	1.03192	0.90744	2.05567	1.60831	1.24099	9.82221	6.28103	3.45537
9000	0.52656	0.49822	0.33733	2.79197	2.35121	1.95058	9.49112	5.72785	2.73851	1.16490	1.06516	0.94641	2.05329	1.57948	1.23390	9.84740	6.27036	3.46077
9160	0.52756	0.48433	0.32274	2.80319	2.34729	1.94738	9.48542	5.73227	2.70106	1.10698	1.02357	0.89957	2.05207	1.58430	1.22445	9.82432	6.32353	3.47702
9330	0.49666	0.46456	0.31201	2.79024	2.34977	1.96524	9.46909	5.71576	2.74325	1.14027	1.05376	0.87499	2.05914	1.60254	1.25179	9.80569	6.27070	3.43936
9490	0.51315	0.48037	0.32783	2.76578	2.35006	1.99269	9.48227	5.73239	2.74721	1.12859	1.05156	0.91111	2.07779	1.60212	1.24075	9.81881	6.27430	3.44873
9650	0.51507	0.48474	0.32468	2.77128	2.35986	1.90423	9.49540	5.72915	2.72234	1.11980	1.06204	0.91801	2.03952	1.58092	1.23003	9.80049	6.31540	3.47183
9820	0.52329	0.46378	0.31204	2.74117	2.31320	1.90360	9.45949	5.71020	2.70189	1.11821	1.01576	0.88231	2.04652	1.57485	1.21870	9.80667	6.28406	3.39357	30.12	6.2	0.00	7.46	0.01266	0.01288	0.01632	0.00779	0.00580	0.00636	0.00466	0.01263	0.01678	0.00677	0.00698	0.00879	0.01486	0.01092	0.01193	0.00217	0.00616	0.00865
9980	0.50080	0.44828	0.30656	2.74262	2.33533	1.88572	9.44895	5.71568	2.69284	1.07790	1.00322	0.86038	2.05186	1.57607	1.21668	9.79866	6.26705	3.41108
10140	0.49761	0.45799	0.32140	2.72523	2.30373	1.91039	9.47918	5.70988	2.69305	1.10044	1.01054	0.87600	2.03875	1.59351	1.21009	9.78986	6.27290	3.40141
10310	0.49016	0.45011	0.30692	2.77204	2.31066	1.91465	9.46145	5.72112	2.69622	1.08600	1.02485	0.88387	2.06616	1.58648	1.22320	9.77778	6.25500	3.42678
10470	0.51357	0.46372	0.32566	2.76962	2.34725	1.91958	9.47918	5.72943	2.72596	1.11484	1.01112	0.87947	2.07134	1.58229	1.23970	9.79506	6.31003	3.42211
10630	0.53097	0.47647	0.32298	2.74503	2.32401	1.92667	9.46145	5.71592	2.70132	1.11672	1.06455	0.91459	2.04422	1.58366	1.22717	9.77978	6.26861	3.42290
10800	0.49880	0.45638	0.30914	2.76796	2.31234	1.91706	9.43782	5.70626	2.70321	1.09742	0.99943	0.84792	2.03850	1.58249	1.21881	9.75257	6.27411	3.43610
10960	0.50191	0.45289	0.30686	2.75618	2.29839	1.89940	9.45043	5.69875	2.69140	1.07774	0.99988	0.86450	2.03413	1.56717	1.20606	9.76711	6.25172	3.40323
11120	0.50547	0.45569	0.32045	2.74906	2.34735	1.91201	9.46678	5.70582	2.70028	1.15393	1.04464	0.89962	2.05061	1.58822	1.21497	9.78677	6.26284	3.39513
11290	0.51551	0.45450	0.31690	2.74880	2.31453	1.91340	9.47040	5.72876	2.70225	1.12716	1.02587	0.89445	2.05739	1.58535	1.22880	9.79616	6.27977	3.41732
11450	0.51001	0.47605	0.31852	2.76144	2.32125	1.89433	9.46965	5.74075	2.71515	1.12399	1.01837	0.88585	2.05448	1.58041	1.21841	9.78807	6.28380	3.46705	30.17	6.2	0.00	7.45	0.01266	0.01288	0.01632	0.00779	0.00580	0.00636	0.00466	0.01263	0.01678	0.00676	0.00698	0.00879	0.01486	0.01092	0.01193	0.00217	0.00616	0.00865
11610	0.51137	0.45675	0.30985	2.77089	2.29472	1.90293	9.45921	5.70777	2.69383	1.07100	0.99501	0.87029	2.03551	1.57412	1.21532	9.76941	6.25301	3.39937
11780	0.49285	0.45289	0.30315	2.70222	2.28786	1.89292	9.45542	5.69522	2.69341	1.10100	1.02315	0.88512	2.04100	1.56270	1.20361	9.76642	6.23462	3.39039
11940	0.48587	0.43964	0.29413	2.71929	2.30509	1.91107	9.44885	5.70031	2.68134	1.09221	0.99211	0.84960	2.04677	1.57474	1.22327	9.72923	6.25413	3.39599
12110	0.49488	0.44432	0.29661	2.72376	2.29210	1.88246	9.44411	5.70470	2.68789	1.07507	0.98112	0.86174	2.03246	1.56896	1.20842	9.75000	6.24883	3.37507
12270	0.49184	0.43724	0.29778	2.72719	2.29111	1.88111	9.44352	5.70652	2.69468	1.07561	0.95703	0.82093	2.05286	1.57184	1.21314	9.73866	6.23396	3.38206
12430	0.49205	0.44673	0.29653	2.73339	2.27873	1.87759	9.44601	5.69686	2.68835	1.07185	0.95804	0.84348	2.03611	1.56114	1.20127	9.73926	6.25501	3.38975
12600	0.49661	0.44423	0.29516	2.72572	2.28406	1.88843	9.44802	5.70746	2.69013	1.07987	0.98286	0.85368	2.03991	1.56694	1.19709	9.74920	6.23744	3.41819
12760	0.49193	0.44263	0.30381	2.72043	2.28448	1.86599	9.45880	5.70940	2.70945	1.08280	0.97767	0.85607	2.04439	1.57502	1.21020	9.77799	6.24203	3.41289
12930	0.50020	0.45274	0.30578	2.73663	2.33045	1.89727	9.44417	5.71440	2.70303	1.09100	1.00912	0.88569	2.04690	1.58044	1.21510	9.78757	6.27532	3.44187
13090	0.49050	0.45606	0.33106	2.77971	2.35117	1.93044	9.48634	5.72374	2.72322	1.12195	1.03789	0.88815	2.07966	1.59061	1.25661	9.79779	6.27437	3.42558	30.17	6.1	0.00	7.54	0.01266	0.01288	0.01632	0.00779	0.00580	0.00636	0.00466	0.01263	0.01678	0.00676	0.00698	0.00879	0.01486	0.01092	0.01193	0.00217	0.00616	0.00865
13260	0.51770	0.47173	0.31389	2.75582	2.29597	1.90212	9.43436	5.70556	2.71215	1.08853	1.00581	0.89498	2.04445	1.57931	1.21933	9.77831	6.25304	3.43323
13420	0.50041	0.45501	0.32486	2.73851	2.33106	1.91627	9.48366	5.70614	2.70450	1.09789	0.99743	0.86138	2.03675	1.56813	1.22770	9.77821	6.27123	3.43446
13580	0.49381	0.44777	0.32071	2.75511	2.30377	1.90926	9.44648	5.71616	2.69521	1.09695	0.99999	0.86845	2.04630	1.56806	1.22098	9.74545	6.25214	3.38187
13750	0.50016	0.44607	0.32076	2.72642	2.28247	1.87160	9.45004	5.70692	2.73144	1.09167	1.03191	0.88846	2.06020	1.56491	1.20353	9.74564	6.23530	3.39575
13910	0.48688	0.44133	0.29701	2.71714	2.29684	1.87501	9.47345	5.70608	2.69670	1.10254	0.99086	0.86443	2.04031	1.56580	1.21078	9.76266	6.23741	3.39141
14070	0.49104	0.44698	0.30171	2.72619	2.29526	1.89790	9.46129	5.69725	2.69269	1.08263	0.97631	0.85485	2.05213	1.57457	1.20505	9.73889	6.24779	3.38619
14240	0.50056	0.44087	0.30870	2.71001	2.28108	1.86913	9.48883	5.74376	2.72707	1.06520	0.97767	0.88335	2.05396	1.58548	1.20849	9.77931	6.24896	3.42595
14400	0.49555	0.45110	0.30479	2.74128	2.30121	1.90797	9.49823	5.70774	2.70038	1.13779	1.06934	0.89641	2.06659	1.58779	1.25527	9.81820	6.31817	3.49625
14560	0.54368	0.49538	0.33190	2.78988	2.37266	1.95023	9.49329	5.73792	2.71498	1.13554	1.03934	0.92073	2.06456	1.60924	1.24296	9.80189	6.25567	3.41301
14730	0.50956	0.46290	0.32963	2.74084	2.31375	1.90637	9.47828	5.72328	2.70529	1.10232	1.01261	0.86019	2.06607	1.57591	1.21541	9.82146	6.24517	3.40442	30.17	6.1	0.00	7.53	0.01266	0.01288	0.01632	0.00778	0.00580	0.00636	0.00466	0.01263	0.01678	0.00676	0.00697	0.00879	0.01486	0.01092	0.01193	0.00217	0.00616	0.00865
14890	0.50555	0.46038	0.29900	2.76528	2.30533	1.92197	9.46943	5.72751	2.70016	1.11136	0.99309	0.88999	2.08529	1.57524	1.21515	9.84012	6.26195	3.41417
15050	0.69384	0.48963	0.37191	2.75357	2.33675	1.95442	9.46469	5.71062	2.72985	1.12167	1.05518	0.89038	2.08346	1.58568	1.23088	9.77018	6.30088	3.47223
15220	0.50705	0.46351	0.33137	2.80243	2.33058	1.94069	9.45284	5.73440	2.72403	1.11600	1.02091	0.87305	2.04899	1.58674	1.23751	9.79874	6.25334	3.40912
15380	0.51688	0.47185	0.31154	2.75928	2.33648	1.92513	9.44810	5.70576	2.70355	1.10208	0.98828	0.91548	2.05208	1.58391	1.22328	9.78005	6.27218	3.42297
15540	0.51525	0.46708	0.32130	2.76419	2.34561	1.91759	9.49385	5.72661	2.72396	1.11746	1.02200	0.89565	2.06195	1.58747	1.22231	9.80364	6.30071	3.46394
15710	0.51300	0.44639	0.30609	2.76357	2.30266	1.91901	9.47869	5.72059	2.70888	1.08486	0.99534	0.90424	2.04893	1.59499	1.22199	9.78405	6.26984	3.41410
15870	0.51558	0.45084	0.31545	2.73747	2.32363	1.89475	9.44638	5.70437	2.70483	1.10238	0.99798	0.87759	2.04684	1.57797	1.20100	9.74180	6.24449	3.38026
16030	0.50477	0.45433	0.29548	2.76735	2.32154	1.92275	9.47299	5.70197	2.69541	1.07955	0.98688	0.88772	2.04042	1.56934	1.20129	9.76250	6.25706	3.42632
16200	0.48795	0.44714	0.29653	2.72112	2.28826	1.87602	9.45420	5.69717	2.69395	1.07802	0.99582	0.85917	2.04235	1.57176	1.21778	9.78425	6.25910	3.40321
16360	0.49246	0.44744	0.29230	2.74584	2.28914	1.89152	9.46146	5.70653	2.69423	1.09158	0.99303	0.85325	2.04633	1.57996	1.20362	9.78791	6.28109	3.39891	30.23	6.2	0.00	7.62	0.01266	0.01288	0.01632	0.00779	0.00580	0.00636	0.00466	0.01263	0.01678	0.00676	0.00697	0.00879	0.01486	0.01092	0.01193	0.00217	0.00616	0.00865
16520	0.49633	0.45026	0.31260	2.74509	2.31955	1.91974	9.43950	5.73536	2.70279	1.12394	1.00293	0.87368	2.04017	1.58252	1.22290	9.75978	6.25488	3.43077
16690	0.50485	0.45755	0.30700	2.74290	2.29218	1.91327	9.45956	5.70446	2.71869	1.06179	1.00728	0.85221	2.04821	1.57462	1.22088	9.78552	6.26087	3.39767
16850	0.49959	0.44823	0.31544	2.72282	2.28820	1.88134	9.46757	5.71653	2.70556	1.07992	1.00828	0.86455	2.04079	1.57602	1.21496	9.77094	6.26569	3.40649
17010	0.49480	0.45078	0.30532	2.80385	2.31004	1.91496	9.47492	5.72289	2.69375	1.08939	1.03982	0.87750	2.05377	1.57642	1.22659	9.79771	6.30501	3.44542
17180	0.52210	0.49084	0.33990	2.81652	2.37179	1.96131	9.48828	5.73181	2.74187	1.12126	1.04011	0.95988	2.05247	1.58595	1.22293	9.83619	6.30750	3.45264
17340	0.50873	0.46264	0.31294	2.76166	2.30846	1.91060	9.48686	5.73358	2.72118	1.11765	1.02494	0.87697	2.04554	1.57785	1.21791	9.76127	6.24017	3.40642
17500	0.51818	0.45225	0.31509	2.76070	2.31204	1.91571	9.46739	5.72108	2.70726	1.09637	0.99259	0.88608	2.05150	1.57588	1.20847	9.77094	6.25775	3.41729
17670	0.49794	0.46181	0.30873	2.76304	2.31273	1.89979	9.46182	5.71976	2.70230	1.09993	0.99558	0.87892	2.04082	1.56593	1.21286	9.79161	6.27166	3.43936
17830	0.49204	0.45135	0.29783	2.76590	2.29386	1.92770	9.50922	5.72037	2.70941	1.12205	1.03065	0.91226	2.02796	1.57239	1.21630	9.78562	6.23364	3.44497
17990	0.49539	0.44627	0.30044	2.76892	2.32777	1.91196	9.46090	5.71873	2.69741	1.16598	1.07088	0.94685	2.06808	1.61305	1.22614	9.80321	6.25096	3.45312	30.17	6.1	0.00	7.42	0.01266	0.01288	0.01632	0.00779	0.00580	0.00636	0.00466	0.01263	0.01678	0.00676	0.00697	0.00879	0.01486	0.01092	0.01193	0.00217	0.00616	0.00865
18160	0.50447	0.46533	0.32471	2.80696	2.35574	1.95576	9.46855	5.71653	2.71280	1.12090	1.05221	0.90666	2.07714	1.60269	1.25740	9.90503	6.28636	3.44848
18320	0.51772	0.47176	0.31992	2.84822	2.36734	1.96697	9.52517	5.73919	2.76179	1.14395	1.06111	0.91559	2.15125	1.67215	1.25361	9.90170	6.29002	3.55685
18490	0.56306	0.51717	0.34313	2.85030	2.34280	1.94402	9.47323	5.75296	2.71172	1.18891	1.08906	0.96012	2.07401	1.57822	1.21478	9.81884	6.29054	3.44474
18650	0.52370	0.47765	0.32394	2.80545	2.36239	1.91898	9.47472	5.71743	2.74864	1.12791	1.06519	0.89329	2.05231	1.57361	1.22047	9.77882	6.26515	3.39202
18810	0.49386	0.45487	0.30296	2.73652	2.30268	1.89362	9.44000	5.70477	2.68311	1.09419	1.00095	0.86703	2.03436	1.56056	1.21714	9.75399	6.23528	3.39219
18980	0.48975	0.44342	0.29983	2.75023	2.30407	1.90986	9.44811	5.70107	2.70576	1.10580	1.01286	0.88839	2.05814	1.56589	1.21176	9.75967	6.26352	3.38848
19140	0.48640	0.44320	0.29501	2.74056	2.32467	1.91737	9.44124	5.70846	2.68911	1.09574	0.99453	0.87547	2.04256	1.57276	1.21539	9.77213	6.26415	3.42450
19310	0.49596	0.45865	0.30527	2.76692	2.32064	1.92175	9.45509	5.69559	2.70953	1.17696	1.04432	0.90355	2.04672	1.57483	1.22475	9.78401	6.30087	3.45242
19470	0.53162	0.49333	0.32963	2.76678	2.33126	1.96235	9.47477	5.75204	2.71650	1.13010	1.04523	0.91893	2.08226	1.60940	1.24360	9.84655	6.30608	3.45089
19630	0.53850	0.48171	0.31364	2.80036	2.37303	1.96920	9.47203	5.72728	2.72089	1.14419	1.05791	0.90723	2.07262	1.60097	1.23628	9.77634	6.29432	3.42370	30.23	6.1	0.00	7.48	0.01266	0.01288	0.01632	0.00779	0.00580	0.00636	0.00466	0.01263	0.01678	0.00676	0.00697	0.00879	0.01486	0.01092	0.01193	0.00217	0.00616	0.00864
19800	0.53232	0.48567	0.32393	2.79588	2.34690	1.92770	9.45532	5.70805	2.69959	1.13363	1.04089	0.90380	2.03733	1.56594	1.22538	9.76935	6.27599	3.42385
19960	0.50942	0.46104	0.30554	2.75432	2.31190	1.91223	9.43786	5.69346	2.69153	1.09823	0.99950	0.86824	2.03948	1.56764	1.20201	9.72453	6.24204	3.43195
20130	0.48923	0.44320	0.29336	2.73022	2.30552	1.92150	9.44987	5.68822	2.70178	1.10255	1.01486	0.84968	2.04009	1.56990	1.21118	9.75259	6.23737	3.39107
20290	0.50044	0.44921	0.29994	2.77298	2.31292	1.89219	9.46207	5.71488	2.69584	1.08877	1.00246	0.89468	2.05185	1.58045	1.22714	9.75269	6.28236	3.42156
20450	0.51258	0.46440	0.30761	2.75824	2.32342	1.91974	9.47025	5.70896	2.69362	1.10053	1.01746	0.88153	2.05553	1.57840	1.22934	9.78673	6.27346	3.38820
20620	0.50674	0.46157	0.31502	2.75008	2.35150	1.93296	9.44005	5.71468	2.70893	1.15795	1.00773	0.92149	2.04081	1.56473	1.22129	9.76346	6.26300	3.39743
20780	0.52025	0.46195	0.31624	2.79384	2.39180	1.95095	9.43012	5.71165	2.69690	1.09235	1.02394	0.89513	2.04791	1.56745	1.21178	9.79803	6.28345	3.42583
20950	0.49846	0.44682	0.30965	2.75500	2.32458	1.91324	9.44460	5.68767	2.68051	1.11258	0.98966	0.86234	2.03515	1.56219	1.21435	9.76735	6.26778	3.39361
21110	0.50322	0.44654	0.30388	2.76698	2.31713	1.92890	9.42894	5.69273	2.70463	1.13019	1.00915	0.89801	2.05683	1.58433	1.21409	9.77074	6.27475	3.42908
21270	0.50163	0.47006	0.31827	2.79993	2.33079	1.93952	9.46010	5.70388	2.69194	1.11938	1.01459	0.89619	2.04165	1.56776	1.21805	9.81529	6.30945	3.49384	30.17	6.0	0.00	7.43	0.01267	0.01288	0.01632	0.00779	0.00580	0.00636	0.00466	0.01263	0.01678	0.00676	0.00698	0.00879	0.01486	0.01092	0.01193	0.00217	0.00616	0.00865
21440	0.49540	0.45851	0.29901	2.75110	2.37207	1.96076	9.46466	5.71367	2.72963	1.12842	1.03698	0.88810	2.06652	1.60830	1.26063	9.77517	6.28482	3.44598
21600	0.52884	0.48001	0.31991	2.76062	2.34302	1.96960	9.45116	5.71071	2.69578	1.14349	1.04117	0.91813	2.06525	1.58286	1.22057	9.75551	6.26685	3.45155
21760	0.52723	0.45394	0.31853	2.77395	2.34051	1.98214	9.46496	5.70430	2.69802	1.14700	1.03325	0.90558	2.06279	1.57453	1.22030	9.75322	6.27455	3.45111
21930	0.51041	0.45975	0.32203	2.78465	2.37901	2.01034	9.49809	5.72546	2.72028	1.15565	1.08088	0.91591	2.06912	1.58551	1.23364	9.80036	6.31890	3.46887
22090	0.51031	0.46604	0.34550	2.85927	2.36146	2.01581	9.46952	5.74921	2.75568	1.18970	1.12556	0.93582	2.08229	1.60229	1.23513	9.83908	6.32150	3.52961
22260	0.53077	0.48003	0.34248	2.78429	2.36048	2.01333	9.47373	5.73132	2.71852	1.18343	1.08627	0.98016	2.07456	1.59926	1.24955	9.87099	6.31515	3.50724
22420	0.52915	0.48294	0.34450	2.92208	2.45740	1.98551	9.51029	5.73907	2.73438	1.24076	1.14556	0.96746	2.07514	1.61453	1.25768	9.85517	6.29813	3.52098
22580	0.55373	0.50046	0.34847	2.86087	2.40715	1.97518	9.48810	5.74326	2.74185	1.16006	1.08562	0.94392	2.08549	1.61037	1.23613	9.83828	6.33748	3.46766
22750	0.51514	0.47412	0.32527	2.80357	2.42274	2.00701	9.47154	5.72836	2.70916	1.15842	1.04784	0.92252	2.04545	1.58522	1.22881	9.82201	6.29615	3.50334
22910	0.51454	0.47545	0.32300	2.80632	2.37742	1.98927	9.45312	5.72692	2.73445	1.17094	1.08379	0.92448	2.06507	1.59614	1.23866	9.87514	6.32746	3.49496	30.17	6.2	0.00	7.46	0.01267	0.01288	0.01632	0.00779	0.00580	0.00636	0.00466	0.01263	0.01678	0.00677	0.00698	0.00879	0.01486	0.01092	0.01193	0.00216	0.00616	0.00864
23070	0.50841	0.46924	0.33104	2.82566	2.38486	1.96180	9.46899	5.72206	2.72151	1.16759	1.08595	0.92086	2.06777	1.59022	1.24156	9.81921	6.30938	3.45911
23240	0.51608	0.46400	0.31411	2.77863	2.31625	1.90309	9.46384	5.70676	2.71360	1.15070	1.04304	0.89477	2.04159	1.56977	1.21722	9.76238	6.27461	3.42359
23400	0.49573	0.45332	0.30237	2.74987	2.32054	1.92101	9.44809	5.69690	2.69788	1.13399	1.04950	0.88700	2.03904	1.57093	1.21825	9.74156	6.26242	3.41581
23560	0.50451	0.46325	0.30881	2.75704	2.33918	1.91390	9.42374	5.70289	2.70940	1.13520	1.03185	0.89838	2.06342	1.59061	1.22277	9.79966	6.26895	3.43044
23730	0.52628	0.46537	0.30906	2.75207	2.31719	1.91445	9.43880	5.70908	2.69812	1.12225	1.03687	0.89774	2.04750	1.57852	1.22010	9.77746	6.24865	3.42349
23890	0.51422	0.45515	0.30534	2.74383	2.30713	1.92868	9.42592	5.71474	2.70087	1.12620	1.01836	0.87170	2.04484	1.58956	1.24340	9.79246	6.29017	3.45309
24050	0.51922	0.49091	0.32909	2.78520	2.33892	1.93303	9.46710	5.70634	2.70978	1.13100	1.03947	0.91181	2.06020	1.58094	1.23590	9.77796	6.30943	3.42653
24220	0.51918	0.47732	0.32167	2.78926	2.36231	1.95484	9.47279	5.73355	2.71963	1.12365	1.05414	0.91711	2.06185	1.59024	1.21932	9.78006	6.26898	3.41573
24380	0.50718	0.45656	0.31533	2.79083	2.38186	2.03011	9.44773	5.70193	2.71227	1.15803	1.08351	0.99218	2.06345	1.58167	1.21408	9.78116	6.27329	3.43962
24550	0.51007	0.47751	0.32132	2.76758	2.32465	1.93269	9.45431	5.73724	2.71303	1.10865	1.04141	0.90105	2.06046	1.58315	1.22184	9.75978	6.39059	3.40779	30.17	6.0	0.00	7.44	0.01267	0.01288	0.01632	0.00779	0.00580	0.00636	0.00466	0.01263	0.01678	0.00677	0.00698	0.00879	0.01486	0.01092	0.01193	0.00216	0.00616	0.00864
24710	0.52693	0.47391	0.32254	2.99021	2.37139	1.95834	9.43964	5.70865	2.70329	1.13319	1.08759	0.91759	2.04794	1.57724	1.22285	9.80257	6.31419	3.43651
24870	0.50082	0.45279	0.30944	2.77280	2.32071	1.90486	9.46041	5.70562	2.70518	1.11974	1.02924	0.89617	2.05119	1.58387	1.21658	9.80016	6.28479	3.43735
25030	0.51066	0.47312	0.33331	2.78751	2.36842	1.93567	9.47196	5.72995	2.71236	1.13731	1.05269	0.92293	2.07585	1.58779	1.22544	9.81460	6.31378	3.46583
25200	0.53113	0.49348	0.35716	2.85095	2.36468	1.97186	9.47428	5.75259	2.72287	1.21885	1.07724	0.94836	2.07428	1.58522	1.23119	9.82403	6.31966	3.46562
25360	0.54125	0.49364	0.32671	2.78593	2.32877	1.95887	9.45300	5.71326	2.70609	1.11952	1.03253	0.89834	2.05827	1.58377	1.22116	9.77546	6.28472	3.45034
25530	0.52244	0.46158	0.32755	2.76604	2.31872	1.91276	9.43704	5.70786	2.71108	1.13408	1.03178	0.89181	2.03499	1.56940	1.21340	9.80648	6.26801	3.42222
25690	0.49593	0.45809	0.30562	2.76413	2.29826	1.91084	9.46639	5.72229	2.70288	1.11064	1.05223	0.90813	2.05183	1.56828	1.22445	9.77456	6.26048	3.44100
25850	0.50719	0.44872	0.31061	2.80936	2.32147	1.88486	9.46936	5.70292	2.69872	1.10151	0.99938	0.89577	2.04439	1.59055	1.22093	9.73169	6.25729	3.38800
26020	0.51930	0.45390	0.31288	2.77540	2.33968	1.93633	9.47315	5.72026	2.69750	1.11683	1.00490	0.87070	2.04900	1.57510	1.21625	9.75021	6.26487	3.42849
26180	0.51553	0.47381	0.31268	2.75455	2.33534	1.91893	9.45694	5.71783	2.69398	1.12007	1.03063	0.88867	2.06154	1.58407	1.22401	9.75607	6.25134	3.41810	30.23	6.0	0.00	7.49	0.01266	0.01288	0.01632	0.00779	0.00580	0.00636	0.00466	0.01263	0.01678	0.00677	0.00698	0.00880	0.01486	0.01092	0.01193	0.00216	0.00616	0.00864
26340	0.50631	0.45890	0.31551	2.76299	2.32999	1.90995	9.49812	5.71363	2.70616	1.11123	1.01321	0.89657	2.03615	1.56546	1.22702	9.73753	6.27919	3.42777
26510	0.51051	0.46413	0.30180	2.75498	2.33071	1.92198	9.45398	5.70987	2.69238	1.11078	1.00190	0.88797	2.03722	1.57156	1.20508	9.72240	6.25346	3.40216
26670	0.50699	0.45383	0.30722	2.72967	2.30165	1.93759	9.45161	5.70466	2.69680	1.11878	1.02628	0.88601	2.05079	1.57605	1.20936	9.74231	6.24793	3.42681
26830	0.50622	0.46669	0.30327	2.74388	2.30441	1.90222	9.45634	5.72016	2.69838	1.11439	1.01930	0.88268	2.05359	1.56253	1.20937	9.73354	6.26829	3.43053
27000	0.49628	0.44516	0.30896	2.77802	2.34030	1.92633	9.46120	5.71551	2.68808	1.09468	1.01660	0.90389	2.03870	1.58122	1.22634	9.74460	6.25209	3.45548
27160	0.51115	0.45759	0.31015	2.75090	2.32316	1.90768	9.48303	5.71792	2.71351	1.11568	1.03340	0.88592	2.03424	1.56845	1.20982	9.73733	6.27245	3.42756
27320	0.49889	0.45087	0.30605	2.75472	2.34704	1.93731	9.45990	5.71645	2.70211	1.11962	1.03194	0.89116	2.05067	1.57159	1.21738	9.76575	6.25681	3.47119
27490	0.51858	0.44937	0.31693	2.77010	2.32791	1.94668	9.45220	5.73908	2.70250	1.12567	1.02975	0.88053	2.06582	1.57621	1.23189	9.76555	6.30914	3.41112
27650	0.52578	0.46264	0.31775	2.75525	2.33218	1.94133	9.46974	5.71661	2.70927	1.12274	1.00272	0.90966	2.05192	1.60734	1.22251	9.78234	6.26855	3.41000
27810	0.49682	0.45303	0.30339	2.75221	2.30819	1.90469	9.46527	5.70119	2.69072	1.09758	1.02264	0.88584	2.02809	1.56306	1.20503	9.74017	6.24236	3.39728	30.17	6.0	0.00	7.50	0.01266	0.01288	0.01632	0.00779	0.00580	0.00636	0.00466	0.01263	0.01678	0.00677	0.00698	0.00880	0.01486	0.01092	0.01193	0.00216	0.00616	0.00864
27980	0.49508	0.45783	0.31097	2.72587	2.31461	1.90847	9.44479	5.70930	2.69389	1.09823	1.00331	0.85566	2.02963	1.56295	1.21003	9.72237	6.24304	3.40613
28140	0.49082	0.43865	0.29509	2.76244	2.31192	1.89839	9.43988	5.69768	2.69123	1.11566	1.03239	0.91740	2.04200	1.57915	1.20855	9.73878	6.26779	3.41422
28300	0.50004	0.45640	0.31601	2.77743	2.33152	1.92727	9.46130	5.71764	2.72263	1.08572	1.05510	0.90804	2.04170	1.58064	1.22291	9.73948	6.24939	3.45156
28470	0.52327	0.46539	0.30626	2.76525	2.34007	1.92114	9.44497	5.71200	2.71032	1.14534	1.01982	0.86941	2.04409	1.57077	1.22612	9.77548	6.26979	3.41201
28630	0.50211	0.45582	0.30473	2.75702	2.31106	1.93395	9.45976	5.71407	2.70527	1.12711	1.03322	0.88540	2.03828	1.56962	1.20389	9.75542	6.24936	3.42455
28800	0.49528	0.44948	0.30005	2.76475	2.30730	1.91029	9.44148	5.70800	2.70137	1.11134	1.02649	0.89240	2.04988	1.57818	1.22263	9.77898	6.27537	3.41854
28960	0.51031	0.46000	0.30634	2.77340	2.30621	1.88783	9.45680	5.71340	2.70614	1.11446	1.03041	0.88265	2.04288	1.56617	1.22325	9.78538	6.29519	3.45329
29120	0.50826	0.45418	0.30484	2.76090	2.31102	1.92904	9.45420	5.70739	2.70174	1.11298	1.00772	0.88049	2.04468	1.57077	1.20927	9.74017	6.25802	3.41261
29290	0.50189	0.45682	0.29813	2.74289	2.32561	1.89230	9.46753	5.71851	2.69259	1.11450	1.04443	0.89867	2.05601	1.56976	1.20991	9.74545	6.28035	3.39064
29450	0.51435	0.47206	0.30888	2.76896	2.31054	1.89062	9.46249	5.72280	2.70340	1.09963	1.02108	0.89084	2.05173	1.57687	1.22296	9.76151	6.28271	3.43351	30.23	6.2	0.00	7.41	0.01267	0.01288	0.01632	0.00778	0.00580	0.00636	0.00466	0.01263	0.01678	0.00677	0.00698	0.00880	0.01486	0.01092	0.01193	0.00216	0.00616	0.00865
29610	0.50110	0.45623	0.29762	2.78575	2.33468	1.94987	9.44651	5.69898	2.70343	1.12343	1.04392	0.92070	2.05759	1.58153	1.21984	9.74157	6.24122	3.40974
29780	0.50268	0.48583	0.33045	2.78544	2.30996	1.91788	9.45639	5.74262	2.71385	1.10912	1.01085	0.89470	2.05989	1.56494	1.20415	9.74097	6.25403	3.42903
29940	0.50821	0.46017	0.30857	2.77871	2.30289	1.90508	9.44249	5.70313	2.70954	1.08655	0.99623	0.87173	2.03587	1.56978	1.20334	9.78029	6.28603	3.43243
30100	0.50683	0.45869	0.31471	2.73246	2.35599	1.92053	9.45160	5.71490	2.70685	1.10484	1.00724	0.88687	2.07554	1.61231	1.24016	9.77680	6.29304	3.43602
30270	0.52423	0.46284	0.31730	2.79035	2.35772	1.93632	9.46018	5.73486	2.72780	1.14703	1.07462	0.96365	2.07229	1.62014	1.24797	9.78049	6.33818	3.48166
30430	0.53816	0.49182	0.32733	2.83246	2.38152	1.94794	9.46682	5.71798	2.72367	1.14182	1.04077	0.93198	2.07045	1.58791	1.22764	9.79480	6.30259	3.44852
30590	0.51479	0.46438	0.32936	2.78737	2.34156	1.97566	9.45917	5.72178	2.70451	1.16325	1.05080	0.89914	2.04320	1.59104	1.23023	9.78640	6.28801	3.42080
30760	0.50498	0.47143	0.32614	2.79547	2.34455	1.93325	9.46705	5.72845	2.72007	1.12238	1.05069	0.90216	2.05157	1.59196	1.21750	9.79931	6.29404	3.44902
30920	0.50917	0.46458	0.31918	2.78178	2.32761	1.90359	9.46060	5.71386	2.70673	1.15929	1.05918	0.94083	2.05292	1.57332	1.21379	9.78680	6.25666	3.42514
31090	0.50063	0.45192	0.31081	2.75595	2.30961	1.91619	9.45115	5.70766	2.70617	1.14084	1.06466	0.92610	2.05158	1.59921	1.23613	9.82296	6.30146	3.48993	30.17	6.1	0.00	7.46	0.01266	0.01288	0.01632	0.00779	0.00580	0.00636	0.00466	0.01263	0.01678	0.00677	0.00698	0.00880	0.01486	0.01092	0.01193	0.00216	0.00616	0.00865
31250	0.53101	0.46794	0.33445	2.83031	2.35593	1.98255	9.48506	5.72636	2.71196	1.17607	1.07302	0.93963	2.06652	1.58629	1.22514	9.80440	6.29545	3.49544
31410	0.52306	0.46193	0.32739	2.80369	2.35980	1.93557	9.46116	5.71784	2.70881	1.14017	1.08425	0.89247	2.05859	1.59235	1.23019	9.80089	6.29252	3.42938
31580	0.52662	0.47426	0.34401	2.78096	2.34871	1.92529	9.46519	5.71142	2.74087	1.13707	1.04237	0.92451	2.05005	1.57766	1.21978	9.79348	6.29596	3.44116
31740	0.50506	0.46689	0.32364	2.78514	2.34599	1.93079	9.45192	5.70839	2.70556	1.13218	1.06871	0.90922	2.05089	1.58858	1.21771	9.76938	6.29267	3.46249
31910	0.49868	0.47284	0.32778	2.77911	2.32629	1.91877	9.45050	5.73481	2.70400	1.12790	1.00433	0.88534	2.05226	1.58730	1.21858	9.76868	6.25938	3.44483
32070	0.50685	0.46125	0.31885	2.81404	2.32532	1.95057	9.47040	5.70350	2.70354	1.12260	1.05019	0.88588	2.05229	1.58187	1.24842	9.77038	6.26878	3.43079
32230	0.51465	0.48288	0.33051	2.79691	2.31289	1.89652	9.44334	5.70976	2.69586	1.11185	1.03183	0.87465	2.04653	1.58546	1.21303	9.72732	6.24099	3.41807
32400	0.49891	0.45236	0.32623	2.73314	2.29990	1.90213	9.45399	5.73472	2.70988	1.13073	1.00949	0.91023	2.04756	1.57676	1.22441	9.84799	6.28756	3.44072
32560	0.51452	0.46848	0.32050	2.75936	2.33990	1.96044	9.46365	5.71064	2.72794	1.14019	1.11682	0.96177	2.06494	1.59480	1.24789	9.78257	6.28878	3.46770
32720	0.51058	0.48382	0.32652	2.81114	2.36314	1.96214	9.46858	5.71945	2.71617	1.13480	1.04382	0.94598	2.06420	1.59000	1.23877	9.79568	6.30907	3.47010	30.17	6.1	0.00	7.44	0.01266	0.01288	0.01632	0.00779	0.00580	0.00636	0.00467	0.01263	0.01678	0.00677	0.00698	0.00880	0.01486	0.01092	0.01193	0.00216	0.00616	0.00865
32890	0.51525	0.46825	0.32830	2.79917	2.33759	1.98166	9.45211	5.70838	2.71943	1.15635	1.06228	0.92962	2.05925	1.58464	1.22240	9.81634	6.33599	3.49384
33050	0.50288	0.46814	0.31812	2.80221	2.36588	1.93947	9.43491	5.72346	2.70509	1.15526	1.04627	0.87222	2.04963	1.58322	1.22966	9.76008	6.29015	3.43882
33210	0.49668	0.45396	0.31654	2.81331	2.33221	1.93157	9.45040	5.71362	2.69808	1.13633	1.05797	0.91427	2.04496	1.57163	1.22299	9.77297	6.27680	3.45542
33380	0.51005	0.46908	0.33367	2.77328	2.34948	1.96794	9.44862	5.71253	2.69128	1.14494	1.05713	0.91886	2.05922	1.58295	1.23196	9.78247	6.32312	3.44197
33540	0.51412	0.46630	0.32306	2.81617	2.37000	1.96918	9.47166	5.72271	2.71925	1.19485	1.06621	0.91592	2.06886	1.59906	1.22778	9.77847	6.29953	3.43344
33700	0.53120	0.48464	0.35408	2.78993	2.34764	1.91007	9.46467	5.70864	2.70781	1.12117	1.05155	0.92213	2.05973	1.58382	1.23770	9.79147	6.31930	3.45872
33870	0.53826	0.48476	0.32610	2.80007	2.33096	1.97374	9.47077	5.71749	2.73303	1.17284	1.06628	0.92662	2.05459	1.59248	1.23488	9.77997	6.27166	3.45108
34030	0.52419	0.47367	0.32945	2.81270	2.35389	1.96072	9.50076	5.74640	2.71968	1.14855	1.08221	0.92731	2.05503	1.60542	1.24495	9.74722	6.25692	3.42742
34190	0.53430	0.47397	0.32954	2.78367	2.35986	1.92016	9.47641	5.72461	2.71115	1.11755	1.04872	0.92213	2.05639	1.59765	1.22423	9.80209	6.29013	3.47837
34360	0.51836	0.48222	0.32895	2.87209	2.37964	1.97157	9.47206	5.76395	2.75066	1.21740	1.11037	0.92978	2.08971	1.60022	1.25163	9.80435	6.29256	3.46297	30.23	6.1	0.00	7.41	0.01266	0.01288	0.01632	0.00779	0.00580	0.00636	0.00467	0.01263	0.01679	0.00677	0.00698	0.00880	0.01486	0.01092	0.01193	0.00216	0.00616	0.00865
34520	0.51361	0.46327	0.31077	2.83400	2.34582	1.94306	9.44866	5.71823	2.70847	1.17781	1.03812	0.93290	2.05938	1.58895	1.22664	9.77832	6.31753	3.43580
34680	0.50464	0.46507	0.31760	2.78279	2.31410	1.91402	9.44098	5.72189	2.72443	1.17349	1.04618	0.94700	2.04869	1.56796	1.22048	9.79723	6.28684	3.42142
34850	0.51616	0.45994	0.31221	2.78046	2.37868	1.95691	9.46856	5.71309	2.70957	1.13714	1.02178	0.89748	2.05756	1.58102	1.22226	9.81859	6.28828	3.42474
35010	0.50832	0.46165	0.30888	2.76421	2.31612	1.92784	9.44423	5.72104	2.70811	1.13092	1.03902	0.90613	2.03999	1.58488	1.23444	9.77033	6.25323	3.40264
35170	0.50598	0.46439	0.33110	2.76765	2.31499	1.89789	9.46009	5.71606	2.69876	1.10986	1.00959	0.88376	2.04613	1.58642	1.23519	9.83406	6.29835	3.43852
35340	0.50529	0.48045	0.32727	2.77870	2.33258	1.92278	9.47117	5.73042	2.70500	1.14212	0.99522	0.88405	2.05366	1.58397	1.22325	9.74937	6.27716	3.39609
35500	0.50996	0.45211	0.31174	2.75968	2.32862	1.92439	9.46263	5.72367	2.70769	1.12078	1.00521	0.89749	2.05107	1.58045	1.22520	9.78452	6.27813	3.42076
35660	0.51215	0.44776	0.30969	2.75888	2.31379	1.90847	9.45683	5.70306	2.71354	1.09366	1.01375	0.88949	2.03927	1.58240	1.21804	9.77143	6.27140	3.44532
35830	0.51065	0.47562	0.31170	2.80154	2.39635	1.94126	9.48582	5.73901	2.73168	1.14974	1.04241	0.93453	2.07212	1.60744	1.25214	9.80385	6.31352	3.46481
35990	0.51250	0.49553	0.33769	2.85050	2.42639	1.98385	9.48564	5.76755	2.74053	1.19789	1.13611	0.98774	2.07934	1.60707	1.25258	9.79786	6.32158	3.46268	30.23	6.1	0.00	7.43	0.01266	0.01288	0.01632	0.00779	0.00580	0.00636	0.00467	0.01263	0.01679	0.00677	0.00698	0.00880	0.01486	0.01092	0.01193	0.00216	0.00616	0.00865
36160	0.52496	0.46885	0.32133	2.80812	2.36382	1.95110	9.48505	5.74511	2.71826	1.14146	1.07772	0.92226	2.06540	1.58466	1.22848	9.79015	6.28084	3.44972
36320	0.51681	0.46543	0.31035	2.75625	2.32423	1.95095	9.46524	5.72724	2.71624	1.16582	1.04575	0.96407	2.05620	1.58302	1.21904	9.75926	6.23615	3.41424
36480	0.52119	0.46511	0.31826	2.77206	2.33490	1.91257	9.45996	5.72282	2.70393	1.11505	1.03887	0.90075	2.05641	1.57702	1.21679	9.75866	6.25224	3.43545
36650	0.50986	0.46953	0.31629	2.75917	2.31486	1.93357	9.45878	5.71456	2.71735	1.13693	1.06798	0.92772	2.06716	1.59628	1.22352	9.76056	6.27777	3.45029
36810	0.51935	0.46553	0.32241	2.83774	2.38072	1.96889	9.46050	5.73200	2.72241	1.19415	1.03548	0.91355	2.05809	1.58750	1.23888	9.81521	6.33021	3.47493
36970	0.51852	0.46093	0.31847	2.80297	2.34464	1.98456	9.46085	5.73403	2.71346	1.17980	1.07544	0.89616	2.05110	1.59088	1.23266	9.79075	6.30320	3.43600
37140	0.51061	0.45779	0.30945	2.74576	2.31951	1.90214	9.45126	5.72441	2.71030	1.11614	1.03149	0.89461	2.05118	1.57434	1.23810	9.76615	6.26994	3.45450
37300	0.51594	0.46260	0.31614	2.79937	2.38779	1.94804	9.43529	5.70455	2.71418	1.14359	1.06375	0.92614	2.05941	1.59213	1.22359	9.77614	6.27597	3.43690
37470	0.51058	0.46838	0.30663	2.79312	2.30686	1.93293	9.45665	5.70875	2.71199	1.15419	1.03817	0.90365	2.06099	1.58420	1.22279	9.80528	6.30026	3.46887
37630	0.51854	0.46562	0.31711	2.78480	2.35294	1.96465	9.45375	5.71735	2.70704	1.16335	1.05769	0.93890	2.06628	1.59227	1.25520	9.81161	6.32634	3.44897	30.23	6.1	0.00	7.53	0.01266	0.01288	0.01632	0.00779	0.00580	0.00636	0.00467	0.01263	0.01678	0.00677	0.00698	0.00880	0.01486	0.01092	0.01193	0.00216	0.00616	0.00865
37790	0.51645	0.48779	0.32863	2.81476	2.38394	1.96157	9.49218	5.72420	2.71768	1.14175	1.04834	0.90603	2.03773	1.59283	1.22503	9.77738	6.27345	3.44682
37960	0.52469	0.46683	0.33327	2.76526	2.31837	1.94686	9.47437	5.72544	2.71188	1.16500	1.05437	0.90964	2.06387	1.58218	1.22300	9.81542	6.28232	3.41544
38120	0.49981	0.44527	0.29646	2.79730	2.30519	1.92334	9.45179	5.70077	2.69890	1.10548	1.02596	0.89230	2.04588	1.57175	1.22007	9.75712	6.24243	3.42069
38280	0.50510	0.45611	0.31933	2.75088	2.34649	1.94825	9.43317	5.71097	2.70044	1.28310	1.05430	0.92373	2.04662	1.58244	1.21452	9.78388	6.40419	3.60575
38450	0.50139	0.50228	0.35594	2.87121	2.49765	2.14592	9.51871	5.76312	2.85160	1.30157	1.31034	1.14557	2.22260	1.70312	1.35297	10.02009	6.70941	3.84439
38610	0.66044	0.60937	0.45054	3.05619	2.60167	2.16218	9.56667	5.82092	2.81945	1.40427	1.35324	1.22811	2.19742	1.69507	1.36928	10.03576	6.52014	3.67924
38780	0.65518	0.55787	0.40421	2.98719	2.50047	2.13754	9.55339	5.79888	2.82550	1.25585	1.17443	1.06534	2.14507	1.66191	1.30969	9.87224	6.38751	3.55774
38940	0.55928	0.51684	0.34612	2.86452	2.46406	2.05234	9.50032	5.75538	2.76203	1.23439	1.14731	1.00170	2.11694	1.63855	1.26659	9.89527	6.42058	3.52197
39110	0.53673	0.51568	0.34625	2.87851	2.43565	2.00542	9.52211	5.75576	2.76684	1.22420	1.12021	0.97330	2.10080	1.62607	1.25406	9.81723	6.30340	3.45656
39270	0.52013	0.48036	0.32690	2.83020	2.35471	1.92493	9.50672	5.73361	2.72328	1.16779	1.07461	0.92994	2.07559	1.59884	1.23812	9.81844	6.30464	3.45934	30.23	6.3	0.00	7.49	0.01266	0.01288	0.01632	0.00779	0.00580	0.00636	0.00467	0.01263	0.01678	0.00677	0.00698	0.00880	0.01486	0.01092	0.01193	0.00217	0.00616	0.00865
39430	0.52472	0.48349	0.32422	2.83890	2.36016	1.93176	9.47233	5.74328	2.72676	1.14528	1.06088	0.93937	2.05526	1.59990	1.24645	9.79321	6.33059	3.46219
39600	0.52830	0.46681	0.32113	2.80560	2.39732	1.99403	9.47778	5.72056	2.72872	1.21432	1.09492	0.95386	2.04379	1.58665	1.23557	9.78741	6.35770	3.45139
39760	0.51115	0.47139	0.33069	2.79990	2.45571	2.05174	9.46296	5.70896	2.73896	1.13710	1.08059	0.91557	2.07890	1.61529	1.25018	9.79561	6.31785	3.41850
39930	0.52690	0.49053	0.32798	2.78581	2.33782	1.94689	9.45680	5.70250	2.70604	1.17500	1.06419	0.93521	2.05286	1.59004	1.23580	9.84515	6.28937	3.49433
40090	0.51604	0.45395	0.32498	2.78740	2.33366	1.94610	9.47612	5.70893	2.70418	1.15305	1.07414	0.92759	2.03684	1.59023	1.22851	9.76096	6.26269	3.42433
40250	0.51101	0.46576	0.31500	2.74055	2.29253	1.87490	9.48063	5.71250	2.70809	1.11254	1.02172	0.91415	2.05494	1.58955	1.22557	9.80432	6.29968	3.45127
40420	0.51347	0.46500	0.32753	2.78812	2.38127	1.95001	9.46658	5.73184	2.71900	1.18489	1.05755	0.92604	2.06500	1.63765	1.24951	9.80852	6.32113	3.50363
40580	0.55575	0.48589	0.32674	2.89470	2.41001	2.09654	9.53622	5.76380	2.77564	1.17780	1.10890	1.03111	2.11192	1.68148	1.25623	9.84464	6.40706	3.51065
40740	0.54791	0.48350	0.34620	2.80867	2.38953	2.01319	9.48111	5.73330	2.71642	1.17267	1.05218	0.92698	2.06518	1.60626	1.22805	9.81754	6.29958	3.43516
40910	0.53033	0.49473	0.32735	2.82442	2.38340	2.02812	9.49391	5.72949	2.73937	1.13727	1.07664	0.94015	2.09148	1.59861	1.23273	9.84116	6.31074	3.46367	30.17	5.9	0.00	6.78	0.01266	0.01288	0.01632	0.00779	0.00580	0.00636	0.00467	0.01263	0.01678	0.00677	0.00698	0.00880	0.01486	0.01092	0.01193	0.00217	0.00616	0.00865
41070	0.51631	0.47488	0.32352	2.80656	2.36919	1.98364	9.46412	5.73054	2.73966	1.15276	1.05723	0.89827	2.06860	1.58393	1.23989	9.80094	6.30831	3.47001
41230	0.53832	0.48957	0.32705	2.78556	2.35669	1.96177	9.45819	5.72580	2.73524	1.16717	1.06477	0.94778	2.07053	1.61875	1.23987	9.81947	6.30122	3.47610
41400	0.52812	0.49442	0.33719	2.80537	2.40234	1.98956	9.46856	5.74468	2.71983	1.18039	1.07459	0.93585	2.07949	1.60857	1.25371	9.82730	6.29954	3.45406
41560	0.52966	0.48495	0.31948	2.80313	2.43133	1.97106	9.46761	5.73432	2.73568	1.14160	1.09077	0.95050	2.08171	1.58980	1.23874	9.82459	6.32266	3.46527
41720	0.56690	0.48619	0.32961	2.81528	2.35677	1.97069	9.47853	5.74337	2.71562	1.17671	1.06981	0.91329	2.06778	1.59153	1.23322	9.78813	6.28393	3.48063
41890	0.52033	0.46684	0.33069	2.78798	2.32660	1.92816	9.46904	5.70939	2.73918	1.14389	1.03181	0.89493	2.05142	1.60968	1.21969	9.79443	6.27000	3.46152
42050	0.50417	0.45443	0.32035	2.76586	2.31477	1.93942	9.48357	5.71546	2.71171	1.16496	1.07944	0.91089	2.07344	1.58810	1.25291	9.79723	6.28359	3.47440
42210	0.52904	0.47034	0.32010	2.79909	2.33306	1.93676	9.46329	5.72055	2.69977	1.18889	1.06263	0.92697	2.06454	1.59483	1.24742	9.80104	6.28737	3.40620
42380	0.50637	0.46708	0.32323	2.75940	2.32513	1.92962	9.46187	5.72299	2.71189	1.14214	1.05422	0.89585	2.05312	1.59091	1.22716	9.80995	6.28261	3.50930
42540	0.51207	0.47993	0.31217	2.77096	2.35129	1.92213	9.46094	5.72339	2.70273	1.11678	1.07497	0.91547	2.04827	1.59438	1.23427	9.76443	6.32000	3.49450	30.23	6.0	0.00	7.89	0.01266	0.01288	0.01632	0.00779	0.00580	0.00636	0.00467	0.01263	0.01679	0.00677	0.00698	0.00880	0.01486	0.01092	0.01193	0.00216	0.00616	0.00865
42700	0.52414	0.48478	0.33464	2.80449	2.39480	1.96878	9.49737	5.73146	2.72236	1.17634	1.08300	0.93864	2.07501	1.60114	1.25585	9.80395	6.31983	3.47617
42870	0.52388	0.47433	0.32025	2.78390	2.34405	1.97894	9.46953	5.71437	2.70414	1.16010	1.09035	0.92710	2.04182	1.57023	1.22876	9.78272	6.30625	3.45981
43030	0.50492	0.45746	0.31337	2.77074	2.35583	1.95008	9.43775	5.71895	2.71823	1.11096	1.07590	0.94011	2.05376	1.57681	1.21954	9.79323	6.30393	3.45326
43190	0.50887	0.45984	0.30798	2.81826	2.37189	1.95533	9.45188	5.74833	2.71892	1.12889	1.04933	0.90366	2.08339	1.59589	1.23764	9.78382	6.28427	3.43249
43360	0.51894	0.47046	0.32174	2.81307	2.34385	1.94862	9.46100	5.71764	2.70940	1.14658	1.08913	0.95793	2.07991	1.59192	1.21563	9.79152	6.30334	3.41795
43520	0.51404	0.47765	0.31842	2.79821	2.39940	1.95552	9.44490	5.72478	2.71654	1.13561	1.02244	0.89495	2.05785	1.59484	1.21799	9.77602	6.30270	3.44272
43680	0.51208	0.46477	0.32015	2.78422	2.36152	1.94030	9.49476	5.73066	2.72204	1.16611	1.07266	0.91471	2.06372	1.58580	1.22688	9.79713	6.30180	3.46562
43850	0.53452	0.46542	0.32306	2.83596	2.38669	1.97246	9.49695	5.74191	2.72324	1.23093	1.08199	0.97448	2.07487	1.58873	1.25347	9.76832	6.33193	3.44897
44010	0.51955	0.48413	0.33635	2.82536	2.33598	1.89260	9.47694	5.73632	2.71606	1.15551	1.06371	0.94781	2.07044	1.58005	1.22176	9.76882	6.28429	3.46499
44170	0.50753	0.47134	0.31521	2.79526	2.35103	1.93949	9.48692	5.72196	2.71850	1.13719	1.04509	0.93230	2.06492	1.60826	1.24245	9.83060	6.30251	3.51334	30.23	6.0	0.00	7.46	0.01266	0.01288	0.01632	0.00779	0.00580	0.00636	0.00467	0.01263	0.01679	0.00677	0.00698	0.00879	0.01486	0.01092	0.01193	0.00216	0.00616	0.00865
44340	0.52958	0.50999	0.34069	2.83446	2.47793	2.03840	9.51070	5.76752	2.74391	1.26844	1.12912	0.95702	2.08908	1.62968	1.28406	9.91335	6.39833	3.55457
44500	0.56494	0.50463	0.37952	2.85033	2.43489	2.02182	9.60140	5.78755	2.81200	1.23786	1.12621	0.98253	2.09881	1.59625	1.26343	9.80861	6.31669	3.48688
44660	0.53843	0.48640	0.35772	2.81854	2.38170	1.99962	9.46913	5.74797	2.73425	1.19645	1.10653	0.96394	2.08025	1.60955	1.22425	9.79177	6.37738	3.53512
44830	0.51641	0.47798	0.33710	2.86881	2.39982	1.99981	9.46385	5.72926	2.71755	1.15873	1.03761	0.89954	2.08075	1.58803	1.21587	9.76338	6.30248	3.43153
44990	0.50719	0.46878	0.31785	2.79537	2.33230	1.94945	9.48247	5.72329	2.72516	1.15575	1.10289	0.94302	2.06012	1.60370	1.25169	9.76468	6.31361	3.42575
45150	0.51267	0.46137	0.31147	2.76754	2.32943	1.93260	9.47043	5.70863	2.71183	1.13447	1.04509	0.90985	2.04729	1.57808	1.22894	9.76618	6.24932	3.41641
45320	0.50029	0.45406	0.29802	2.76564	2.31240	1.89792	9.44456	5.70176	2.70283	1.13098	1.02430	0.88450	2.04585	1.56938	1.20672	9.74772	6.26302	3.39196
45480	0.49872	0.45790	0.30957	2.72440	2.27633	1.89541	9.44757	5.70147	2.69485	1.11277	0.99671	0.86955	2.03371	1.56390	1.20767	9.75659	6.25683	3.42058
45640	0.51768	0.44261	0.30439	2.76664	2.32212	1.91507	9.44610	5.71370	2.70994	1.11567	1.02322	0.91572	2.04917	1.57672	1.24725	9.76748	6.28317	3.47336
45810	0.51193	0.46311	0.31961	2.83954	2.39224	2.01431	9.47744	5.74070	2.74415	1.19731	1.07737	0.94501	2.06770	1.61459	1.27309	9.82291	6.34288	3.46832	30.23	6.0	0.00	7.45	0.01266	0.01288	0.01632	0.00779	0.00579	0.00636	0.00467	0.01263	0.01679	0.00677	0.00698	0.00879	0.01486	0.01092	0.01193	0.00216	0.00616	0.00865
45970	0.54610	0.50936	0.35820	2.85344	2.40238	1.97382	9.50691	5.74951	2.73217	1.15966	1.07129	0.92920	2.07371	1.59468	1.24363	9.78292	6.31012	3.44919
46130	0.53624	0.48478	0.33549	2.77238	2.33648	1.94044	9.47062	5.73181	2.71571	1.12958	1.04712	0.90266	2.06796	1.60400	1.23004	9.78482	6.31783	3.43750
46300	0.49063	0.45708	0.31101	2.78353	2.33467	1.94198	9.45942	5.72777	2.71530	1.13128	1.01977	0.88967	2.05983	1.57438	1.22121	9.78062	6.26165	3.41704
46460	0.50928	0.45582	0.30346	2.74381	2.32917	1.91206	9.46582	5.71104	2.70916	1.14323	1.05054	0.89763	2.03919	1.57816	1.21796	9.74269	6.28661	3.45008
46620	0.50307	0.45521	0.30152	2.80220	2.35985	1.97853	9.46114	5.71353	2.71057	1.12818	1.07918	0.90979	2.04938	1.58050	1.21572	9.76783	6.28236	3.41503
46780	0.52007	0.46404	0.31837	2.78917	2.37009	1.95643	9.46475	5.72207	2.73068	1.18914	1.06390	0.92189	2.06773	1.58019	1.22763	9.80725	6.31117	3.46389
46950	0.51853	0.46360	0.31383	2.84035	2.41066	1.96500	9.47786	5.72068	2.72134	1.14014	1.03446	0.90251	2.06334	1.59113	1.23889	9.79984	6.30002	3.43622
47110	0.50767	0.48141	0.33202	2.78649	2.32601	1.93795	9.46701	5.73547	2.71725	1.13302	1.03559	0.91641	2.04459	1.57363	1.22643	9.76234	6.26406	3.43319
47270	0.51213	0.46442	0.31242	2.74780	2.31946	1.91403	9.47720	5.72239	2.70340	1.13372	1.02055	0.86872	2.06248	1.58109	1.22495	9.78462	6.32280	3.44841
47440	0.50682	0.47963	0.33086	2.82429	2.35115	1.93995	9.47251	5.74453	2.74420	1.16171	1.07331	0.96266	2.07517	1.60360	1.23210	9.79799	6.31266	3.49699	30.17	6.3	0.00	7.59	0.01266	0.01288	0.01632	0.00779	0.00579	0.00636	0.00467	0.01263	0.01679	0.00677	0.00698	0.00879	0.01486	0.01092	0.01193	0.00216	0.00616	0.00865
47600	0.52140	0.48401	0.34250	2.83671	2.39108	1.98964	9.46225	5.74602	2.74130	1.17581	1.09057	0.94721	2.08100	1.59291	1.23746	9.76109	6.28207	3.44447
47770	0.54527	0.50244	0.33966	2.83795	2.38052	1.96397	9.48972	5.72733	2.70826	1.14063	1.07562	0.89399	2.05819	1.59938	1.22853	9.81041	6.30608	3.46447
47930	0.51893	0.49465	0.36757	2.80294	2.37137	1.91161	9.44746	5.71857	2.72422	1.13606	1.05151	0.91422	2.06078	1.58033	1.23914	9.78517	6.30121	3.43808
48090	0.51210	0.47116	0.33436	2.76480	2.36573	1.93682	9.48568	5.72903	2.71549	1.14030	1.05552	0.90794	2.05587	1.57279	1.22940	9.80390	6.31222	3.44096
48260	0.52050	0.47081	0.31658	2.83527	2.37783	1.96339	9.48016	5.72490	2.71592	1.16208	1.04035	0.90652	2.07707	1.61231	1.24327	9.81332	6.29953	3.45741
48420	0.53271	0.47504	0.33614	2.82817	2.34885	2.01137	9.47826	5.73324	2.71699	1.19154	1.11552	0.98648	2.08156	1.61137	1.25061	9.82286	6.32480	3.50364
48580	0.53574	0.48886	0.36010	2.78372	2.38097	2.00283	9.46818	5.73356	2.75718	1.20221	1.09048	0.93260	2.06575	1.59545	1.23633	9.79178	6.35710	3.50012
48750	0.52561	0.47878	0.34282	2.83313	2.33713	1.95692	9.48147	5.73235	2.73020	1.16750	1.05953	0.90748	2.06527	1.59166	1.24945	9.76229	6.31197	3.44375
48910	0.52231	0.47395	0.32196	2.80215	2.35526	1.93587	9.46960	5.72180	2.70863	1.15791	1.04112	0.91219	2.05195	1.57317	1.22729	9.75680	6.26907	3.47030
49080	0.52034	0.47045	0.31334	2.78895	2.38219	1.94512	9.47400	5.72314	2.71704	1.12380	1.03070	0.89267	2.07203	1.59194	1.24575	9.79205	6.26184	3.42750	30.17	6.1	0.00	7.46	0.01266	0.01288	0.01632	0.00779	0.00580	0.00636	0.00467	0.01263	0.01678	0.00676	0.00698	0.00879	0.01486	0.01092	0.01193	0.00216	0.00616	0.00865
49240	0.52549	0.48631	0.32404	2.79201	2.31119	1.90425	9.44729	5.72100	2.70265	1.11768	1.06643	0.92457	2.06351	1.60169	1.24853	9.83608	6.30536	3.50032
49400	0.52252	0.48325	0.32964	2.82377	2.39945	2.02247	9.48730	5.75684	2.74393	1.17741	1.08857	0.95942	2.07037	1.61144	1.24882	9.86033	6.33078	3.43768
49570	0.54388	0.47434	0.33057	2.79294	2.32988	1.94143	9.48771	5.73679	2.72766	1.11651	1.05809	0.89472	2.04601	1.58354	1.21842	9.77985	6.28283	3.41336
49730	0.51006	0.47463	0.33868	2.78348	2.34487	1.96376	9.47039	5.72994	2.71761	1.12241	1.02086	0.94189	2.04078	1.58522	1.21935	9.76567	6.29135	3.44637
49890	0.52257	0.45423	0.30976	2.79662	2.32088	1.92464	9.46286	5.70128	2.70210	1.14393	1.05071	0.88594	2.06410	1.59861	1.22202	9.76777	6.26791	3.42183
