WetView ver 7.1	07-17-2018	22:20:50
AC9 Absorption and Attenuation Meter
00000266		; Serial number
2	; structure version number
Reserved
0.000000	0.000000		; Depth calibration
19200			; Baud rate
0.100000			; Path length (meters)
31			; number of temperature calibration bins
				12.59339	13.44920	14.48425	15.49668	16.50852	17.49564	18.50545	19.52458	20.50176	21.48889	22.47318	23.48707	24.50962	25.49370	26.49784	27.51372	28.50746	29.47237	30.47938	31.50214	32.50470	33.49235	34.50337	35.50914	36.50618	37.52058	38.51018	39.51308	40.49994	41.49866	42.47204	; temperature bins
a650	Blue	20.34952		-0.00383	-0.00415	-0.00430	-0.00391	-0.00363	-0.00317	-0.00269	-0.00237	-0.00179	-0.00130	-0.00099	-0.00071	-0.00015	0.00000	0.00004	-0.00001	0.00015	0.00036	0.00058	0.00101	0.00161	0.00132	0.00160	0.00169	0.00242	0.00273	0.00336	0.00365	0.00427	0.00566	0.00670		; offset and temperature correction info
a676	Green	20.51193		-0.00398	-0.00384	-0.00360	-0.00306	-0.00302	-0.00255	-0.00235	-0.00212	-0.00163	-0.00136	-0.00118	-0.00089	-0.00029	0.00000	0.00068	0.00082	0.00099	0.00137	0.00145	0.00212	0.00260	0.00252	0.00321	0.00354	0.00457	0.00535	0.00617	0.00648	0.00742	0.00887	0.01002		; offset and temperature correction info
a715	Brown	20.23230		-0.00421	-0.00394	-0.00391	-0.00291	-0.00264	-0.00192	-0.00204	-0.00179	-0.00188	-0.00239	-0.00180	-0.00187	-0.00099	0.00000	0.00084	0.00162	0.00188	0.00224	0.00321	0.00381	0.00466	0.00528	0.00588	0.00696	0.00859	0.01041	0.01148	0.01282	0.01333	0.01456	0.01617		; offset and temperature correction info
c510	Red	20.40042		-0.00261	-0.00247	-0.00258	-0.00225	-0.00203	-0.00197	-0.00199	-0.00203	-0.00154	-0.00103	-0.00069	-0.00019	-0.00007	0.00000	0.00011	-0.00021	-0.00042	-0.00056	-0.00040	0.00011	0.00036	0.00050	0.00077	0.00079	0.00050	0.00042	0.00043	0.00092	0.00147	0.00200	0.00232		; offset and temperature correction info
c532	Magenta	20.40760		-0.00248	-0.00265	-0.00278	-0.00279	-0.00296	-0.00292	-0.00238	-0.00206	-0.00129	-0.00096	-0.00092	-0.00052	-0.00009	0.00000	0.00007	-0.00049	-0.00136	-0.00107	-0.00079	-0.00065	-0.00074	-0.00105	-0.00152	-0.00192	-0.00236	-0.00269	-0.00252	-0.00233	-0.00172	-0.00128	-0.00067		; offset and temperature correction info
c555	Black	20.50654		-0.00053	-0.00063	-0.00106	-0.00094	-0.00068	-0.00055	-0.00053	-0.00039	-0.00028	-0.00025	-0.00011	-0.00035	-0.00007	0.00000	-0.00037	-0.00055	-0.00036	-0.00014	0.00019	0.00044	0.00032	0.00040	0.00050	0.00028	0.00014	0.00013	0.00030	0.00073	0.00117	0.00176	0.00241		; offset and temperature correction info
a412	LtBlue	17.15231		-0.01972	-0.01823	-0.01612	-0.01381	-0.01272	-0.01080	-0.00959	-0.00866	-0.00710	-0.00532	-0.00354	-0.00148	-0.00028	0.00000	0.00176	0.00297	0.00394	0.00440	0.00453	0.00487	0.00804	0.00856	0.01065	0.01248	0.01388	0.01439	0.01659	0.01881	0.02256	0.02450	0.02719		; offset and temperature correction info
a440	LtGreen	18.00171		-0.00729	-0.00642	-0.00581	-0.00502	-0.00426	-0.00349	-0.00244	-0.00218	-0.00179	-0.00101	-0.00046	-0.00006	0.00036	0.00000	0.00040	0.00045	0.00030	-0.00015	-0.00024	-0.00035	0.00012	-0.00013	-0.00033	-0.00089	-0.00142	-0.00189	-0.00231	-0.00205	-0.00140	-0.00140	-0.00146		; offset and temperature correction info
a488	Yellow	18.86491		-0.00113	-0.00102	-0.00106	-0.00064	-0.00027	-0.00020	-0.00030	-0.00037	-0.00047	-0.00059	-0.00052	-0.00012	0.00008	0.00000	0.00025	0.00012	-0.00013	-0.00043	-0.00065	-0.00076	-0.00025	0.00010	0.00090	0.00111	0.00113	0.00104	0.00073	0.00068	0.00120	0.00186	0.00258		; offset and temperature correction info
c650	Blue	20.46075		-0.00145	-0.00097	-0.00092	-0.00139	-0.00185	-0.00196	-0.00237	-0.00266	-0.00238	-0.00163	-0.00083	-0.00041	-0.00010	0.00000	0.00005	-0.00001	0.00015	0.00034	0.00029	0.00065	0.00101	0.00164	0.00126	0.00156	0.00175	0.00270	0.00287	0.00371	0.00407	0.00473	0.00534		; offset and temperature correction info
c676	Green	20.10118		-0.00170	-0.00144	-0.00149	-0.00177	-0.00188	-0.00194	-0.00198	-0.00196	-0.00177	-0.00156	-0.00140	-0.00091	-0.00033	0.00000	0.00050	0.00092	0.00110	0.00141	0.00167	0.00199	0.00216	0.00265	0.00269	0.00289	0.00315	0.00374	0.00367	0.00408	0.00486	0.00561	0.00646		; offset and temperature correction info
c715	Brown	19.91219		-0.01201	-0.01097	-0.00859	-0.00680	-0.00651	-0.00592	-0.00535	-0.00440	-0.00387	-0.00303	-0.00222	-0.00153	-0.00028	0.00000	0.00093	0.00149	0.00247	0.00322	0.00330	0.00427	0.00373	0.00464	0.00536	0.00551	0.00643	0.00733	0.00779	0.00884	0.00899	0.01021	0.01120		; offset and temperature correction info
a510	Red	19.21192		0.00201	0.00193	0.00158	0.00098	0.00089	0.00049	0.00011	-0.00016	-0.00016	-0.00005	0.00028	0.00025	0.00006	0.00000	0.00035	-0.00022	-0.00023	-0.00080	-0.00144	-0.00154	-0.00153	-0.00204	-0.00220	-0.00219	-0.00190	-0.00128	-0.00069	-0.00018	0.00068	0.00152	0.00241		; offset and temperature correction info
a532	Magenta	19.41084		-0.00097	-0.00072	-0.00060	-0.00081	-0.00062	-0.00071	-0.00040	0.00020	0.00028	0.00043	0.00000	-0.00035	0.00007	0.00000	-0.00011	-0.00059	-0.00080	-0.00098	-0.00137	-0.00162	-0.00163	-0.00130	-0.00073	-0.00018	0.00090	0.00185	0.00175	0.00247	0.00291	0.00327	0.00349		; offset and temperature correction info
a555	Black	19.69776		0.00171	0.00183	0.00183	0.00186	0.00191	0.00170	0.00115	0.00131	0.00097	0.00073	0.00060	0.00013	0.00015	0.00000	0.00014	-0.00029	-0.00066	-0.00082	-0.00116	-0.00139	-0.00134	-0.00167	-0.00119	-0.00093	-0.00048	0.00053	0.00111	0.00095	0.00178	0.00206	0.00273		; offset and temperature correction info
c412	LtBlue	19.91180		-0.02051	-0.01853	-0.01589	-0.01311	-0.01059	-0.00877	-0.00705	-0.00581	-0.00413	-0.00231	-0.00098	-0.00066	-0.00011	0.00000	-0.00013	-0.00085	-0.00170	-0.00170	-0.00302	-0.00330	-0.00429	-0.00551	-0.00626	-0.00775	-0.00978	-0.01181	-0.01113	-0.01108	-0.01116	-0.01192	-0.01291		; offset and temperature correction info
c440	LtGreen	20.06241		-0.01064	-0.00992	-0.00892	-0.00766	-0.00639	-0.00531	-0.00478	-0.00384	-0.00287	-0.00187	-0.00102	-0.00063	-0.00023	0.00000	-0.00007	-0.00053	-0.00090	-0.00119	-0.00169	-0.00197	-0.00226	-0.00257	-0.00260	-0.00289	-0.00394	-0.00470	-0.00481	-0.00493	-0.00520	-0.00580	-0.00620		; offset and temperature correction info
c488	Yellow	20.35984		-0.01125	-0.01082	-0.00966	-0.00833	-0.00726	-0.00661	-0.00579	-0.00500	-0.00389	-0.00278	-0.00167	-0.00113	-0.00041	0.00000	0.00055	0.00121	0.00187	0.00226	0.00222	0.00251	0.00281	0.00359	0.00414	0.00427	0.00401	0.00404	0.00486	0.00563	0.00638	0.00684	0.00718		; offset and temperature correction info
0.003500	0.004000	0.015000	0.020000	0.015000	0.020000	2500.000000	2000.000000	1000.000000	; maxANoise	maxCNoise	maxADifference	maxCDifference	minACounts	minCCounts	minRCounts	maxTempSdev	maxDepthSdev
0			; auxilliary capabilities
1			; acquisition binsize
0	0.78880	0.81387	0.52930	3.94653	3.61283	3.26080	7.03800	4.52519	2.40187	2.51972	2.44283	2.21973	1.91158	1.54587	1.25741	8.66730	6.37565	4.44205	29.09	6.2	0.00	7.33	0.01273	0.01295	0.01642	0.00790	0.00587	0.00644	0.00471	0.01272	0.01689	0.00683	0.00702	0.00887	0.01495	0.01099	0.01200	0.00221	0.00626	0.00878
160	0.79285	0.81399	0.53263	3.94724	3.61132	3.25821	7.04224	4.53011	2.40650	2.51677	2.44113	2.21652	1.91754	1.54861	1.26002	8.66204	6.37311	4.43980
330	0.79972	0.81664	0.54028	3.94397	3.60888	3.25778	7.05751	4.53863	2.42108	2.51554	2.43948	2.21639	1.93222	1.56376	1.28159	8.66668	6.37979	4.44419
490	0.79468	0.81531	0.53192	3.94962	3.61319	3.25963	7.03648	4.52510	2.40376	2.51887	2.44228	2.21761	1.90951	1.54841	1.25850	8.66161	6.37754	4.44118
650	0.78953	0.81552	0.53201	3.94456	3.61107	3.25722	7.02594	4.52856	2.40467	2.51507	2.43823	2.21514	1.91777	1.55332	1.26558	8.66432	6.37790	4.44270
820	0.79898	0.81776	0.52752	3.94706	3.61272	3.25824	7.01348	4.51385	2.39148	2.51681	2.44051	2.21592	1.90491	1.54010	1.25050	8.65933	6.37127	4.43793
980	0.78140	0.81258	0.51897	3.94210	3.60916	3.25372	6.99873	4.49694	2.37786	2.51268	2.43842	2.21284	1.89415	1.53021	1.24616	8.66126	6.37156	4.43946
1150	0.78385	0.81065	0.52443	3.94558	3.61239	3.25621	7.00305	4.51404	2.39700	2.51449	2.44112	2.21444	1.91219	1.54739	1.26415	8.66598	6.37384	4.44152
1310	0.79741	0.82730	0.53890	3.94740	3.61510	3.25862	7.03234	4.53237	2.41760	2.51641	2.44392	2.21682	1.90532	1.53788	1.25322	8.66152	6.37236	4.43819
1470	0.78476	0.81624	0.52689	3.94449	3.61325	3.25867	7.00746	4.51761	2.39986	2.51584	2.44385	2.21572	1.91445	1.54844	1.26798	8.65977	6.37064	4.43808
1640	0.79469	0.82734	0.53644	3.94633	3.61367	3.25843	7.02358	4.53203	2.41341	2.51448	2.44306	2.21484	1.92556	1.56257	1.27566	8.65762	6.37245	4.43991	29.09	6.1	0.00	7.32	0.01273	0.01295	0.01642	0.00790	0.00588	0.00644	0.00471	0.01272	0.01689	0.00683	0.00702	0.00888	0.01495	0.01099	0.01200	0.00221	0.00627	0.00879
1800	0.80525	0.83802	0.54598	3.94650	3.61265	3.25773	7.04721	4.55309	2.42900	2.51345	2.44460	2.21519	1.93799	1.57197	1.28439	8.65342	6.37042	4.43624
1960	0.81048	0.84217	0.54918	3.94057	3.60972	3.25312	7.05556	4.56045	2.43276	2.51067	2.44188	2.21171	1.94849	1.58033	1.29139	8.65823	6.37289	4.43957
2130	0.80480	0.83622	0.54315	3.94487	3.61150	3.25572	7.03366	4.54012	2.41658	2.51396	2.44277	2.21268	1.93241	1.56267	1.27401	8.65850	6.36882	4.43449
2290	0.80459	0.84001	0.54094	3.94158	3.61106	3.25577	6.99772	4.50614	2.38851	2.51385	2.44214	2.21238	1.90162	1.53887	1.25264	8.66016	6.36928	4.43530
2460	0.78350	0.81916	0.52751	3.94105	3.60898	3.25325	7.00828	4.50359	2.37505	2.51215	2.44190	2.21088	1.87921	1.51270	1.23121	8.65622	6.36858	4.43334
2620	0.77007	0.80342	0.51504	3.94244	3.61099	3.25557	6.99084	4.48938	2.37731	2.51319	2.44265	2.21253	1.89102	1.52804	1.24003	8.65815	6.37117	4.43625
2780	0.77661	0.80884	0.51850	3.93886	3.60696	3.25071	6.98749	4.49534	2.38365	2.50954	2.43927	2.20850	1.89985	1.53319	1.25145	8.65710	6.36969	4.43351
2950	0.78014	0.81347	0.52605	3.93800	3.60526	3.24915	7.00887	4.50721	2.39347	2.50741	2.43793	2.20705	1.90546	1.54141	1.25385	8.65264	6.36614	4.42872
3110	0.78605	0.82021	0.52831	3.93321	3.60050	3.24527	7.00359	4.51490	2.39721	2.50370	2.43497	2.20299	1.91389	1.55003	1.26504	8.65255	6.36626	4.43048
3280	0.79085	0.82839	0.53234	3.93615	3.60490	3.25088	7.02180	4.53066	2.40516	2.50643	2.43885	2.20704	1.91767	1.55567	1.26462	8.65536	6.36461	4.42926	29.03	6.3	0.00	7.34	0.01273	0.01295	0.01643	0.00790	0.00588	0.00644	0.00471	0.01272	0.01689	0.00683	0.00702	0.00888	0.01495	0.01099	0.01200	0.00221	0.00627	0.00879
3440	0.79148	0.82036	0.52780	3.93191	3.60050	3.24691	7.01624	4.52154	2.39909	2.50322	2.43540	2.20297	1.91299	1.54786	1.26614	8.65667	6.36845	4.43115
3600	0.79395	0.82646	0.53446	3.93492	3.60377	3.24854	7.03381	4.53606	2.41108	2.50467	2.43630	2.20450	1.92256	1.55910	1.25724	8.65178	6.36231	4.42564
3770	0.77696	0.80846	0.51698	3.93265	3.60250	3.24897	7.00618	4.50608	2.38318	2.50480	2.43724	2.20470	1.89568	1.52573	1.24422	8.65020	6.36359	4.42670
3930	0.77776	0.80979	0.51897	3.93037	3.59757	3.24413	7.00255	4.50759	2.38965	2.50189	2.43335	2.20150	1.90025	1.53306	1.24705	8.64750	6.35736	4.42041
4090	0.78866	0.81973	0.53108	3.93064	3.59937	3.24605	7.01826	4.52709	2.40654	2.50515	2.43592	2.20417	1.91572	1.55153	1.26150	8.65003	6.36229	4.42413
4260	0.79681	0.83052	0.53602	3.92813	3.59680	3.24278	7.03437	4.53937	2.41611	2.50083	2.43070	2.20193	1.92755	1.55883	1.27023	8.64715	6.35741	4.41974
4420	0.80096	0.83580	0.54130	3.92408	3.59454	3.24060	7.03584	4.53420	2.40733	2.50048	2.42997	2.20062	1.91719	1.54939	1.26212	8.64854	6.35642	4.41906
4590	0.79351	0.83021	0.53523	3.92492	3.59652	3.24274	7.04353	4.54157	2.41612	2.50230	2.43129	2.20202	1.92913	1.55786	1.25845	8.64688	6.35780	4.41983
4750	0.78604	0.82051	0.52442	3.92472	3.59429	3.24103	7.01895	4.51400	2.39135	2.50072	2.42961	2.20034	1.90400	1.52723	1.23740	8.64540	6.35615	4.41763
4910	0.77143	0.80877	0.51867	3.92532	3.59683	3.24347	6.99209	4.50153	2.38063	2.50420	2.43134	2.20304	1.89521	1.53129	1.24384	8.65256	6.35965	4.42234	29.09	6.2	0.00	7.33	0.01273	0.01295	0.01643	0.00790	0.00588	0.00644	0.00471	0.01272	0.01689	0.00683	0.00703	0.00888	0.01495	0.01099	0.01200	0.00221	0.00627	0.00879
5080	0.77836	0.81096	0.52004	3.92590	3.59492	3.23888	7.00462	4.50314	2.38520	2.50310	2.42975	2.20117	1.90165	1.53717	1.24822	8.65806	6.36214	4.42210
5240	0.78136	0.81708	0.52386	3.92680	3.59617	3.24144	7.00388	4.51067	2.38759	2.50354	2.43033	2.20163	1.90240	1.53752	1.24501	8.65483	6.36018	4.42084
5410	0.78236	0.81859	0.52526	3.92583	3.59547	3.24118	7.00939	4.50901	2.38618	2.50438	2.42989	2.20324	1.89822	1.53979	1.24551	8.65754	6.36154	4.42169
5570	0.78077	0.81730	0.52217	3.92599	3.59524	3.24032	7.00012	4.50694	2.38573	2.50338	2.42765	2.20155	1.89928	1.53610	1.24603	8.65238	6.36006	4.42073
5730	0.78592	0.81728	0.52941	3.92708	3.59768	3.24302	7.01095	4.52060	2.39778	2.50659	2.42984	2.20288	1.91283	1.54479	1.25873	8.65422	6.36318	4.42305
5900	0.79494	0.82062	0.53589	3.92671	3.59451	3.23998	7.02286	4.52513	2.40322	2.50281	2.42714	2.19995	1.91785	1.55852	1.26462	8.65369	6.36207	4.42206
6060	0.80070	0.83105	0.53806	3.92623	3.59486	3.23965	7.02465	4.53177	2.40641	2.50401	2.42713	2.20122	1.92045	1.56015	1.26397	8.65684	6.36071	4.42079
6230	0.80103	0.83162	0.53880	3.92299	3.59252	3.23539	7.01559	4.52761	2.40287	2.50188	2.42394	2.19858	1.91893	1.55852	1.26550	8.65229	6.36306	4.42358
6390	0.79911	0.82729	0.53814	3.92539	3.59500	3.23927	6.99723	4.51388	2.39605	2.50298	2.42728	2.20072	1.91078	1.54826	1.25307	8.64985	6.36035	4.41966
6550	0.79101	0.82404	0.53376	3.92651	3.59878	3.24201	7.00578	4.50339	2.38266	2.50512	2.42747	2.20346	1.89817	1.53876	1.24300	8.65882	6.36100	4.42341	29.03	6.1	0.00	7.37	0.01273	0.01295	0.01643	0.00790	0.00588	0.00644	0.00471	0.01272	0.01689	0.00683	0.00703	0.00888	0.01495	0.01099	0.01200	0.00221	0.00627	0.00879
6720	0.78248	0.81462	0.52472	3.92617	3.59705	3.24199	6.99138	4.49861	2.37667	2.50419	2.42730	2.20153	1.89168	1.53016	1.23908	8.65847	6.36061	4.42315
6880	0.78148	0.80964	0.52510	3.92662	3.59869	3.24140	6.98913	4.49531	2.37604	2.50388	2.42765	2.20301	1.88864	1.52690	1.23636	8.65576	6.35841	4.42202
7050	0.78010	0.80419	0.52170	3.92481	3.59535	3.23921	6.98231	4.48901	2.37174	2.50122	2.42465	2.19979	1.88881	1.53144	1.24129	8.65602	6.36418	4.42545
7210	0.78393	0.80517	0.52150	3.92897	3.60109	3.24272	6.98464	4.49227	2.37218	2.50291	2.42772	2.20301	1.88556	1.52438	1.23380	8.65148	6.35894	4.42249
7370	0.77959	0.80607	0.52124	3.92917	3.60220	3.24441	6.97910	4.48540	2.36548	2.50533	2.42979	2.20394	1.87857	1.52100	1.22872	8.65375	6.36090	4.42282
7540	0.76766	0.79478	0.50939	3.92662	3.59799	3.23987	6.97677	4.46976	2.34973	2.50089	2.42624	2.20065	1.86206	1.50317	1.21301	8.65200	6.35704	4.42005
7700	0.75629	0.78248	0.50305	3.92444	3.59656	3.23946	6.95948	4.46621	2.34339	2.50154	2.42728	2.20125	1.86039	1.49852	1.21054	8.65262	6.35605	4.41961
7870	0.75203	0.78145	0.50051	3.92447	3.59882	3.24129	6.96396	4.46433	2.34681	2.50359	2.42788	2.20268	1.86011	1.50096	1.21045	8.65436	6.35989	4.42256
8030	0.75218	0.77813	0.49992	3.92503	3.59777	3.23856	6.95199	4.45859	2.33991	2.49997	2.42546	2.19923	1.85305	1.49692	1.20313	8.64676	6.35433	4.41862
8190	0.74876	0.77849	0.49897	3.92404	3.59901	3.24277	6.96519	4.46108	2.34382	2.50366	2.42870	2.20287	1.85676	1.49977	1.21184	8.65970	6.36189	4.42455	29.09	6.2	0.00	7.36	0.01273	0.01295	0.01643	0.00790	0.00588	0.00644	0.00471	0.01272	0.01689	0.00683	0.00703	0.00888	0.01495	0.01099	0.01200	0.00221	0.00627	0.00879
8360	0.75153	0.77651	0.49427	3.92696	3.59827	3.24040	6.95458	4.45801	2.33922	2.50233	2.42492	2.19963	1.85093	1.49584	1.20552	8.65428	6.36003	4.42293
8520	0.74957	0.77506	0.49646	3.92701	3.59899	3.23997	6.96217	4.45227	2.33785	2.50192	2.42563	2.20011	1.85338	1.49393	1.20392	8.65210	6.35812	4.42109
8680	0.74877	0.77241	0.49421	3.92372	3.59672	3.23826	6.95367	4.45372	2.33627	2.50008	2.42443	2.19881	1.85205	1.49499	1.20821	8.65656	6.36010	4.42427
8850	0.74913	0.77389	0.49503	3.92718	3.59925	3.24091	6.94988	4.45652	2.33832	2.50375	2.42662	2.20144	1.85126	1.49212	1.20776	8.65551	6.35955	4.42456
9010	0.74749	0.77426	0.49257	3.92734	3.59750	3.23933	6.94942	4.45452	2.33459	2.50243	2.42639	2.20036	1.85290	1.49611	1.20894	8.65507	6.36201	4.42678
9180	0.75027	0.77502	0.49505	3.93035	3.60207	3.24338	6.96061	4.45043	2.33682	2.50656	2.42852	2.20402	1.85175	1.49338	1.20534	8.65350	6.35865	4.42266
9340	0.74882	0.77473	0.49544	3.92990	3.60212	3.24538	6.94860	4.45952	2.33926	2.50799	2.42998	2.20531	1.85524	1.49614	1.20988	8.65725	6.36177	4.42615
9500	0.74651	0.77132	0.49176	3.92990	3.60095	3.24343	6.94910	4.45513	2.33586	2.50572	2.42876	2.20468	1.85052	1.49125	1.20347	8.65271	6.35788	4.42393
9670	0.74612	0.77470	0.49654	3.93320	3.60569	3.24981	6.94107	4.45738	2.34246	2.51127	2.43329	2.20911	1.85279	1.49556	1.20980	8.66023	6.36580	4.42969
9830	0.74536	0.77086	0.49301	3.93446	3.60473	3.24841	6.96213	4.45358	2.33544	2.50861	2.43144	2.20684	1.84925	1.49314	1.20494	8.65952	6.36500	4.43123	29.03	6.1	0.00	7.33	0.01273	0.01295	0.01643	0.00790	0.00588	0.00644	0.00471	0.01272	0.01689	0.00683	0.00703	0.00888	0.01495	0.01099	0.01200	0.00221	0.00627	0.00879
9990	0.74427	0.77015	0.49257	3.93427	3.60409	3.24676	6.94637	4.44671	2.33416	2.51064	2.43080	2.20679	1.84844	1.48855	1.20315	8.65419	6.36396	4.42934
10160	0.74316	0.77126	0.49260	3.93281	3.60437	3.24750	6.92991	4.45282	2.33236	2.51131	2.43237	2.20717	1.84818	1.49019	1.20531	8.66118	6.36715	4.43077
10320	0.74368	0.77047	0.49109	3.93560	3.60675	3.25007	6.93935	4.45356	2.33321	2.51270	2.43452	2.20839	1.84975	1.48969	1.20229	8.65926	6.36829	4.43131
10490	0.74432	0.77227	0.49284	3.93588	3.60513	3.24890	6.94815	4.44769	2.33246	2.51067	2.43375	2.20841	1.84966	1.49309	1.20683	8.66958	6.37210	4.43621
10650	0.74610	0.77290	0.49342	3.93791	3.60860	3.25180	6.95190	4.45097	2.33530	2.51254	2.43494	2.20942	1.84690	1.49312	1.20618	8.65987	6.36887	4.43233
10810	0.74734	0.77847	0.49933	3.93805	3.61002	3.25266	6.95550	4.45574	2.34152	2.51482	2.43553	2.21054	1.85253	1.49471	1.20643	8.66573	6.37162	4.43439
10980	0.74976	0.77355	0.49616	3.93701	3.60745	3.25022	6.93360	4.45014	2.33435	2.51252	2.43494	2.20905	1.85448	1.49211	1.20874	8.67002	6.37566	4.43858
11140	0.74927	0.77803	0.49754	3.94178	3.61257	3.25552	6.95669	4.45857	2.34005	2.51674	2.43765	2.21338	1.85228	1.49406	1.20650	8.67098	6.37583	4.43797
11300	0.75688	0.78197	0.50443	3.93979	3.60921	3.25203	6.95418	4.45945	2.34592	2.51445	2.43489	2.21147	1.85535	1.49817	1.21076	8.66555	6.37232	4.43363
11470	0.75270	0.77769	0.50093	3.93640	3.60654	3.24915	6.95087	4.45271	2.33616	2.51366	2.43322	2.20971	1.85046	1.49337	1.20750	8.66487	6.37155	4.43142	29.03	6.2	0.00	6.79	0.01273	0.01295	0.01643	0.00790	0.00588	0.00645	0.00471	0.01272	0.01689	0.00683	0.00703	0.00888	0.01495	0.01099	0.01200	0.00221	0.00627	0.00879
11630	0.75989	0.78835	0.51049	3.93479	3.60571	3.24833	6.97349	4.46715	2.35502	2.51387	2.43366	2.20933	1.87054	1.50829	1.22089	8.66583	6.37329	4.43431
11790	0.76392	0.78928	0.51059	3.93861	3.60945	3.25268	6.97299	4.46585	2.34974	2.51664	2.43692	2.21172	1.86156	1.50111	1.21259	8.66207	6.36968	4.43210
11960	0.75875	0.78149	0.50527	3.93617	3.60641	3.25086	6.95617	4.45797	2.34319	2.51386	2.43389	2.21053	1.85589	1.49678	1.21287	8.66408	6.37225	4.43466
12120	0.75627	0.77698	0.50106	3.93882	3.60905	3.25413	6.94763	4.45434	2.34090	2.51712	2.43666	2.21232	1.85278	1.49084	1.20498	8.66793	6.37099	4.43281
12290	0.74838	0.77225	0.49543	3.93603	3.60688	3.25029	6.93623	4.44838	2.33277	2.51376	2.43351	2.20939	1.85122	1.49104	1.20908	8.66916	6.37515	4.43921
12450	0.74954	0.77501	0.49547	3.94264	3.61206	3.25597	6.94370	4.45328	2.33404	2.51824	2.43766	2.21370	1.84725	1.48472	1.19992	8.66916	6.37084	4.43503
12610	0.74537	0.77224	0.49471	3.94107	3.61115	3.25663	6.93965	4.45193	2.33550	2.52033	2.43693	2.21450	1.84963	1.48572	1.20178	8.66566	6.37355	4.43824
12780	0.74187	0.77012	0.48903	3.93922	3.60809	3.25307	6.91946	4.44824	2.33079	2.51654	2.43502	2.21178	1.84187	1.48375	1.19971	8.66539	6.37019	4.43484
12940	0.74347	0.77014	0.49283	3.94296	3.61342	3.25938	6.94357	4.45225	2.33548	2.52156	2.44008	2.21641	1.84881	1.48598	1.20652	8.67292	6.37774	4.44122
13100	0.74316	0.76718	0.49055	3.94324	3.61221	3.25756	6.94390	4.44952	2.33145	2.51936	2.43687	2.21410	1.84562	1.48318	1.20351	8.66980	6.37776	4.44027	28.98	6.1	0.00	7.29	0.01273	0.01295	0.01643	0.00790	0.00588	0.00645	0.00471	0.01272	0.01689	0.00683	0.00703	0.00888	0.01495	0.01099	0.01200	0.00221	0.00627	0.00879
13270	0.74005	0.76609	0.48841	3.94151	3.61291	3.25693	6.93496	4.44757	2.33172	2.52008	2.43674	2.21453	1.84621	1.48380	1.20026	8.66823	6.37658	4.43813
13430	0.74137	0.76624	0.48909	3.94008	3.60973	3.25451	6.93400	4.44343	2.32738	2.51793	2.43452	2.21290	1.84280	1.48238	1.20378	8.67400	6.37718	4.44077
13590	0.74701	0.77414	0.49767	3.94318	3.61329	3.25830	6.94705	4.45134	2.33557	2.51922	2.43715	2.21456	1.84857	1.48954	1.20494	8.67558	6.37617	4.44013
13760	0.74694	0.77005	0.49498	3.94202	3.61162	3.25665	6.95070	4.44802	2.33092	2.51902	2.43658	2.21262	1.84926	1.48662	1.20872	8.67812	6.37934	4.44303
13920	0.75837	0.78011	0.50764	3.94525	3.61567	3.25911	6.94258	4.45566	2.34397	2.51969	2.43723	2.21404	1.85386	1.49456	1.20915	8.67138	6.37614	4.44004
14090	0.75763	0.78062	0.50506	3.94673	3.61816	3.26002	6.94878	4.45168	2.34215	2.52213	2.43993	2.21557	1.85174	1.49086	1.20626	8.67138	6.37897	4.44142
14250	0.75136	0.77405	0.49886	3.94507	3.61484	3.25860	6.93218	4.44759	2.34000	2.51856	2.43913	2.21301	1.86435	1.50502	1.22152	8.67077	6.37830	4.44062
14420	0.77167	0.78839	0.51626	3.94391	3.61584	3.25847	6.97346	4.46185	2.35023	2.51876	2.43831	2.21261	1.85824	1.49763	1.21499	8.67453	6.37534	4.43794
14580	0.76405	0.78167	0.50530	3.94083	3.61247	3.25455	6.95599	4.44914	2.33518	2.51363	2.43451	2.20882	1.85273	1.49004	1.21058	8.67129	6.37675	4.43981
14750	0.75621	0.77536	0.50223	3.94485	3.61613	3.25826	6.94274	4.44819	2.33362	2.51541	2.43722	2.21066	1.85300	1.49090	1.20786	8.67595	6.38330	4.44516	29.03	6.1	0.00	7.32	0.01273	0.01295	0.01643	0.00790	0.00588	0.00645	0.00471	0.01272	0.01689	0.00683	0.00703	0.00888	0.01495	0.01099	0.01200	0.00221	0.00627	0.00879
14910	0.75238	0.77436	0.50044	3.94962	3.61993	3.26243	6.94292	4.45402	2.33528	2.51934	2.43954	2.21477	1.85059	1.48868	1.20673	8.67656	6.38117	4.44356
15070	0.74713	0.77263	0.49700	3.94626	3.61886	3.26211	6.94187	4.45260	2.33675	2.51968	2.43887	2.21389	1.84876	1.48772	1.20348	8.67455	6.38149	4.44215
15240	0.74402	0.76871	0.49246	3.94588	3.61587	3.25710	6.93913	4.44733	2.33261	2.51653	2.43509	2.21066	1.84734	1.48415	1.20088	8.67569	6.38040	4.44088
15400	0.74413	0.76851	0.48961	3.94415	3.61398	3.25676	6.92523	4.44345	2.32888	2.51536	2.43580	2.20974	1.84105	1.48046	1.19767	8.67157	6.37784	4.43917
15560	0.73798	0.76691	0.48860	3.94319	3.61334	3.25598	6.94607	4.44364	2.33079	2.51431	2.43425	2.20904	1.84468	1.48079	1.19995	8.67017	6.37699	4.43820
15730	0.74502	0.77203	0.49622	3.94617	3.61744	3.26070	6.94748	4.44708	2.33353	2.51885	2.43732	2.21329	1.84667	1.48645	1.20046	8.67945	6.38263	4.44363
15890	0.74275	0.76865	0.49251	3.94491	3.61453	3.25776	6.93457	4.44888	2.33418	2.51599	2.43345	2.20979	1.84589	1.48635	1.20070	8.67122	6.37820	4.44056
16050	0.74794	0.77177	0.49848	3.94628	3.61513	3.25999	6.95378	4.45098	2.33578	2.51858	2.43690	2.21301	1.84850	1.48531	1.20370	8.67691	6.38425	4.44532
16220	0.74462	0.76912	0.49324	3.94583	3.61386	3.25806	6.93840	4.44919	2.32982	2.51683	2.43396	2.21021	1.84017	1.48391	1.19749	8.67490	6.38052	4.44138
16380	0.74368	0.77031	0.49377	3.94858	3.61708	3.26243	6.95564	4.45071	2.33372	2.51933	2.43585	2.21279	1.84542	1.48369	1.20035	8.68122	6.38659	4.44585	29.03	6.2	0.00	7.45	0.01273	0.01295	0.01643	0.00790	0.00588	0.00645	0.00471	0.01272	0.01689	0.00683	0.00703	0.00888	0.01495	0.01099	0.01200	0.00221	0.00627	0.00879
16540	0.73971	0.76653	0.49002	3.94803	3.61392	3.25884	6.93648	4.44263	2.32813	2.51711	2.43433	2.21061	1.83809	1.48139	1.19878	8.67632	6.38177	4.44172
16710	0.73418	0.76362	0.48438	3.94346	3.61111	3.25627	6.93835	4.44177	2.32692	2.51590	2.43295	2.20973	1.84854	1.48415	1.20635	8.67825	6.38867	4.44861
16870	0.74459	0.76986	0.49294	3.94915	3.61786	3.26139	6.93753	4.44845	2.33113	2.52013	2.43660	2.21369	1.84140	1.48240	1.20204	8.67693	6.38480	4.44544
17030	0.74362	0.76517	0.49170	3.94808	3.61663	3.26230	6.94569	4.44512	2.33285	2.52015	2.43624	2.21435	1.84530	1.48363	1.20233	8.67956	6.38700	4.44689
17200	0.73946	0.76614	0.49172	3.94749	3.61534	3.26029	6.94368	4.44518	2.33260	2.51999	2.43509	2.21216	1.84520	1.48303	1.20429	8.67273	6.38320	4.44368
17360	0.74556	0.77229	0.49485	3.94857	3.61674	3.26365	6.95304	4.44836	2.33575	2.52407	2.43740	2.21621	1.84452	1.48701	1.20382	8.67877	6.38579	4.44619
17520	0.74300	0.76765	0.49273	3.94585	3.61406	3.26078	6.93931	4.44577	2.33153	2.52129	2.43488	2.21431	1.84554	1.48051	1.20316	8.67921	6.38327	4.44428
17690	0.74504	0.77213	0.49954	3.94969	3.61771	3.26447	6.95140	4.45424	2.33746	2.52648	2.43990	2.21787	1.85117	1.48774	1.20971	8.67982	6.38751	4.44849
17850	0.74810	0.77115	0.49519	3.94831	3.61549	3.26129	6.94058	4.44807	2.33210	2.52352	2.43662	2.21516	1.84484	1.48462	1.20144	8.67676	6.38131	4.44470
18010	0.74706	0.77121	0.49553	3.94996	3.61881	3.26601	6.94354	4.45211	2.33701	2.52708	2.44026	2.21804	1.84606	1.48683	1.20249	8.68453	6.38646	4.44853	29.03	6.2	0.00	7.32	0.01273	0.01295	0.01643	0.00790	0.00588	0.00645	0.00471	0.01272	0.01689	0.00683	0.00703	0.00888	0.01495	0.01099	0.01200	0.00221	0.00627	0.00879
18180	0.74350	0.76886	0.49294	3.94949	3.61671	3.26365	6.93948	4.44678	2.33339	2.52551	2.43796	2.21685	1.84600	1.48696	1.20320	8.67778	6.38494	4.44822
18340	0.74144	0.76914	0.49170	3.95057	3.61803	3.26541	6.93724	4.44604	2.33393	2.52628	2.43865	2.21858	1.84556	1.48616	1.20248	8.67848	6.38438	4.44883
18500	0.74071	0.76555	0.49003	3.94984	3.61735	3.26520	6.94545	4.44618	2.33140	2.52597	2.43832	2.21789	1.84278	1.48062	1.20011	8.67752	6.38463	4.44885
18660	0.73687	0.76507	0.48858	3.95096	3.61820	3.26472	6.93715	4.43964	2.32844	2.52529	2.43894	2.21783	1.84926	1.48665	1.20716	8.68575	6.39383	4.45623
18830	0.74533	0.77095	0.49296	3.95967	3.62535	3.27302	6.93834	4.44968	2.33522	2.53143	2.44469	2.22208	1.85078	1.48564	1.20925	8.68672	6.39564	4.45667
18990	0.74389	0.77062	0.49304	3.95794	3.62356	3.27127	6.94089	4.44452	2.33224	2.52913	2.44369	2.22067	1.85004	1.48907	1.20926	8.69163	6.39950	4.46012
19150	0.74547	0.77166	0.49473	3.96391	3.62819	3.27645	6.94513	4.44922	2.33493	2.53399	2.44637	2.22456	1.84895	1.48912	1.20779	8.69110	6.39966	4.46027
19320	0.74709	0.77175	0.49579	3.96063	3.62412	3.27414	6.92963	4.44471	2.33479	2.53094	2.44491	2.22287	1.84901	1.48990	1.20888	8.69645	6.40136	4.46236
19480	0.74626	0.77160	0.49705	3.96382	3.62692	3.27704	6.93492	4.45167	2.33591	2.53389	2.44746	2.22459	1.84956	1.48943	1.20318	8.69207	6.40049	4.46097
19640	0.74379	0.76953	0.49105	3.95917	3.62397	3.27244	6.93520	4.44698	2.33131	2.53210	2.44477	2.22228	1.84669	1.48285	1.20190	8.68586	6.39588	4.45816	29.03	6.0	0.00	7.34	0.01273	0.01295	0.01643	0.00790	0.00588	0.00645	0.00471	0.01272	0.01689	0.00683	0.00703	0.00888	0.01495	0.01099	0.01200	0.00221	0.00627	0.00879
19810	0.74418	0.77018	0.49535	3.96406	3.62920	3.27874	6.94916	4.44972	2.33757	2.53806	2.44859	2.22776	1.85093	1.48911	1.20731	8.69463	6.40589	4.46434
19970	0.74283	0.76757	0.49124	3.96322	3.62689	3.27559	6.93128	4.44760	2.33359	2.53531	2.44605	2.22543	1.84631	1.48670	1.20359	8.68603	6.40189	4.46058
20130	0.74327	0.76976	0.48959	3.96441	3.62901	3.27790	6.93698	4.45198	2.33525	2.53748	2.44805	2.22773	1.84681	1.48728	1.20215	8.69173	6.40514	4.46351
20300	0.74093	0.76569	0.48756	3.96262	3.62685	3.27477	6.93392	4.44674	2.32906	2.53582	2.44473	2.22600	1.84334	1.48366	1.20100	8.68726	6.40102	4.45967
20460	0.74091	0.76487	0.48917	3.96339	3.62780	3.27736	6.93069	4.44966	2.33275	2.53876	2.44794	2.22823	1.84696	1.48560	1.20309	8.68963	6.40388	4.46194
20620	0.73998	0.76612	0.48915	3.96176	3.62696	3.27645	6.93442	4.44631	2.33114	2.53614	2.44733	2.22679	1.84778	1.48401	1.20412	8.69235	6.40397	4.46108
20790	0.74608	0.77355	0.49490	3.96434	3.62957	3.27716	6.94053	4.45004	2.33540	2.53773	2.44754	2.22789	1.85297	1.48939	1.20591	8.69744	6.40591	4.46250
20950	0.74698	0.77255	0.49463	3.96246	3.62658	3.27607	6.94103	4.44876	2.33335	2.53585	2.44659	2.22580	1.84848	1.48427	1.20154	8.69077	6.40271	4.46080
21110	0.74999	0.77654	0.50383	3.96491	3.62814	3.27888	6.94391	4.45351	2.34318	2.53812	2.44611	2.22745	1.85631	1.49261	1.21150	8.69270	6.40451	4.46244
21280	0.75346	0.77678	0.50182	3.96121	3.62512	3.27401	6.94071	4.44613	2.33644	2.53442	2.44415	2.22517	1.85138	1.48665	1.20597	8.68737	6.40137	4.45851	29.09	6.0	0.00	7.33	0.01273	0.01295	0.01643	0.00790	0.00588	0.00644	0.00471	0.01272	0.01689	0.00683	0.00703	0.00888	0.01495	0.01099	0.01200	0.00221	0.00627	0.00879
21440	0.74958	0.78090	0.51570	3.96283	3.62737	3.27654	6.97114	4.47050	2.36216	2.53699	2.44671	2.22711	1.87547	1.51366	1.22447	8.69211	6.40314	4.46079
21600	0.77008	0.79148	0.51549	3.96076	3.62586	3.27446	6.96629	4.46709	2.35184	2.53562	2.44462	2.22527	1.86441	1.50327	1.21827	8.68685	6.39999	4.45912
21770	0.78136	0.81217	0.54190	3.96233	3.62851	3.27784	7.01176	4.51427	2.40114	2.53870	2.44706	2.22808	1.90768	1.54554	1.25566	8.69316	6.40433	4.46118
21930	0.79447	0.81286	0.53560	3.96100	3.62495	3.27457	7.00156	4.52559	2.42532	2.53415	2.44319	2.22584	1.93798	1.57071	1.27797	8.68702	6.39919	4.45617
22090	0.81558	0.83074	0.55538	3.96044	3.62667	3.27546	7.07485	4.55969	2.43241	2.53646	2.44504	2.22657	1.93763	1.56962	1.27615	8.68834	6.40101	4.45863
22260	0.81148	0.83023	0.54992	3.95819	3.62406	3.27149	7.05014	4.53822	2.41561	2.53261	2.44154	2.22240	1.92629	1.55934	1.26757	8.68641	6.40018	4.45693
22420	0.80511	0.82759	0.54545	3.95717	3.62340	3.27045	7.02803	4.51546	2.40242	2.53240	2.44241	2.22297	1.90706	1.54641	1.25407	8.68562	6.39924	4.45595
22580	0.79585	0.81681	0.53454	3.95787	3.62306	3.26965	7.00974	4.49758	2.38032	2.53035	2.44015	2.22005	1.89462	1.53267	1.24224	8.68527	6.40185	4.45762
22750	0.78432	0.80519	0.52754	3.95714	3.62425	3.26970	7.03775	4.53366	2.41431	2.52994	2.44051	2.21989	1.92383	1.55885	1.26856	8.68869	6.39798	4.45527
22910	0.80864	0.82159	0.54636	3.95492	3.62119	3.26510	7.05066	4.53530	2.41827	2.52709	2.43846	2.21687	1.92655	1.55953	1.26775	8.68096	6.39860	4.45547	29.03	6.1	0.00	7.30	0.01273	0.01295	0.01642	0.00790	0.00588	0.00644	0.00471	0.01272	0.01689	0.00683	0.00703	0.00888	0.01495	0.01099	0.01200	0.00221	0.00627	0.00879
23070	0.80847	0.82105	0.54653	3.95608	3.62301	3.26608	7.01544	4.49694	2.38660	2.52812	2.43894	2.21711	1.89658	1.53445	1.24544	8.68245	6.39487	4.45188
23240	0.78658	0.80442	0.53014	3.95263	3.62064	3.26344	7.02979	4.49830	2.38246	2.52361	2.43723	2.21433	1.90110	1.53833	1.25608	8.68982	6.40003	4.45626
23400	0.79665	0.81233	0.54044	3.95560	3.62374	3.26667	7.02956	4.51251	2.39573	2.52686	2.43795	2.21707	1.90157	1.53568	1.24778	8.68736	6.39649	4.45243
23570	0.79508	0.80823	0.53817	3.95299	3.62208	3.26398	7.01415	4.49299	2.38456	2.52594	2.43589	2.21457	1.88947	1.52526	1.23723	8.68438	6.39625	4.45066
23730	0.78609	0.79982	0.52832	3.94979	3.61671	3.25917	6.98845	4.47655	2.36599	2.52083	2.43291	2.21084	1.87497	1.51303	1.22503	8.67702	6.38889	4.44595
23890	0.77580	0.79180	0.52030	3.94784	3.61708	3.25938	6.96067	4.47192	2.35697	2.52156	2.43301	2.21120	1.86262	1.50464	1.21889	8.68096	6.38991	4.44610
24060	0.76615	0.78270	0.51065	3.94612	3.61536	3.25628	6.96913	4.46183	2.34755	2.51925	2.43022	2.20730	1.85890	1.49435	1.21169	8.67658	6.38610	4.44305
24220	0.76003	0.77956	0.50539	3.94609	3.61569	3.25658	6.95313	4.46256	2.34537	2.51869	2.43047	2.20824	1.85781	1.49724	1.21378	8.67824	6.38831	4.44404
24380	0.75405	0.77877	0.50091	3.94368	3.61291	3.25376	6.94705	4.46018	2.34171	2.51683	2.42772	2.20587	1.85223	1.49195	1.21100	8.67167	6.38380	4.44084
24550	0.74994	0.77427	0.50001	3.94319	3.61178	3.25375	6.94325	4.45635	2.34424	2.51757	2.42891	2.20602	1.85783	1.49254	1.20988	8.67866	6.38708	4.44274	28.98	6.1	0.00	7.28	0.01273	0.01295	0.01642	0.00790	0.00588	0.00644	0.00471	0.01272	0.01689	0.00683	0.00702	0.00888	0.01495	0.01099	0.01200	0.00221	0.00627	0.00879
24710	0.74852	0.77225	0.49376	3.94042	3.60915	3.25095	6.94846	4.45895	2.34098	2.51427	2.42530	2.20304	1.85279	1.49227	1.20658	8.67551	6.38170	4.43937
24870	0.74890	0.77499	0.49476	3.94128	3.60974	3.25174	6.95732	4.45979	2.34347	2.51635	2.42563	2.20464	1.85693	1.49391	1.20926	8.67489	6.38383	4.44052
25040	0.74809	0.77389	0.49421	3.93859	3.60630	3.24666	6.94604	4.46065	2.34119	2.51232	2.42259	2.20024	1.85229	1.49131	1.20795	8.67437	6.37800	4.43453
25200	0.74857	0.77335	0.49682	3.93766	3.60656	3.24785	6.95129	4.46349	2.34249	2.51282	2.42240	2.19996	1.85709	1.49443	1.21163	8.67586	6.38006	4.43630
25360	0.74989	0.77460	0.49622	3.93267	3.60093	3.24273	6.94672	4.46072	2.34041	2.50975	2.41900	2.19815	1.85452	1.49273	1.20804	8.66631	6.37481	4.43010
25530	0.74800	0.77511	0.49634	3.93319	3.60254	3.24503	6.96225	4.46327	2.34441	2.51110	2.41978	2.19989	1.85677	1.49645	1.20919	8.67174	6.37713	4.43323
25690	0.74873	0.77127	0.49444	3.93100	3.59801	3.24182	6.96724	4.46249	2.34162	2.50718	2.41748	2.19693	1.85534	1.49380	1.20846	8.66500	6.37287	4.42959
25850	0.74766	0.77271	0.49331	3.92793	3.59625	3.23939	6.95480	4.46269	2.34021	2.50507	2.41593	2.19502	1.85518	1.49779	1.21328	8.67078	6.37894	4.43451
26020	0.75361	0.77572	0.49700	3.93333	3.60229	3.24347	6.96139	4.46653	2.34602	2.50888	2.41895	2.19832	1.85900	1.49873	1.21170	8.67603	6.37800	4.43311
26180	0.75209	0.77412	0.49602	3.93274	3.60128	3.24431	6.95693	4.46733	2.34580	2.50936	2.41879	2.19887	1.85801	1.49489	1.21123	8.67014	6.37425	4.43188	29.03	6.1	0.00	7.31	0.01273	0.01295	0.01642	0.00790	0.00588	0.00644	0.00471	0.01272	0.01689	0.00683	0.00702	0.00888	0.01495	0.01099	0.01200	0.00221	0.00627	0.00879
26340	0.75007	0.77456	0.49494	3.93037	3.59760	3.24035	6.95218	4.46378	2.34443	2.50618	2.41440	2.19575	1.85817	1.49770	1.21485	8.66830	6.37553	4.43207
26510	0.75387	0.77572	0.49660	3.93271	3.60062	3.24318	6.97142	4.46462	2.34514	2.50824	2.41822	2.19784	1.85736	1.49583	1.20893	8.66812	6.37434	4.43013
26670	0.75157	0.77443	0.49460	3.92799	3.59601	3.23880	6.95263	4.46210	2.34148	2.50505	2.41476	2.19489	1.85833	1.49449	1.21153	8.67119	6.37565	4.43242
26830	0.75429	0.77580	0.49745	3.93059	3.59960	3.24356	6.95446	4.47010	2.34447	2.50787	2.41570	2.19720	1.85891	1.49414	1.21203	8.66830	6.37248	4.42923
27000	0.75007	0.77470	0.49506	3.92867	3.59722	3.24092	6.96223	4.46269	2.34364	2.50611	2.41376	2.19521	1.85952	1.49700	1.21237	8.67417	6.37742	4.43333
27160	0.75529	0.77946	0.49920	3.93227	3.60117	3.24366	6.96095	4.47087	2.34831	2.50821	2.41534	2.19727	1.85847	1.49697	1.21089	8.66690	6.37475	4.43031
27330	0.75041	0.77650	0.49530	3.92893	3.59635	3.23796	6.96122	4.46567	2.34135	2.50498	2.41185	2.19439	1.85693	1.49557	1.21195	8.67294	6.37696	4.43253
27490	0.75170	0.77968	0.49760	3.93232	3.59962	3.24222	6.95999	4.46984	2.34687	2.50785	2.41521	2.19652	1.85737	1.49546	1.20791	8.66672	6.37260	4.42901
27650	0.75237	0.77723	0.49781	3.93156	3.59885	3.24318	6.95912	4.46927	2.34835	2.50887	2.41543	2.19842	1.85959	1.49602	1.21014	8.66987	6.37478	4.43046
27820	0.75164	0.77653	0.49518	3.93050	3.59860	3.24110	6.96772	4.46409	2.34509	2.50753	2.41443	2.19608	1.85899	1.49318	1.21031	8.66925	6.37207	4.42949	29.03	6.0	0.00	7.29	0.01273	0.01295	0.01642	0.00790	0.00588	0.00644	0.00471	0.01271	0.01689	0.00683	0.00702	0.00888	0.01495	0.01098	0.01200	0.00221	0.00627	0.00879
27980	0.75162	0.77805	0.49918	3.93236	3.60013	3.24346	6.97033	4.46997	2.34877	2.51001	2.41580	2.19849	1.86091	1.49865	1.21144	8.67468	6.37655	4.43215
28140	0.75127	0.77677	0.49591	3.93126	3.59848	3.24054	6.97244	4.46620	2.34393	2.50802	2.41349	2.19627	1.85726	1.49436	1.20809	8.66882	6.37326	4.42946
28310	0.75228	0.77896	0.49935	3.93370	3.60190	3.24485	6.96763	4.47158	2.34961	2.51139	2.41685	2.19944	1.86138	1.49992	1.21390	8.67057	6.37853	4.43451
28470	0.75277	0.77634	0.49530	3.93258	3.59788	3.24219	6.97015	4.46616	2.34485	2.50874	2.41242	2.19695	1.85653	1.49390	1.20800	8.66995	6.37473	4.43087
28630	0.75231	0.77885	0.49708	3.93328	3.60117	3.24471	6.96855	4.46849	2.34810	2.51007	2.41447	2.19843	1.85827	1.49737	1.21303	8.67276	6.37602	4.43328
28800	0.75170	0.77542	0.49816	3.93206	3.59884	3.24283	6.95990	4.46511	2.34348	2.50839	2.41231	2.19698	1.85583	1.49584	1.20923	8.66987	6.37302	4.43029
28960	0.74940	0.77567	0.49213	3.92943	3.59563	3.23927	6.95716	4.46251	2.34151	2.50747	2.41120	2.19477	1.85914	1.49853	1.21465	8.67346	6.37771	4.43665
29120	0.75419	0.78067	0.49592	3.93499	3.60075	3.24459	6.96676	4.46535	2.34550	2.51153	2.41518	2.19887	1.85944	1.49662	1.21261	8.67547	6.37756	4.43102
29290	0.75269	0.78033	0.49749	3.93469	3.60132	3.24464	6.96960	4.47183	2.34683	2.51178	2.41547	2.19995	1.86062	1.49899	1.21235	8.67836	6.37802	4.43423
29450	0.75137	0.78005	0.49521	3.93335	3.59984	3.24534	6.95556	4.46771	2.34462	2.51010	2.41413	2.19814	1.86034	1.49600	1.21240	8.67653	6.37624	4.43164	29.03	6.0	0.00	7.43	0.01273	0.01295	0.01642	0.00790	0.00588	0.00644	0.00471	0.01271	0.01688	0.00683	0.00702	0.00888	0.01494	0.01098	0.01200	0.00221	0.00627	0.00879
29610	0.74948	0.78068	0.49671	3.93543	3.60273	3.24669	6.94916	4.46667	2.34819	2.51176	2.41653	2.19976	1.85975	1.49822	1.21379	8.67679	6.37934	4.43531
29780	0.74989	0.77942	0.49521	3.93501	3.60135	3.24581	6.96479	4.46746	2.34724	2.51007	2.41510	2.19815	1.86222	1.50094	1.21319	8.68442	6.38248	4.43957
29940	0.75169	0.78279	0.49856	3.93764	3.60390	3.24762	6.95556	4.47233	2.34997	2.51277	2.41777	2.20031	1.86092	1.50019	1.21440	8.68547	6.38306	4.43913
30100	0.75011	0.77890	0.49459	3.93689	3.60241	3.24663	6.96214	4.46846	2.34709	2.51024	2.41526	2.19869	1.85988	1.49737	1.21394	8.68109	6.38418	4.44048
30270	0.75292	0.77977	0.49586	3.93907	3.60515	3.24811	6.96091	4.46949	2.34925	2.51205	2.41862	2.20083	1.85915	1.49780	1.21317	8.68275	6.38430	4.43932
30430	0.75091	0.78172	0.49403	3.93726	3.60244	3.24628	6.96868	4.47162	2.34576	2.51027	2.41697	2.19923	1.86053	1.49911	1.21380	8.68275	6.38662	4.44233
30590	0.75311	0.78161	0.49631	3.94028	3.60511	3.24869	6.97166	4.47111	2.34850	2.51184	2.42017	2.20109	1.86085	1.49839	1.21303	8.68293	6.38439	4.44120
30760	0.75125	0.78062	0.49480	3.93936	3.60244	3.24790	6.96068	4.46811	2.34556	2.51103	2.41837	2.20096	1.86315	1.50315	1.21814	8.68898	6.38766	4.44374
30920	0.75310	0.78261	0.49621	3.94209	3.60603	3.25108	6.96137	4.47226	2.35098	2.51364	2.42152	2.20288	1.86324	1.50264	1.21417	8.68240	6.38522	4.44287
31090	0.75065	0.78062	0.49449	3.94047	3.60535	3.25055	6.96245	4.47456	2.34819	2.51224	2.42115	2.20206	1.86231	1.50223	1.21521	8.68549	6.38439	4.44259	29.03	6.1	0.00	7.28	0.01273	0.01295	0.01642	0.00790	0.00588	0.00644	0.00471	0.01271	0.01688	0.00683	0.00702	0.00888	0.01494	0.01098	0.01200	0.00221	0.00627	0.00879
31250	0.75200	0.78063	0.49404	3.94072	3.60573	3.25161	6.96712	4.47342	2.35002	2.51289	2.42102	2.20184	1.86072	1.50016	1.21232	8.68418	6.38446	4.44267
31410	0.75110	0.78339	0.49768	3.94255	3.60832	3.25321	6.97668	4.47385	2.35265	2.51504	2.42522	2.20447	1.86708	1.50331	1.21624	8.68181	6.38623	4.44444
31580	0.75170	0.78332	0.49587	3.94128	3.60567	3.25129	6.96918	4.47110	2.35041	2.51391	2.42368	2.20300	1.86600	1.50171	1.21936	8.68567	6.38553	4.44444
31740	0.75224	0.78323	0.49682	3.94184	3.60605	3.25162	6.95436	4.47076	2.35049	2.51381	2.42473	2.20406	1.86307	1.50161	1.21699	8.68313	6.38204	4.44141
31910	0.75266	0.78439	0.49520	3.93872	3.60530	3.24965	6.96570	4.46936	2.34821	2.51250	2.42331	2.20133	1.86727	1.50289	1.22180	8.68488	6.38560	4.44539
32070	0.75553	0.78533	0.49649	3.94380	3.60760	3.25334	6.96835	4.47948	2.35200	2.51606	2.42647	2.20528	1.86696	1.50072	1.21837	8.68208	6.38008	4.44140
32230	0.75508	0.78637	0.49865	3.94235	3.60807	3.25462	6.96552	4.47791	2.35455	2.51696	2.42589	2.20644	1.86596	1.50096	1.22135	8.68392	6.38197	4.44263
32400	0.75538	0.78453	0.49734	3.93933	3.60498	3.24999	6.97563	4.47546	2.35253	2.51427	2.42429	2.20360	1.86730	1.50421	1.21860	8.68015	6.38093	4.44207
32560	0.75527	0.78583	0.49801	3.94058	3.60509	3.25180	6.97810	4.47627	2.35335	2.51700	2.42704	2.20497	1.86589	1.50089	1.21728	8.68357	6.38057	4.44069
32730	0.75326	0.78405	0.49739	3.93932	3.60435	3.24984	6.97573	4.47503	2.35015	2.51498	2.42468	2.20386	1.86812	1.50344	1.21866	8.68048	6.38227	4.44417	29.03	6.1	0.00	7.27	0.01273	0.01295	0.01642	0.00790	0.00588	0.00644	0.00471	0.01271	0.01688	0.00683	0.00702	0.00888	0.01494	0.01098	0.01200	0.00221	0.00627	0.00879
32890	0.75608	0.78758	0.49887	3.94302	3.60972	3.25348	6.96836	4.48075	2.35607	2.51890	2.42989	2.20761	1.86583	1.50215	1.21610	8.67750	6.37898	4.44022
33060	0.75583	0.78773	0.49877	3.94321	3.61095	3.25405	6.97166	4.47737	2.35666	2.52031	2.42942	2.20927	1.86632	1.50230	1.21754	8.67715	6.38102	4.44202
33220	0.75435	0.78543	0.49739	3.94196	3.60756	3.25283	6.97106	4.47494	2.35260	2.51707	2.42821	2.20612	1.86653	1.49973	1.21328	8.67601	6.37852	4.43872
33380	0.75293	0.78281	0.49769	3.93979	3.60709	3.25079	6.95588	4.47431	2.35151	2.51697	2.42778	2.20639	1.86236	1.49494	1.21647	8.66620	6.37647	4.43811
33550	0.75070	0.78559	0.49985	3.93927	3.60868	3.25463	6.95652	4.47780	2.35472	2.52060	2.43158	2.21033	1.86672	1.50056	1.21628	8.67584	6.38242	4.44285
33710	0.75507	0.78567	0.49530	3.94085	3.60773	3.25209	6.94478	4.47184	2.35128	2.51873	2.42689	2.20694	1.86232	1.49955	1.21493	8.67041	6.37668	4.43913
33870	0.75049	0.78447	0.49722	3.93940	3.61044	3.25496	6.96873	4.47994	2.35678	2.52178	2.43189	2.21136	1.86754	1.50395	1.21888	8.68180	6.38436	4.44472
34040	0.75489	0.78292	0.49679	3.94260	3.60991	3.25386	6.95670	4.47392	2.35277	2.51935	2.42905	2.20807	1.86703	1.50094	1.21710	8.68039	6.38271	4.44459
34200	0.75415	0.78325	0.49902	3.94468	3.61151	3.25470	6.95569	4.47331	2.35317	2.51970	2.42979	2.20973	1.86623	1.49987	1.21695	8.67373	6.38017	4.44205
34360	0.75138	0.78126	0.49413	3.94099	3.60845	3.25283	6.96338	4.47295	2.34998	2.51840	2.42617	2.20722	1.86374	1.50377	1.21901	8.67122	6.38037	4.44326	29.03	6.1	0.00	7.32	0.01272	0.01294	0.01642	0.00790	0.00588	0.00644	0.00471	0.01271	0.01688	0.00683	0.00702	0.00888	0.01494	0.01098	0.01200	0.00221	0.00627	0.00879
34530	0.75499	0.78258	0.49830	3.94277	3.60847	3.25286	6.95365	4.47393	2.35308	2.51824	2.42675	2.20787	1.86514	1.49879	1.21591	8.67253	6.37802	4.44055
34690	0.75004	0.78241	0.49539	3.94009	3.60749	3.25001	6.96631	4.47028	2.35027	2.51686	2.42524	2.20607	1.86472	1.49935	1.22119	8.67402	6.38146	4.44329
34860	0.75433	0.78286	0.49581	3.94220	3.61000	3.25313	6.96142	4.47091	2.35036	2.51768	2.42756	2.20759	1.86232	1.49631	1.21623	8.67560	6.37928	4.44134
35020	0.75149	0.78525	0.49758	3.94194	3.61019	3.25387	6.96297	4.47305	2.35211	2.51927	2.42820	2.20887	1.86264	1.49994	1.21676	8.67402	6.38153	4.44401
35180	0.75333	0.78175	0.49693	3.94366	3.61193	3.25451	6.96160	4.47363	2.35182	2.51906	2.42865	2.20909	1.86324	1.49844	1.21694	8.67411	6.37993	4.44203
35350	0.75303	0.78526	0.49688	3.94433	3.61293	3.25688	6.95872	4.47491	2.35482	2.52120	2.43059	2.21053	1.86568	1.50033	1.21755	8.67481	6.38291	4.44423
35510	0.75039	0.78158	0.49480	3.94289	3.61144	3.25331	6.95854	4.46894	2.35008	2.51781	2.42852	2.20718	1.86181	1.49819	1.21617	8.67630	6.38255	4.44347
35680	0.75128	0.77962	0.49403	3.94229	3.60981	3.25346	6.96709	4.46763	2.34974	2.51681	2.42740	2.20746	1.86278	1.49441	1.21541	8.67508	6.37916	4.44089
35840	0.74764	0.78149	0.49296	3.93948	3.60683	3.25046	6.97038	4.46331	2.34734	2.51607	2.42516	2.20493	1.86289	1.49884	1.21847	8.67560	6.38061	4.44351
36000	0.75233	0.78195	0.49422	3.94287	3.60813	3.25419	6.95944	4.46915	2.34906	2.51796	2.42695	2.20698	1.86241	1.49623	1.21345	8.67457	6.37782	4.43919	28.98	6.0	0.00	7.35	0.01273	0.01294	0.01642	0.00790	0.00588	0.00644	0.00471	0.01271	0.01688	0.00683	0.00702	0.00888	0.01494	0.01098	0.01200	0.00221	0.00627	0.00879
36170	0.75125	0.77964	0.49588	3.94253	3.60917	3.25594	6.95830	4.47148	2.34989	2.51918	2.42840	2.20848	1.86198	1.49830	1.21511	8.67807	6.38104	4.44133
36330	0.74998	0.78135	0.49507	3.94153	3.60760	3.25360	6.95323	4.46672	2.34834	2.51787	2.42710	2.20790	1.86191	1.49763	1.21490	8.67536	6.37688	4.43937
36490	0.75182	0.78385	0.49633	3.94488	3.61026	3.25645	6.95460	4.47195	2.35163	2.52086	2.42939	2.20989	1.86901	1.50131	1.21767	8.68272	6.38356	4.44320
36660	0.74826	0.78001	0.49307	3.94266	3.60792	3.25324	6.95981	4.46588	2.34804	2.51877	2.42672	2.20675	1.86302	1.49716	1.21487	8.66940	6.37903	4.43993
36820	0.75095	0.78174	0.49335	3.94170	3.60648	3.25279	6.96530	4.46780	2.34745	2.51796	2.42794	2.20688	1.86160	1.49573	1.21616	8.67404	6.37881	4.43988
36990	0.74973	0.77974	0.49540	3.94026	3.60765	3.25532	6.96260	4.46862	2.35028	2.52095	2.42952	2.20913	1.86311	1.49951	1.21647	8.67650	6.38261	4.44285
37150	0.75026	0.78009	0.49452	3.94236	3.60720	3.25421	6.94373	4.46869	2.34870	2.51839	2.42732	2.20803	1.86119	1.49619	1.21526	8.67150	6.38012	4.44042
37310	0.74874	0.78144	0.49574	3.94067	3.60845	3.25644	6.94998	4.47121	2.35130	2.52206	2.43052	2.20993	1.86535	1.49987	1.22001	8.67597	6.38240	4.44273
37480	0.75096	0.78152	0.49306	3.94176	3.60756	3.25345	6.94427	4.46881	2.34853	2.51844	2.42727	2.20679	1.86340	1.49767	1.21574	8.67483	6.38286	4.44339
37640	0.75170	0.78208	0.49457	3.94253	3.60734	3.25393	6.94714	4.47005	2.34874	2.51866	2.42654	2.20670	1.86338	1.49812	1.21599	8.66882	6.38029	4.44143	29.03	6.2	0.00	7.31	0.01273	0.01294	0.01642	0.00790	0.00588	0.00644	0.00471	0.01271	0.01688	0.00683	0.00702	0.00888	0.01494	0.01098	0.01200	0.00221	0.00627	0.00879
37800	0.74922	0.77947	0.49337	3.93903	3.60298	3.25136	6.94600	4.46682	2.34762	2.51639	2.42466	2.20461	1.86410	1.49998	1.21985	8.67014	6.38085	4.44313
37970	0.75315	0.78222	0.49507	3.94138	3.60689	3.25363	6.94861	4.47138	2.35058	2.51906	2.42521	2.20663	1.86460	1.49823	1.21534	8.66532	6.37485	4.43983
38130	0.75097	0.78156	0.49346	3.94060	3.60477	3.25225	6.96209	4.47009	2.34947	2.51889	2.42765	2.20617	1.86490	1.49660	1.21486	8.66532	6.37461	4.43915
38300	0.74992	0.78357	0.49598	3.93914	3.60341	3.25149	6.94705	4.47093	2.34996	2.51716	2.42465	2.20586	1.86438	1.49929	1.21502	8.66348	6.37183	4.43654
38460	0.75431	0.78626	0.49651	3.94132	3.60800	3.25517	6.96955	4.47700	2.35375	2.52082	2.42831	2.20888	1.86993	1.50548	1.22072	8.66733	6.37543	4.44266
38620	0.75496	0.78299	0.49588	3.94034	3.60470	3.25292	6.96497	4.47256	2.35203	2.51837	2.42554	2.20651	1.86671	1.50210	1.21754	8.66550	6.37301	4.44066
38790	0.75338	0.78360	0.49591	3.93826	3.60232	3.25217	6.93847	4.47164	2.35000	2.51702	2.42494	2.20511	1.86478	1.50226	1.21674	8.65771	6.36885	4.43730
38950	0.75161	0.78086	0.49464	3.93541	3.59939	3.24933	6.96072	4.46899	2.34961	2.51549	2.42265	2.20405	1.86416	1.50035	1.21691	8.65692	6.36883	4.43596
39110	0.75005	0.78015	0.49353	3.93535	3.59913	3.24956	6.94472	4.47207	2.35040	2.51531	2.42367	2.20418	1.86243	1.49855	1.21403	8.65561	6.36571	4.43409
39280	0.75059	0.77961	0.49236	3.93317	3.59578	3.24808	6.95304	4.47026	2.34568	2.51358	2.42150	2.20198	1.86060	1.49786	1.21805	8.65909	6.36663	4.43565	29.03	6.1	0.00	7.45	0.01273	0.01294	0.01642	0.00790	0.00588	0.00644	0.00471	0.01271	0.01688	0.00683	0.00702	0.00888	0.01494	0.01098	0.01200	0.00221	0.00627	0.00879
39440	0.75302	0.78153	0.49329	3.93470	3.59746	3.24882	6.95500	4.47416	2.35078	2.51500	2.42301	2.20326	1.86293	1.49834	1.21598	8.65270	6.36455	4.43229
39610	0.74983	0.78168	0.49469	3.93529	3.59794	3.24976	6.94810	4.46875	2.35094	2.51559	2.42356	2.20445	1.86133	1.49778	1.21573	8.65734	6.36351	4.43165
39770	0.74987	0.78030	0.49387	3.93275	3.59539	3.24910	6.95199	4.46665	2.34940	2.51343	2.42121	2.20252	1.86331	1.49615	1.21576	8.65646	6.36129	4.43070
39940	0.75076	0.78053	0.49690	3.93333	3.59773	3.25129	6.95519	4.47499	2.35125	2.51619	2.42253	2.20568	1.86528	1.50254	1.22109	8.65707	6.36644	4.43397
40100	0.75151	0.78230	0.49550	3.93321	3.59476	3.24698	6.95345	4.46794	2.34796	2.51314	2.42007	2.20240	1.86144	1.49849	1.21550	8.65331	6.36068	4.42842
40260	0.74943	0.77892	0.49297	3.92862	3.59157	3.24513	6.94239	4.46722	2.34712	2.51092	2.41664	2.19962	1.85966	1.49390	1.21267	8.64894	6.35713	4.42598
40430	0.74890	0.78074	0.49464	3.92766	3.59250	3.24818	6.96749	4.47261	2.35070	2.51448	2.42037	2.20330	1.86561	1.50036	1.21443	8.65428	6.36163	4.42931
40590	0.74897	0.77953	0.49385	3.92914	3.59131	3.24350	6.95423	4.47166	2.34821	2.51031	2.41732	2.19928	1.85949	1.49741	1.21422	8.65025	6.35368	4.42299
40750	0.74764	0.78004	0.49326	3.92413	3.59080	3.24436	6.96250	4.47317	2.35299	2.51359	2.41952	2.20256	1.86495	1.50413	1.21969	8.65839	6.36276	4.42951
40920	0.75110	0.78069	0.49133	3.92546	3.58532	3.23740	6.94817	4.46657	2.34319	2.50541	2.41108	2.19476	1.86112	1.49496	1.21542	8.64744	6.35347	4.42148	28.98	6.1	0.00	7.31	0.01273	0.01295	0.01642	0.00790	0.00588	0.00644	0.00471	0.01271	0.01688	0.00683	0.00702	0.00888	0.01494	0.01098	0.01200	0.00221	0.00627	0.00879
41080	0.74784	0.77908	0.49003	3.92013	3.58400	3.23646	6.93781	4.46516	2.34566	2.50488	2.41107	2.19460	1.86079	1.49292	1.21257	8.64334	6.35036	4.41711
41240	0.74810	0.77551	0.48828	3.91446	3.57772	3.23080	6.95726	4.46236	2.34093	2.50101	2.40528	2.19139	1.86168	1.49528	1.21421	8.64963	6.35152	4.41899
41410	0.74654	0.77809	0.48957	3.91755	3.58130	3.23340	6.95425	4.46443	2.34507	2.50311	2.40728	2.19218	1.85797	1.49392	1.21232	8.64246	6.34599	4.41460
41570	0.74398	0.77734	0.48900	3.91289	3.57655	3.22885	6.94712	4.46420	2.34187	2.50050	2.40446	2.18937	1.86208	1.49855	1.21818	8.64290	6.35128	4.41848
41740	0.75215	0.78042	0.49249	3.91708	3.58194	3.23327	6.95882	4.46850	2.34750	2.50349	2.40718	2.19272	1.86091	1.49548	1.21364	8.64377	6.34744	4.41400
41900	0.74953	0.77925	0.49453	3.91633	3.58091	3.23192	6.95128	4.46781	2.35083	2.50428	2.40752	2.19286	1.86218	1.49754	1.21780	8.64211	6.34710	4.41448
42060	0.74536	0.77909	0.49147	3.91293	3.57814	3.22807	6.94598	4.46772	2.34489	2.49924	2.40348	2.18910	1.85877	1.49251	1.21215	8.64019	6.34525	4.41133
42230	0.74632	0.77778	0.48988	3.91112	3.57827	3.22686	6.93973	4.46574	2.34751	2.49968	2.40323	2.18935	1.85659	1.49438	1.21318	8.64168	6.34341	4.41031
42390	0.74525	0.77872	0.48819	3.90942	3.57659	3.22608	6.95096	4.46630	2.34828	2.49797	2.40291	2.18921	1.85931	1.49220	1.20991	8.64465	6.34286	4.40878
42550	0.75014	0.78235	0.49444	3.91446	3.58253	3.23151	6.95130	4.47426	2.35223	2.50246	2.40624	2.19160	1.86388	1.49692	1.21749	8.65177	6.34870	4.41432	28.98	6.2	0.00	7.27	0.01273	0.01295	0.01642	0.00790	0.00588	0.00644	0.00471	0.01272	0.01689	0.00683	0.00703	0.00888	0.01495	0.01099	0.01200	0.00221	0.00627	0.00879
42720	0.75066	0.77987	0.49017	3.91307	3.57983	3.22725	6.95400	4.46642	2.34766	2.50051	2.40346	2.18784	1.86363	1.49695	1.21786	8.64024	6.34672	4.41233
42880	0.74602	0.77820	0.49224	3.91176	3.57810	3.22657	6.95660	4.46653	2.34857	2.49775	2.40301	2.18687	1.86082	1.49552	1.21485	8.64382	6.34419	4.40983
43050	0.74783	0.77910	0.49200	3.90957	3.57810	3.22492	6.93866	4.47039	2.34802	2.49589	2.40188	2.18566	1.86304	1.49803	1.21532	8.64600	6.34627	4.41100
43210	0.74776	0.77754	0.49116	3.91155	3.57944	3.22588	6.94765	4.46772	2.34845	2.49589	2.40371	2.18647	1.86045	1.49771	1.21498	8.64268	6.34709	4.41158
43370	0.74864	0.77847	0.49010	3.91057	3.57972	3.22377	6.95706	4.46526	2.34717	2.49477	2.40233	2.18457	1.86045	1.49546	1.21617	8.64495	6.34952	4.41465
43540	0.75105	0.78119	0.49234	3.91291	3.58130	3.22515	6.96588	4.46996	2.35016	2.49603	2.40394	2.18493	1.86567	1.49912	1.21523	8.64801	6.35155	4.41426
43700	0.75096	0.78080	0.49428	3.91491	3.58490	3.22823	6.93774	4.47076	2.35356	2.49610	2.40582	2.18666	1.86582	1.49795	1.21558	8.64513	6.34979	4.41348
43860	0.74973	0.78176	0.49334	3.91289	3.58394	3.22718	6.95994	4.47205	2.34999	2.49447	2.40525	2.18546	1.86401	1.49597	1.21718	8.64731	6.34800	4.41260
44030	0.74861	0.77836	0.49092	3.91211	3.58200	3.22554	6.96318	4.46871	2.35048	2.49253	2.40297	2.18273	1.85891	1.49549	1.21487	8.64233	6.34581	4.40925
44190	0.74598	0.77763	0.49357	3.91301	3.58356	3.22674	6.96380	4.47036	2.35199	2.49363	2.40495	2.18551	1.86503	1.49723	1.21734	8.64603	6.34981	4.41386	29.03	6.1	0.00	7.33	0.01273	0.01295	0.01642	0.00790	0.00588	0.00644	0.00471	0.01272	0.01689	0.00683	0.00703	0.00888	0.01495	0.01099	0.01200	0.00221	0.00627	0.00879
44360	0.74814	0.78017	0.49035	3.91392	3.58277	3.22475	6.95060	4.46704	2.35006	2.49219	2.40508	2.18407	1.86157	1.49441	1.21616	8.64236	6.34650	4.41179
44520	0.74952	0.77964	0.49394	3.91331	3.58505	3.22786	6.96838	4.47472	2.35477	2.49246	2.40690	2.18617	1.86619	1.49965	1.21682	8.64673	6.35027	4.41530
44680	0.74944	0.78100	0.49161	3.91423	3.58418	3.22554	6.95352	4.46973	2.34912	2.49006	2.40327	2.18280	1.86425	1.49552	1.21764	8.64717	6.35019	4.41484
44850	0.74961	0.78010	0.49201	3.91428	3.58449	3.22554	6.96431	4.46981	2.35074	2.49020	2.40469	2.18286	1.86538	1.50003	1.21575	8.64769	6.34848	4.41331
45010	0.74779	0.78195	0.49223	3.91140	3.58177	3.22352	6.94749	4.46510	2.34899	2.48663	2.40171	2.18066	1.86417	1.49844	1.21719	8.64464	6.35140	4.41441
45180	0.74973	0.78318	0.49490	3.91328	3.58364	3.22498	6.95215	4.47226	2.35113	2.48829	2.40387	2.18137	1.86530	1.50049	1.21838	8.64289	6.34925	4.41151
45340	0.75167	0.78404	0.49414	3.91295	3.58268	3.22475	6.95101	4.47000	2.35315	2.48725	2.40376	2.18264	1.86833	1.50018	1.21994	8.65136	6.34894	4.41102
45500	0.74845	0.78391	0.49226	3.91047	3.57959	3.22153	6.94544	4.46924	2.35110	2.48591	2.40048	2.18039	1.86509	1.49564	1.21978	8.64533	6.34441	4.40756
45670	0.75277	0.78688	0.49672	3.91227	3.58373	3.22512	6.95932	4.47679	2.35603	2.49062	2.40472	2.18326	1.87044	1.50393	1.22230	8.65005	6.35111	4.41197
45830	0.75142	0.78428	0.49477	3.91113	3.57983	3.22166	6.95073	4.47139	2.35355	2.48687	2.40206	2.18229	1.86950	1.50239	1.22184	8.64769	6.35047	4.41226	29.03	6.1	0.00	7.30	0.01273	0.01295	0.01642	0.00790	0.00588	0.00644	0.00471	0.01272	0.01689	0.00683	0.00703	0.00888	0.01495	0.01099	0.01200	0.00221	0.00627	0.00879
46000	0.75266	0.78392	0.49451	3.90921	3.57963	3.22076	6.95009	4.46929	2.35352	2.48789	2.40146	2.18145	1.86665	1.49995	1.21849	8.63940	6.34555	4.40620
46160	0.75050	0.78061	0.49169	3.90494	3.57448	3.21595	6.93932	4.46994	2.34863	2.48408	2.39859	2.17902	1.86990	1.50191	1.22345	8.64516	6.34835	4.40931
46320	0.75395	0.78359	0.49683	3.90834	3.57840	3.22015	6.95402	4.47217	2.35317	2.48671	2.40038	2.18190	1.86500	1.50266	1.22068	8.64236	6.34466	4.40554
46490	0.75280	0.78541	0.49493	3.90652	3.57821	3.22028	6.95960	4.47497	2.35495	2.48710	2.40171	2.18188	1.86991	1.50252	1.22274	8.63913	6.34604	4.40716
46650	0.75189	0.78464	0.49539	3.90592	3.57665	3.21857	6.95749	4.47925	2.35248	2.48622	2.40129	2.18068	1.86803	1.49881	1.21943	8.63721	6.34435	4.40406
46810	0.75322	0.78627	0.49697	3.90843	3.57930	3.22096	6.95960	4.47663	2.35885	2.48878	2.40360	2.18236	1.86836	1.50476	1.22253	8.64560	6.34758	4.40730
46980	0.75285	0.78239	0.49382	3.90660	3.57639	3.21793	6.95416	4.47515	2.35344	2.48626	2.40123	2.17968	1.86757	1.50239	1.21911	8.64106	6.34379	4.40503
47140	0.75123	0.78495	0.49476	3.90515	3.57642	3.21793	6.95151	4.47194	2.35067	2.48577	2.40167	2.18063	1.86951	1.50153	1.21991	8.63582	6.34283	4.40463
47310	0.74898	0.78499	0.49736	3.90610	3.57834	3.22059	6.95644	4.48035	2.35640	2.48752	2.40487	2.18292	1.87117	1.50521	1.22395	8.63948	6.34543	4.40748
47470	0.75249	0.78446	0.49574	3.90853	3.57739	3.21947	6.95907	4.47395	2.35291	2.48366	2.40244	2.17978	1.87041	1.50410	1.22358	8.64422	6.34754	4.40884	29.03	6.1	0.00	7.27	0.01273	0.01295	0.01642	0.00790	0.00588	0.00644	0.00471	0.01272	0.01689	0.00683	0.00703	0.00888	0.01495	0.01099	0.01200	0.00221	0.00627	0.00879
47630	0.75228	0.78366	0.49662	3.90901	3.58064	3.22004	6.96241	4.47393	2.35398	2.48580	2.40253	2.18034	1.86834	1.50416	1.22304	8.63855	6.34665	4.40705
47800	0.75190	0.78527	0.49461	3.90780	3.57880	3.21889	6.94916	4.47554	2.35567	2.48528	2.40271	2.17921	1.87255	1.50855	1.22553	8.64387	6.35355	4.41279
47960	0.75707	0.79038	0.49925	3.91315	3.58362	3.22255	6.96277	4.48324	2.35964	2.48773	2.40518	2.18260	1.87155	1.50477	1.22538	8.64108	6.34988	4.41045
48130	0.75319	0.78696	0.49705	3.91269	3.58421	3.22380	6.96474	4.48330	2.35987	2.48781	2.40607	2.18297	1.87210	1.50619	1.22418	8.64492	6.34957	4.40970
48290	0.75305	0.78805	0.49575	3.91226	3.58245	3.22344	6.95889	4.47867	2.35641	2.48593	2.40474	2.18052	1.86955	1.50547	1.22147	8.64134	6.34660	4.40729
48450	0.75428	0.78819	0.49706	3.91350	3.58564	3.22451	6.96177	4.48046	2.35926	2.48710	2.40859	2.18199	1.87085	1.50582	1.22539	8.64815	6.35075	4.41085
48620	0.75423	0.78554	0.49553	3.91282	3.58624	3.22270	6.95642	4.47776	2.35588	2.48480	2.40716	2.18008	1.86868	1.50378	1.22430	8.63907	6.34643	4.40926
48780	0.75314	0.78649	0.49683	3.91459	3.58858	3.22577	6.95610	4.48027	2.35897	2.48519	2.40967	2.18256	1.87205	1.50319	1.22158	8.64344	6.34855	4.41144
48940	0.75302	0.78660	0.49443	3.91408	3.58694	3.22487	6.96515	4.48137	2.35778	2.48431	2.41043	2.18143	1.87165	1.50493	1.22234	8.64352	6.34737	4.41102
49110	0.75335	0.78751	0.49613	3.91687	3.58957	3.22612	6.96154	4.48158	2.36093	2.48511	2.41091	2.18195	1.87342	1.50514	1.22324	8.64154	6.34939	4.41190	28.98	6.1	0.00	7.35	0.01273	0.01295	0.01642	0.00790	0.00588	0.00644	0.00471	0.01272	0.01689	0.00683	0.00703	0.00888	0.01495	0.01099	0.01200	0.00221	0.00627	0.00879
49270	0.75424	0.78454	0.49590	3.91547	3.58789	3.22407	6.96566	4.48294	2.35501	2.48358	2.40953	2.18016	1.87083	1.50530	1.22273	8.63683	6.34623	4.41119
49430	0.75363	0.78769	0.49738	3.91724	3.59097	3.22640	6.97280	4.48014	2.36136	2.48579	2.41345	2.18162	1.87231	1.50626	1.22439	8.63997	6.34985	4.41283
49600	0.75427	0.78501	0.49495	3.91566	3.58908	3.22441	6.94597	4.47860	2.35738	2.48285	2.41362	2.18060	1.87064	1.50281	1.21947	8.63787	6.34493	4.41133
49760	0.75632	0.78853	0.49846	3.91856	3.59285	3.22801	6.98489	4.48346	2.36179	2.48605	2.41618	2.18292	1.87680	1.50639	1.22477	8.63779	6.34925	4.41431
49920	0.75334	0.78675	0.49501	3.91695	3.59042	3.22617	6.95583	4.48032	2.35762	2.48362	2.41342	2.18101	1.87186	1.50261	1.22408	8.64093	6.34558	4.41020
50090	0.75627	0.78970	0.49829	3.91922	3.59336	3.23156	6.95364	4.48538	2.36234	2.48903	2.41830	2.18561	1.87624	1.50950	1.22910	8.63997	6.35093	4.41547
50250	0.75553	0.78966	0.49698	3.91869	3.59161	3.22800	6.96145	4.47994	2.36003	2.48557	2.41508	2.18306	1.87237	1.50572	1.22206	8.63979	6.34717	4.41117
50410	0.75590	0.78689	0.49675	3.91843	3.59227	3.22898	6.96232	4.48038	2.35967	2.48781	2.41696	2.18485	1.87276	1.51051	1.22629	8.63822	6.34712	4.41386
50580	0.75366	0.78506	0.49653	3.91652	3.58997	3.22703	6.96081	4.47803	2.35706	2.48527	2.41459	2.18309	1.86875	1.50170	1.22135	8.63770	6.34283	4.40897
50740	0.74980	0.78318	0.49335	3.91241	3.58677	3.22490	6.95173	4.47333	2.35378	2.48399	2.41432	2.18080	1.87203	1.50441	1.22526	8.63566	6.34516	4.41177	29.03	6.1	0.00	7.41	0.01273	0.01295	0.01642	0.00790	0.00588	0.00644	0.00471	0.01272	0.01689	0.00683	0.00703	0.00888	0.01495	0.01099	0.01200	0.00221	0.00627	0.00879
50900	0.75373	0.78648	0.49606	3.91610	3.59016	3.22837	6.96233	4.48061	2.35722	2.48767	2.41648	2.18500	1.87256	1.50719	1.22339	8.63845	6.34784	4.41312
51070	0.75489	0.78679	0.49675	3.91735	3.59060	3.22998	6.95899	4.47884	2.35814	2.49041	2.41844	2.18685	1.87145	1.50693	1.22430	8.63880	6.34709	4.41294
51230	0.75324	0.78626	0.49520	3.91581	3.58999	3.22855	6.97166	4.47545	2.35567	2.48951	2.41766	2.18579	1.87677	1.51055	1.22784	8.64011	6.35198	4.41623
51400	0.75671	0.79005	0.49903	3.92150	3.59447	3.23311	6.95524	4.48535	2.36021	2.49384	2.42024	2.18805	1.87568	1.50775	1.22470	8.64046	6.34873	4.41474
51560	0.75445	0.78772	0.49680	3.91829	3.59320	3.23350	6.96562	4.48296	2.36300	2.49391	2.41998	2.18898	1.87585	1.50924	1.22556	8.63793	6.34841	4.41637
51720	0.75454	0.78821	0.49662	3.91864	3.59037	3.23082	6.96969	4.47841	2.35890	2.49110	2.41798	2.18646	1.87038	1.50570	1.22220	8.63173	6.34588	4.41200
51890	0.75485	0.78809	0.49732	3.91996	3.59299	3.23416	6.96073	4.48011	2.36261	2.49446	2.42005	2.18940	1.87534	1.50957	1.22331	8.64116	6.34957	4.41539
52050	0.75400	0.78784	0.49631	3.91881	3.59071	3.23046	6.96068	4.48034	2.35754	2.49157	2.41666	2.18572	1.86945	1.50642	1.22221	8.63392	6.34415	4.41182
52210	0.75481	0.78713	0.49768	3.91962	3.59286	3.23340	6.96585	4.48524	2.36048	2.49482	2.41979	2.18972	1.87390	1.50906	1.22769	8.63618	6.34803	4.41593
52380	0.75243	0.78670	0.49687	3.91889	3.59007	3.23014	6.96845	4.47759	2.35825	2.49227	2.41562	2.18730	1.87015	1.50413	1.22218	8.63420	6.34703	4.41202	29.03	6.0	0.00	7.36	0.01273	0.01295	0.01642	0.00790	0.00588	0.00644	0.00471	0.01272	0.01689	0.00683	0.00702	0.00888	0.01495	0.01099	0.01200	0.00221	0.00627	0.00879
52540	0.75475	0.78786	0.49855	3.91996	3.59149	3.23252	6.96900	4.48270	2.36144	2.49452	2.41873	2.18984	1.87272	1.50842	1.22345	8.63865	6.34937	4.41565
52700	0.75105	0.78514	0.49577	3.91907	3.58941	3.23058	6.97211	4.47965	2.36026	2.49378	2.41672	2.18811	1.87312	1.50579	1.22316	8.63394	6.34894	4.41418
52870	0.75484	0.78806	0.49640	3.92090	3.59154	3.23389	6.97243	4.48634	2.36335	2.49601	2.41765	2.19017	1.87664	1.50998	1.22576	8.64328	6.35323	4.41899
53030	0.75617	0.78763	0.49497	3.91966	3.58983	3.23175	6.97014	4.48265	2.36313	2.49491	2.41665	2.18846	1.87317	1.50674	1.22366	8.64424	6.35092	4.41560
53190	0.75359	0.78818	0.49849	3.92140	3.59137	3.23476	6.96356	4.48613	2.36226	2.49698	2.41851	2.19053	1.87510	1.50746	1.22442	8.64459	6.35355	4.41881
53360	0.75324	0.78665	0.49690	3.91860	3.58981	3.23098	6.96795	4.48144	2.36035	2.49499	2.41756	2.18833	1.87413	1.50895	1.22379	8.63734	6.34978	4.41397
53520	0.75240	0.78863	0.49695	3.92034	3.59151	3.23403	6.98539	4.49164	2.36283	2.49693	2.42017	2.19041	1.87428	1.50883	1.22791	8.64127	6.35468	4.41831
53680	0.75320	0.78736	0.49598	3.91983	3.58887	3.23106	6.97115	4.48527	2.36066	2.49560	2.41770	2.18862	1.87179	1.50626	1.22155	8.63717	6.35140	4.41546
53850	0.75413	0.78868	0.49836	3.92069	3.59124	3.23321	6.96904	4.48540	2.36406	2.49602	2.41967	2.18974	1.87771	1.50808	1.22664	8.63664	6.35364	4.41700
54010	0.75422	0.78754	0.49622	3.91767	3.58922	3.23094	6.97110	4.48313	2.35823	2.49414	2.41607	2.18721	1.87132	1.50702	1.22310	8.63956	6.35008	4.41303	29.03	6.2	0.00	7.40	0.01273	0.01295	0.01642	0.00790	0.00588	0.00644	0.00471	0.01272	0.01689	0.00683	0.00702	0.00888	0.01495	0.01099	0.01200	0.00221	0.00627	0.00879
54170	0.74967	0.78765	0.49737	3.91495	3.58660	3.22929	6.96424	4.48153	2.35745	2.49233	2.41575	2.18590	1.87554	1.51234	1.22621	8.64532	6.35462	4.41820
54340	0.75785	0.79130	0.49859	3.91953	3.59037	3.23370	6.95409	4.48756	2.36199	2.49534	2.41895	2.18973	1.87712	1.51310	1.22699	8.64148	6.35235	4.41583
54500	0.75667	0.79197	0.49802	3.92032	3.59091	3.23396	6.95944	4.48637	2.36275	2.49649	2.42131	2.18988	1.87590	1.51220	1.22485	8.64174	6.34938	4.41447
54660	0.75378	0.78874	0.49764	3.91633	3.58594	3.22993	6.96835	4.48214	2.35909	2.49258	2.41769	2.18628	1.87633	1.51113	1.22589	8.63903	6.34943	4.41569
54830	0.75751	0.79078	0.49941	3.91832	3.58856	3.23161	6.97334	4.48862	2.36528	2.49463	2.41848	2.18859	1.87717	1.51191	1.22605	8.63668	6.34612	4.41206
54990	0.75422	0.78884	0.49650	3.91401	3.58475	3.22711	6.96410	4.48588	2.36033	2.49191	2.41498	2.18619	1.87682	1.51349	1.22925	8.63292	6.34692	4.41318
55150	0.75548	0.78949	0.49894	3.91580	3.58669	3.22988	6.96657	4.49116	2.36241	2.49381	2.41750	2.18759	1.87865	1.51180	1.22567	8.63441	6.34357	4.41090
55320	0.75512	0.78874	0.49757	3.91228	3.58450	3.22722	6.96579	4.48876	2.36255	2.49074	2.41495	2.18536	1.88002	1.51408	1.22934	8.63877	6.34516	4.41208
55480	0.75783	0.79206	0.49952	3.91561	3.58675	3.22855	6.96954	4.49301	2.36547	2.49275	2.41546	2.18717	1.87970	1.51388	1.22822	8.63720	6.34417	4.40923
55650	0.75642	0.79021	0.49829	3.91090	3.58227	3.22428	6.97634	4.48886	2.36172	2.48996	2.41185	2.18364	1.87883	1.51647	1.23110	8.63910	6.34572	4.41150	29.03	6.1	0.00	7.36	0.01273	0.01295	0.01642	0.00790	0.00588	0.00644	0.00471	0.01271	0.01689	0.00683	0.00702	0.00888	0.01495	0.01099	0.01200	0.00221	0.00627	0.00879
55810	0.75820	0.79432	0.50248	3.91429	3.58545	3.22725	6.97190	4.49488	2.36734	2.49227	2.41451	2.18556	1.87719	1.51342	1.22714	8.63212	6.34429	4.40741
55970	0.75828	0.79427	0.50087	3.91232	3.58481	3.22608	6.96682	4.49045	2.36862	2.49090	2.41383	2.18491	1.87869	1.51311	1.22982	8.64373	6.34169	4.40461
56140	0.75585	0.79211	0.49951	3.90842	3.58123	3.22291	6.98862	4.49061	2.36320	2.48850	2.41133	2.18185	1.87651	1.51185	1.22722	8.62907	6.33882	4.40247
56300	0.75745	0.79040	0.50085	3.90823	3.58150	3.22099	6.97758	4.49013	2.36596	2.48618	2.41020	2.18106	1.87923	1.51079	1.22540	8.63160	6.33916	4.40178
56460	0.75475	0.79134	0.49636	3.90542	3.57756	3.21631	6.97103	4.48459	2.36223	2.48186	2.40517	2.17598	1.87272	1.51034	1.22245	8.62218	6.33461	4.39642
56630	0.75538	0.79342	0.49970	3.90558	3.57901	3.21966	6.97135	4.49316	2.36709	2.48539	2.40815	2.17884	1.87797	1.51474	1.22911	8.63378	6.34080	4.40122
56790	0.75464	0.78994	0.49842	3.90400	3.57661	3.21503	6.98051	4.49141	2.36544	2.48013	2.40508	2.17491	1.87615	1.51275	1.22715	8.62846	6.33670	4.39629
56950	0.75947	0.79330	0.49961	3.90472	3.57820	3.21771	6.97414	4.49539	2.36670	2.48326	2.40614	2.17688	1.87983	1.51445	1.22899	8.62785	6.33892	4.39950
57120	0.75739	0.79127	0.49716	3.90361	3.57686	3.21373	6.97396	4.48764	2.36500	2.47764	2.40478	2.17281	1.87394	1.51214	1.22622	8.62733	6.33376	4.39476
57280	0.75381	0.78968	0.49616	3.89842	3.57270	3.21055	6.99393	4.48795	2.36187	2.47477	2.40234	2.17121	1.87692	1.51376	1.23056	8.62633	6.33914	4.39756	29.03	6.1	0.00	7.42	0.01273	0.01295	0.01642	0.00790	0.00588	0.00644	0.00471	0.01272	0.01689	0.00683	0.00703	0.00888	0.01495	0.01099	0.01200	0.00221	0.00627	0.00879
57440	0.75722	0.79159	0.49767	3.90134	3.57592	3.21296	6.98861	4.49485	2.36600	2.47656	2.40348	2.17187	1.87666	1.51221	1.22561	8.62755	6.33521	4.39326
57600	0.75527	0.79095	0.49647	3.89782	3.57200	3.20871	6.97583	4.48772	2.36473	2.47287	2.40055	2.16877	1.87720	1.51382	1.23122	8.62763	6.33796	4.39690
57770	0.75759	0.79182	0.49915	3.90082	3.57520	3.21109	6.99572	4.49193	2.36632	2.47396	2.40214	2.17007	1.87721	1.51341	1.22928	8.62554	6.33748	4.39469
57930	0.75784	0.79225	0.49717	3.89832	3.57165	3.20843	6.97354	4.48989	2.36398	2.47211	2.40058	2.16775	1.87885	1.51468	1.23090	8.62851	6.33950	4.39809
58100	0.76016	0.79302	0.50043	3.90119	3.57522	3.21096	6.98370	4.49304	2.36795	2.47332	2.40273	2.16980	1.88265	1.51291	1.23052	8.62798	6.34080	4.39886
58260	0.76154	0.79383	0.50199	3.90279	3.57720	3.21312	6.98728	4.49480	2.36891	2.47569	2.40436	2.17118	1.88010	1.51462	1.23259	8.63522	6.34076	4.39842
58430	0.75850	0.79356	0.50147	3.90204	3.57713	3.21435	6.97583	4.49651	2.37215	2.47604	2.40613	2.17039	1.88070	1.51668	1.23029	8.62912	6.34119	4.39933
58590	0.75999	0.79295	0.50026	3.90249	3.57705	3.21296	6.99076	4.49594	2.36895	2.47334	2.40509	2.16954	1.87906	1.51249	1.22609	8.62816	6.33883	4.39724
58750	0.75916	0.79335	0.50187	3.90121	3.57792	3.21468	6.99021	4.49973	2.37365	2.47615	2.40673	2.17163	1.88316	1.51572	1.22934	8.63217	6.34259	4.40127
58920	0.76076	0.79322	0.50090	3.90259	3.57634	3.21184	6.99248	4.49638	2.37073	2.47283	2.40295	2.16892	1.88405	1.51506	1.22964	8.63336	6.34142	4.40134	29.03	6.1	0.00	6.84	0.01273	0.01295	0.01642	0.00790	0.00588	0.00644	0.00471	0.01271	0.01689	0.00683	0.00703	0.00888	0.01495	0.01099	0.01200	0.00221	0.00627	0.00879
59080	0.75970	0.79452	0.50129	3.90433	3.57904	3.21509	6.98868	4.49608	2.37239	2.47383	2.40534	2.17130	1.88253	1.51564	1.22939	8.62490	6.34016	4.39908
59240	0.76001	0.79212	0.50008	3.90152	3.57544	3.21152	6.98675	4.49695	2.36611	2.47143	2.40224	2.16807	1.88201	1.51718	1.23091	8.62752	6.34240	4.40295
59410	0.76349	0.79669	0.50384	3.90537	3.57742	3.21520	6.98167	4.49815	2.37182	2.47523	2.40644	2.17087	1.88308	1.51737	1.23114	8.62882	6.33908	4.39809
59570	0.76065	0.79248	0.50297	3.90371	3.57830	3.21650	6.99441	4.50277	2.37249	2.47544	2.40635	2.17098	1.88199	1.51751	1.23025	8.62499	6.33961	4.39943
59740	0.76129	0.79499	0.50176	3.90376	3.57697	3.21451	6.98048	4.50027	2.37021	2.47462	2.40602	2.17047	1.88196	1.51588	1.22896	8.62708	6.33715	4.39688
59900	0.76612	0.79497	0.50282	3.90553	3.58077	3.21734	6.99257	4.50291	2.37477	2.47715	2.40869	2.17355	1.88506	1.51784	1.23273	8.63092	6.34021	4.40042
60060	0.76285	0.79362	0.50168	3.90431	3.57700	3.21556	6.99528	4.50293	2.37217	2.47521	2.40645	2.17111	1.88264	1.51744	1.22937	8.62490	6.33886	4.39948
60230	0.76204	0.79480	0.50239	3.90474	3.57840	3.21581	6.99102	4.49645	2.37325	2.47504	2.40722	2.17251	1.88402	1.51555	1.22873	8.62211	6.33568	4.39597
60390	0.76334	0.79381	0.50044	3.90136	3.57572	3.21389	6.98556	4.49491	2.36941	2.47312	2.40509	2.17067	1.88449	1.52067	1.23226	8.62246	6.33833	4.40022
60560	0.76506	0.79554	0.50342	3.90479	3.57859	3.21815	6.98995	4.50192	2.37265	2.47666	2.40738	2.17482	1.88246	1.51814	1.23174	8.62298	6.33513	4.39587	29.03	6.1	0.00	7.29	0.01272	0.01295	0.01642	0.00790	0.00588	0.00644	0.00471	0.01271	0.01689	0.00683	0.00703	0.00888	0.01495	0.01099	0.01200	0.00221	0.00627	0.00879
60720	0.76625	0.79467	0.50384	3.90417	3.57889	3.21850	6.98371	4.50043	2.37508	2.47862	2.40836	2.17499	1.88370	1.51905	1.23180	8.62080	6.33600	4.39662
60880	0.76442	0.79493	0.50249	3.90335	3.57777	3.21855	6.99302	4.50170	2.37537	2.47832	2.40838	2.17535	1.88572	1.51785	1.23210	8.62211	6.33562	4.39712
61050	0.76562	0.79623	0.50334	3.90476	3.57817	3.21873	6.99820	4.50248	2.37730	2.47848	2.40974	2.17592	1.88847	1.51799	1.23360	8.62298	6.33504	4.39614
61210	0.76482	0.79398	0.50352	3.90211	3.57506	3.21418	6.98903	4.49694	2.37529	2.47614	2.40595	2.17303	1.89032	1.51950	1.23454	8.62063	6.33904	4.40148
61380	0.77084	0.79777	0.50585	3.90562	3.57885	3.21907	6.99678	4.50299	2.37856	2.47981	2.40956	2.17580	1.89039	1.52456	1.24019	8.62263	6.33723	4.40162
61540	0.77131	0.80134	0.50863	3.90810	3.58056	3.22169	7.00426	4.50671	2.38529	2.48176	2.41043	2.17793	1.89051	1.52472	1.23711	8.62167	6.33670	4.40013
61700	0.77122	0.80152	0.50687	3.90533	3.57875	3.22003	7.00729	4.50835	2.38318	2.48095	2.40783	2.17729	1.89262	1.52416	1.23756	8.62455	6.33499	4.39708
61870	0.76810	0.80184	0.50580	3.90231	3.57457	3.21425	6.99779	4.50409	2.37861	2.47682	2.40491	2.17286	1.88943	1.52076	1.23401	8.61540	6.33109	4.39396
62030	0.76726	0.79673	0.50370	3.90025	3.57235	3.21344	6.98930	4.50784	2.37789	2.47406	2.40218	2.17093	1.89370	1.52655	1.24054	8.62438	6.33617	4.40060
62200	0.77285	0.80400	0.50819	3.90525	3.57778	3.21664	6.99616	4.51208	2.38470	2.47918	2.40871	2.17512	1.89263	1.52446	1.23980	8.62083	6.33295	4.39696	28.98	6.1	0.00	7.33	0.01272	0.01295	0.01642	0.00790	0.00588	0.00644	0.00471	0.01271	0.01689	0.00683	0.00702	0.00888	0.01495	0.01099	0.01200	0.00221	0.00627	0.00879
62360	0.76901	0.79920	0.50742	3.90240	3.57490	3.21578	7.00006	4.51138	2.38426	2.47710	2.40620	2.17357	1.89197	1.52377	1.23640	8.62031	6.33112	4.39482
62520	0.77129	0.79884	0.50545	3.90013	3.57286	3.21301	6.99506	4.50455	2.38383	2.47477	2.40396	2.17227	1.89280	1.52156	1.23624	8.61622	6.32965	4.39230
62690	0.76910	0.79962	0.50213	3.89640	3.56789	3.20925	7.01430	4.50599	2.38260	2.47167	2.40141	2.16929	1.89623	1.52863	1.24220	8.62336	6.33546	4.39959
62850	0.77348	0.80107	0.50881	3.90324	3.57326	3.21509	6.99772	4.51405	2.38666	2.47584	2.40485	2.17313	1.89335	1.52662	1.23902	8.62153	6.33078	4.39370
63010	0.77330	0.80388	0.50855	3.89998	3.57120	3.21270	7.01026	4.51197	2.38710	2.47446	2.40351	2.17327	1.89496	1.52623	1.23848	8.61517	6.33018	4.39245
63180	0.77281	0.80243	0.50736	3.89816	3.56940	3.21092	6.99148	4.51444	2.38774	2.47392	2.40289	2.17126	1.89534	1.52525	1.23966	8.61613	6.32693	4.38999
63340	0.77501	0.80435	0.51035	3.90016	3.57188	3.21355	7.01007	4.52018	2.39198	2.47534	2.40584	2.17390	1.90043	1.52737	1.24486	8.61996	6.33151	4.39412
63500	0.77378	0.80289	0.50764	3.89786	3.56979	3.20943	7.00640	4.51528	2.38755	2.47295	2.40258	2.17079	1.89825	1.52873	1.24320	8.61892	6.32932	4.39178
63670	0.77363	0.80251	0.50921	3.89766	3.56913	3.20969	7.00107	4.51548	2.38731	2.47173	2.40176	2.17003	1.89571	1.52892	1.23993	8.61587	6.32578	4.38944
63830	0.77209	0.80180	0.50618	3.89394	3.56486	3.20576	7.00466	4.51308	2.38632	2.47028	2.39960	2.16746	1.89429	1.52907	1.24295	8.61746	6.32712	4.39131	29.03	6.1	0.00	7.35	0.01272	0.01294	0.01642	0.00790	0.00588	0.00644	0.00471	0.01271	0.01689	0.00683	0.00702	0.00888	0.01495	0.01099	0.01200	0.00221	0.00627	0.00879
64000	0.77232	0.80409	0.50731	3.89475	3.56659	3.20698	7.00948	4.51797	2.38788	2.47039	2.40095	2.16791	1.89883	1.52843	1.24165	8.61642	6.32666	4.39010
64160	0.77230	0.80344	0.50717	3.89400	3.56572	3.20527	6.99851	4.51567	2.38755	2.46873	2.39823	2.16667	1.89828	1.53191	1.24695	8.61877	6.33141	4.39210
64320	0.77495	0.80688	0.50968	3.89704	3.57060	3.20886	7.01311	4.52068	2.38986	2.47056	2.40170	2.16881	1.90044	1.53062	1.24377	8.61999	6.32743	4.38891
64490	0.77221	0.80773	0.51221	3.89799	3.57030	3.21050	7.00503	4.51965	2.39371	2.47283	2.40326	2.17048	1.90138	1.53493	1.24606	8.62042	6.33023	4.39039
64650	0.77300	0.80478	0.50820	3.89514	3.56762	3.20668	7.00039	4.52015	2.39152	2.46796	2.39992	2.16665	1.89819	1.53153	1.24550	8.61668	6.32664	4.38771
64810	0.76979	0.80437	0.50786	3.89440	3.56665	3.20588	7.00388	4.51887	2.39355	2.46841	2.39916	2.16688	1.89791	1.53106	1.24095	8.61084	6.32245	4.38641
64980	0.76915	0.80457	0.50744	3.89220	3.56418	3.20340	7.01601	4.51646	2.38791	2.46525	2.39729	2.16437	1.90401	1.53107	1.24286	8.60928	6.32324	4.38774
65140	0.77299	0.80492	0.50942	3.89320	3.56614	3.20694	7.00241	4.52067	2.39006	2.46808	2.39879	2.16735	1.90120	1.53206	1.24495	8.60762	6.32459	4.38701
65310	0.77214	0.80420	0.50988	3.89301	3.56520	3.20704	7.00925	4.52259	2.38931	2.46694	2.39927	2.16694	1.89984	1.53272	1.24441	8.61293	6.32440	4.38789
65470	0.77214	0.80755	0.50886	3.89421	3.56620	3.20516	7.00293	4.51975	2.38925	2.46630	2.39679	2.16550	1.90240	1.53197	1.24921	8.61987	6.32997	4.39211	29.09	6.1	0.00	7.31	0.01272	0.01294	0.01642	0.00790	0.00588	0.00644	0.00471	0.01271	0.01689	0.00683	0.00702	0.00888	0.01495	0.01098	0.01200	0.00221	0.00627	0.00879
65640	0.77547	0.80858	0.51183	3.89834	3.56908	3.20998	7.00211	4.52259	2.39470	2.47023	2.39800	2.16771	1.90355	1.53065	1.24687	8.61743	6.32556	4.38982
65800	0.77199	0.80765	0.50973	3.89510	3.56599	3.20973	7.00537	4.52479	2.39389	2.46919	2.39786	2.16748	1.90168	1.52965	1.24491	8.61412	6.32431	4.38886
65960	0.77110	0.80255	0.50720	3.89371	3.56257	3.20650	7.00895	4.51667	2.38887	2.46643	2.39394	2.16453	1.89888	1.52646	1.24138	8.61142	6.31842	4.38328
66130	0.76976	0.80299	0.50860	3.89314	3.56330	3.20758	7.01056	4.51816	2.38948	2.46777	2.39550	2.16561	1.89723	1.53108	1.24300	8.61229	6.32000	4.38609
66290	0.76999	0.80253	0.50495	3.88970	3.55834	3.20284	7.01203	4.51788	2.38588	2.46369	2.39274	2.16248	1.89826	1.52687	1.24131	8.60655	6.31495	4.38198
66450	0.76621	0.80015	0.50368	3.88566	3.55644	3.20089	6.99490	4.51472	2.38621	2.46166	2.39059	2.16048	1.89958	1.53209	1.24538	8.60707	6.32126	4.38745
66620	0.77285	0.80566	0.50931	3.89129	3.55994	3.20576	7.00000	4.51627	2.39086	2.46503	2.39183	2.16368	1.89742	1.52922	1.24307	8.60342	6.31659	4.38246
66780	0.76927	0.80247	0.50868	3.88780	3.55845	3.20452	6.99564	4.52172	2.39133	2.46447	2.39268	2.16265	1.89936	1.52836	1.24105	8.60933	6.31575	4.38139
66940	0.77027	0.80516	0.50658	3.88637	3.55659	3.20127	6.99844	4.51796	2.39105	2.46167	2.39154	2.16075	1.89700	1.52738	1.24258	8.60446	6.31483	4.37996
67110	0.77222	0.80685	0.50968	3.88838	3.56005	3.20442	7.00489	4.51872	2.39390	2.46396	2.39364	2.16278	1.90176	1.52960	1.24498	8.60929	6.31563	4.38167	29.03	6.1	0.00	7.32	0.01272	0.01294	0.01642	0.00790	0.00588	0.00644	0.00471	0.01271	0.01689	0.00683	0.00702	0.00888	0.01494	0.01098	0.01200	0.00221	0.00627	0.00879
67270	0.77083	0.80566	0.50774	3.88574	3.55637	3.20026	7.00801	4.51845	2.38699	2.46038	2.39110	2.15961	1.89573	1.52507	1.23950	8.60842	6.31202	4.37695
67430	0.77219	0.80595	0.50824	3.88719	3.56011	3.20377	7.01909	4.52153	2.39137	2.46272	2.39318	2.16235	1.90033	1.53081	1.24640	8.60303	6.31568	4.38028
67600	0.77251	0.80361	0.50577	3.88456	3.55556	3.19896	6.99663	4.51802	2.38827	2.45996	2.38918	2.15871	1.89589	1.52754	1.24057	8.60216	6.31154	4.37593
67760	0.76971	0.80268	0.50925	3.88443	3.55802	3.20190	7.00852	4.51423	2.39122	2.46096	2.39112	2.16058	1.89845	1.53078	1.24282	8.60633	6.31433	4.37884
67920	0.77190	0.80174	0.50777	3.88285	3.55513	3.19849	6.99130	4.51294	2.38529	2.45864	2.38728	2.15796	1.89393	1.52587	1.23863	8.60250	6.31046	4.37485
68090	0.76904	0.80089	0.50433	3.87899	3.55052	3.19488	6.99947	4.51172	2.38249	2.45582	2.38549	2.15595	1.89507	1.53069	1.24356	8.60364	6.31407	4.37966
68250	0.77228	0.80331	0.50895	3.88394	3.55500	3.19909	6.99837	4.51336	2.38727	2.45816	2.38836	2.15870	1.89573	1.52804	1.24074	8.60277	6.31116	4.37593
68410	0.76904	0.80103	0.50611	3.87961	3.55210	3.19562	6.99988	4.50972	2.38228	2.45477	2.38419	2.15539	1.89825	1.53068	1.24285	8.60738	6.31592	4.37982
68580	0.77371	0.80411	0.50882	3.88427	3.55597	3.19958	7.00259	4.51404	2.38755	2.45763	2.38865	2.15973	1.89791	1.52990	1.24328	8.60651	6.31582	4.37862
68740	0.77464	0.80793	0.51165	3.88680	3.55980	3.20252	7.00772	4.51767	2.38874	2.46147	2.39082	2.16166	1.90097	1.53232	1.24455	8.60780	6.31441	4.37954	28.98	6.2	0.00	7.33	0.01273	0.01295	0.01642	0.00790	0.00588	0.00644	0.00471	0.01272	0.01689	0.00683	0.00703	0.00888	0.01495	0.01099	0.01200	0.00221	0.00627	0.00879
68900	0.77186	0.80572	0.50900	3.88327	3.55576	3.19992	6.99271	4.51357	2.38636	2.45908	2.38936	2.15911	1.89643	1.52819	1.24196	8.60537	6.31157	4.37496
69070	0.77109	0.80429	0.50722	3.88021	3.55187	3.19625	6.97897	4.50916	2.38340	2.45641	2.38527	2.15722	1.89472	1.52750	1.24147	8.59545	6.30628	4.37221
69230	0.76819	0.80043	0.50448	3.87626	3.54912	3.19317	6.99670	4.50380	2.37878	2.45211	2.38134	2.15335	1.89270	1.52676	1.23927	8.59928	6.30669	4.37243
69390	0.77092	0.80308	0.50541	3.87766	3.54976	3.19575	6.98236	4.50304	2.38032	2.45448	2.38269	2.15496	1.89458	1.52359	1.23932	8.59884	6.30640	4.37020
69560	0.76938	0.80247	0.50568	3.87521	3.54771	3.19192	6.99666	4.50384	2.38028	2.45282	2.38113	2.15377	1.89056	1.51977	1.23676	8.59128	6.30259	4.36720
69720	0.76493	0.80127	0.50710	3.87437	3.55017	3.19747	6.99317	4.51032	2.38684	2.45748	2.38719	2.15790	1.89493	1.52512	1.24305	8.60137	6.31191	4.37396
69880	0.77225	0.80152	0.50645	3.87950	3.54997	3.19502	6.99409	4.50697	2.38038	2.45387	2.38380	2.15570	1.89228	1.52572	1.24054	8.60302	6.30979	4.37328
70050	0.77025	0.80265	0.50402	3.87819	3.54884	3.19351	6.98987	4.50679	2.38025	2.45412	2.38307	2.15418	1.89107	1.52444	1.23739	8.59485	6.30540	4.36969
70210	0.76779	0.79935	0.50372	3.87392	3.54601	3.19205	6.99070	4.50130	2.37667	2.45125	2.38059	2.15237	1.89130	1.52554	1.23734	8.59763	6.30835	4.37179
70380	0.76842	0.80150	0.50661	3.87658	3.54837	3.19340	6.98959	4.50549	2.38024	2.45400	2.38399	2.15479	1.89241	1.52276	1.23671	8.59678	6.30563	4.36923	29.03	6.2	0.00	7.30	0.01273	0.01295	0.01642	0.00790	0.00588	0.00644	0.00471	0.01272	0.01689	0.00683	0.00703	0.00888	0.01495	0.01099	0.01200	0.00221	0.00627	0.00879
70540	0.76735	0.80131	0.50311	3.87273	3.54461	3.19014	6.98404	4.50058	2.37585	2.45084	2.38053	2.15195	1.89400	1.52691	1.24078	8.60026	6.30899	4.37281
70700	0.77049	0.80517	0.50769	3.87771	3.54747	3.19353	6.99821	4.50669	2.38234	2.45384	2.38436	2.15489	1.89315	1.52534	1.24025	8.60174	6.30659	4.36976
70870	0.77285	0.80640	0.51104	3.87933	3.55280	3.19666	6.99358	4.51384	2.38905	2.45659	2.38699	2.15711	1.89640	1.52800	1.24100	8.60052	6.30947	4.37344
71030	0.77099	0.80302	0.50889	3.87712	3.54989	3.19302	7.00207	4.50966	2.38566	2.45405	2.38377	2.15460	1.89345	1.52455	1.24047	8.59705	6.30770	4.37150
71190	0.76711	0.80356	0.50581	3.87654	3.54869	3.19153	7.00262	4.50863	2.38234	2.45222	2.38386	2.15355	1.89444	1.52439	1.24025	8.59878	6.30369	4.36926
71360	0.76912	0.80257	0.50547	3.87440	3.54809	3.19184	6.99560	4.50604	2.38475	2.45186	2.38444	2.15363	1.89443	1.52372	1.24345	8.59904	6.30676	4.37103
71520	0.77199	0.80232	0.50559	3.87590	3.54908	3.19390	6.99482	4.50677	2.38277	2.45273	2.38500	2.15411	1.89144	1.52640	1.23724	8.59400	6.30436	4.37039
71690	0.76938	0.80289	0.50612	3.87505	3.54833	3.18976	6.99688	4.50087	2.38169	2.45059	2.38308	2.15248	1.89521	1.52697	1.24160	8.60026	6.30770	4.37301
71850	0.77112	0.80431	0.50690	3.87832	3.55158	3.19445	6.99752	4.50376	2.38619	2.45250	2.38582	2.15424	1.89314	1.52640	1.24005	8.59331	6.30534	4.36986
72020	0.76984	0.80630	0.51034	3.87830	3.55343	3.19595	6.99532	4.51298	2.38602	2.45472	2.38760	2.15662	1.89277	1.52376	1.24090	8.60367	6.30722	4.37340	29.03	6.2	0.00	7.30	0.01273	0.01295	0.01642	0.00790	0.00588	0.00644	0.00471	0.01272	0.01689	0.00683	0.00703	0.00888	0.01495	0.01099	0.01200	0.00221	0.00627	0.00879
72180	0.76926	0.80407	0.50622	3.87838	3.55204	3.19295	6.99321	4.50781	2.38366	2.45098	2.38490	2.15374	1.89083	1.52303	1.23702	8.59880	6.30537	4.37116
72340	0.76929	0.80369	0.50836	3.87713	3.55120	3.19386	7.00037	4.50561	2.38231	2.45277	2.38636	2.15402	1.89124	1.52325	1.23595	8.59637	6.30515	4.37067
72510	0.76784	0.80558	0.50832	3.87767	3.55441	3.19728	6.99330	4.51222	2.38747	2.45717	2.38969	2.15744	1.89666	1.52751	1.23982	8.60697	6.30996	4.37543
72670	0.77054	0.80458	0.50791	3.88122	3.55353	3.19541	6.99275	4.50630	2.38592	2.45333	2.38667	2.15540	1.89450	1.52609	1.23871	8.60010	6.30835	4.37281
72830	0.76941	0.80261	0.50575	3.87994	3.55358	3.19548	6.99482	4.50438	2.38334	2.45287	2.38679	2.15510	1.89076	1.52272	1.23521	8.60071	6.30676	4.37104
73000	0.76917	0.79764	0.50576	3.87787	3.55253	3.19343	6.98899	4.50312	2.38107	2.45088	2.38523	2.15313	1.89251	1.52343	1.23690	8.60150	6.30869	4.37458
73160	0.76721	0.80005	0.50706	3.88060	3.55498	3.19620	6.97841	4.50643	2.38525	2.45366	2.38673	2.15610	1.89281	1.52585	1.24123	8.60332	6.30703	4.37262
73320	0.76610	0.79956	0.50517	3.87825	3.55319	3.19467	6.98505	4.50186	2.38017	2.45137	2.38523	2.15302	1.89196	1.52349	1.24070	8.60097	6.30984	4.37584
73490	0.76866	0.80252	0.50575	3.88206	3.55576	3.19728	6.98464	4.50787	2.38462	2.45418	2.38589	2.15579	1.89249	1.52455	1.23778	8.59932	6.30917	4.37281
73650	0.76817	0.79829	0.50439	3.87808	3.55199	3.19436	6.99041	4.50161	2.38148	2.45150	2.38343	2.15319	1.89528	1.52763	1.24320	8.60243	6.31383	4.37800	29.03	6.1	0.00	7.33	0.01273	0.01295	0.01642	0.00790	0.00588	0.00644	0.00471	0.01272	0.01689	0.00683	0.00703	0.00888	0.01494	0.01098	0.01200	0.00221	0.00627	0.00879
73820	0.77025	0.80258	0.50951	3.88271	3.55733	3.19782	6.99748	4.50646	2.38584	2.45526	2.38614	2.15640	1.89466	1.52362	1.23675	8.60530	6.31150	4.37490
73980	0.76932	0.80278	0.50845	3.88307	3.55680	3.19952	6.99876	4.50790	2.38522	2.45624	2.38818	2.15823	1.89457	1.52554	1.23637	8.60530	6.31453	4.37697
74140	0.76736	0.79962	0.50379	3.88152	3.55408	3.19671	6.98863	4.50512	2.38404	2.45365	2.38468	2.15471	1.89184	1.52491	1.23819	8.60252	6.31496	4.37627
74310	0.76745	0.79863	0.50489	3.88102	3.55564	3.19736	6.99275	4.50956	2.38369	2.45497	2.38542	2.15494	1.89089	1.52146	1.23435	8.60522	6.31109	4.37388
74470	0.76690	0.79684	0.50455	3.87956	3.55301	3.19536	6.99138	4.49952	2.38131	2.45152	2.38349	2.15299	1.89119	1.52345	1.23880	8.60443	6.31301	4.37702
74640	0.76907	0.79843	0.50609	3.88084	3.55526	3.19721	7.01088	4.50465	2.38195	2.45336	2.38572	2.15514	1.89113	1.52261	1.23740	8.60339	6.31143	4.37514
74800	0.76802	0.79784	0.50454	3.87876	3.55133	3.19404	6.98785	4.50407	2.37764	2.45150	2.38227	2.15365	1.89309	1.52594	1.23805	8.61087	6.31703	4.37914
74960	0.77010	0.80025	0.50739	3.88268	3.55562	3.19853	7.00124	4.50674	2.38283	2.45486	2.38683	2.15570	1.89156	1.52510	1.23765	8.60739	6.31289	4.37547
75130	0.76936	0.80071	0.50843	3.88294	3.55699	3.20149	7.00753	4.51353	2.38895	2.45983	2.39121	2.16041	1.89495	1.52982	1.24263	8.61314	6.31847	4.38176
75290	0.77096	0.79785	0.50564	3.88350	3.55783	3.19885	6.99548	4.50646	2.38406	2.45476	2.38725	2.15644	1.89021	1.52570	1.23649	8.60698	6.31628	4.37751	29.03	6.1	0.00	7.32	0.01272	0.01295	0.01642	0.00790	0.00588	0.00644	0.00471	0.01271	0.01688	0.00683	0.00703	0.00888	0.01494	0.01098	0.01200	0.00221	0.00627	0.00879
75450	0.76681	0.79771	0.50619	3.88082	3.55582	3.19830	7.00236	4.50609	2.38291	2.45444	2.38660	2.15669	1.88884	1.52113	1.23369	8.60960	6.31332	4.37607
75620	0.76609	0.79603	0.50492	3.88040	3.55360	3.19663	7.00613	4.50444	2.38001	2.45325	2.38432	2.15554	1.88806	1.52143	1.23674	8.60977	6.31606	4.37799
75780	0.76951	0.79881	0.50735	3.88202	3.55635	3.19865	7.00351	4.50281	2.38013	2.45553	2.38678	2.15606	1.88864	1.52113	1.23493	8.60342	6.31320	4.37641
75950	0.76829	0.79778	0.50821	3.88094	3.55813	3.20127	7.00718	4.50859	2.38289	2.45920	2.39021	2.15972	1.89509	1.52382	1.23954	8.61403	6.31762	4.38245
76110	0.77206	0.79880	0.50816	3.88406	3.55513	3.19971	6.99956	4.49934	2.37937	2.45643	2.38650	2.15751	1.88938	1.52595	1.23856	8.61107	6.31632	4.38094
76270	0.77046	0.79807	0.50757	3.88371	3.55586	3.19993	7.01104	4.50384	2.38036	2.45834	2.38789	2.15787	1.88832	1.52085	1.23567	8.60768	6.31394	4.37796
76440	0.76952	0.79632	0.50527	3.88081	3.55323	3.19739	6.99800	4.49825	2.37763	2.45558	2.38453	2.15637	1.89034	1.52325	1.23995	8.61186	6.31640	4.38189
76600	0.77268	0.80050	0.50830	3.88486	3.55608	3.20160	7.00553	4.50393	2.38122	2.45964	2.38774	2.16012	1.88986	1.52405	1.23678	8.60672	6.31373	4.37941
76760	0.77058	0.79624	0.50686	3.88246	3.55370	3.19976	6.99997	4.49930	2.37836	2.45792	2.38676	2.15894	1.88714	1.52092	1.23574	8.60498	6.31067	4.37784
76930	0.76992	0.79576	0.50480	3.87991	3.55262	3.19903	7.00194	4.50016	2.37753	2.45596	2.38536	2.15744	1.88732	1.52001	1.23413	8.60560	6.31218	4.37731	29.03	6.3	0.00	7.44	0.01272	0.01294	0.01642	0.00790	0.00588	0.00644	0.00471	0.01271	0.01688	0.00683	0.00703	0.00888	0.01494	0.01098	0.01200	0.00221	0.00627	0.00879
77090	0.76812	0.79467	0.50312	3.87944	3.55036	3.19640	6.98662	4.49343	2.37497	2.45438	2.38514	2.15621	1.89129	1.52299	1.23638	8.60839	6.31639	4.38290
77260	0.77245	0.79724	0.50709	3.88364	3.55533	3.20046	7.00350	4.49650	2.37872	2.46005	2.38776	2.16092	1.88788	1.51846	1.23460	8.60691	6.31372	4.37867
77420	0.77011	0.79645	0.50872	3.88295	3.55450	3.20172	6.99212	4.49565	2.37830	2.45899	2.38878	2.16148	1.88873	1.51990	1.23493	8.60691	6.31353	4.37963
77580	0.77092	0.79779	0.50845	3.88309	3.55405	3.19949	6.99937	4.49722	2.37590	2.45768	2.38825	2.16033	1.88639	1.51948	1.23328	8.60369	6.31163	4.37836
77750	0.77441	0.80092	0.50973	3.88424	3.55690	3.20292	6.99781	4.50289	2.38118	2.46329	2.39183	2.16450	1.89233	1.52385	1.23939	8.60943	6.31701	4.38172
77910	0.77017	0.79956	0.50877	3.88243	3.55474	3.19936	6.99808	4.49687	2.37886	2.45870	2.38865	2.16172	1.88715	1.52221	1.23442	8.60491	6.31259	4.37731
78070	0.77002	0.79862	0.51082	3.88280	3.55784	3.20384	7.00685	4.50118	2.38141	2.46289	2.39178	2.16401	1.89034	1.52456	1.23779	8.61596	6.31685	4.38084
78240	0.77303	0.79903	0.50950	3.88333	3.55514	3.19982	6.99037	4.49757	2.37857	2.45948	2.38861	2.16122	1.88794	1.51948	1.23205	8.60630	6.31338	4.37707
78400	0.77107	0.79781	0.50871	3.88363	3.55818	3.20410	6.99556	4.49994	2.37910	2.46106	2.39027	2.16411	1.89046	1.52280	1.23365	8.61274	6.31456	4.37961
78560	0.76844	0.79810	0.50660	3.88182	3.55336	3.19940	6.99317	4.49749	2.37473	2.45880	2.38823	2.16058	1.88380	1.51875	1.23192	8.60236	6.30804	4.37480	28.98	6.2	0.00	7.38	0.01272	0.01294	0.01642	0.00790	0.00588	0.00644	0.00471	0.01271	0.01688	0.00683	0.00702	0.00888	0.01494	0.01098	0.01200	0.00221	0.00627	0.00879
78730	0.76607	0.79246	0.50459	3.87906	3.55155	3.19757	6.99464	4.49617	2.37212	2.45848	2.38661	2.16012	1.88558	1.52353	1.23734	8.60679	6.31422	4.38036
78890	0.77030	0.80109	0.50922	3.88501	3.55591	3.20217	6.98441	4.49547	2.37711	2.46128	2.39018	2.16292	1.88434	1.51868	1.23584	8.60575	6.31172	4.37805
79050	0.76768	0.79810	0.50692	3.88250	3.55392	3.19904	6.98349	4.49304	2.37500	2.45877	2.38846	2.16069	1.88666	1.52055	1.23566	8.60384	6.31110	4.37828
79220	0.77055	0.80030	0.50949	3.88382	3.55588	3.19988	6.98702	4.49760	2.37694	2.46144	2.39003	2.16368	1.88941	1.52573	1.23946	8.61123	6.31807	4.38424
79380	0.77545	0.80330	0.51253	3.88994	3.56169	3.20667	7.00161	4.50567	2.38406	2.46599	2.39422	2.16719	1.89054	1.52618	1.24099	8.61054	6.31668	4.38360
79540	0.77112	0.80107	0.51206	3.88687	3.56063	3.20562	6.99569	4.50258	2.38110	2.46391	2.39185	2.16592	1.88962	1.52685	1.23994	8.61010	6.31453	4.38129
79710	0.77220	0.80146	0.51093	3.88511	3.55729	3.20083	7.00552	4.49926	2.38237	2.46118	2.38960	2.16390	1.88752	1.52116	1.23568	8.60775	6.31059	4.37720
79870	0.76965	0.80006	0.50756	3.88333	3.55505	3.20001	6.99583	4.49860	2.37722	2.45899	2.38856	2.16069	1.88673	1.51924	1.23482	8.60192	6.30768	4.37365
80030	0.76780	0.79634	0.50580	3.87997	3.55240	3.19718	6.98735	4.49765	2.37335	2.45742	2.38557	2.15964	1.88115	1.51892	1.22963	8.59705	6.30362	4.37035
80200	0.76865	0.79534	0.50462	3.87571	3.54961	3.19560	6.99877	4.49047	2.37190	2.45491	2.38295	2.15803	1.88410	1.52167	1.23339	8.59853	6.30554	4.37242	28.98	6.1	0.00	6.47	0.01272	0.01294	0.01642	0.00790	0.00588	0.00644	0.00471	0.01271	0.01688	0.00683	0.00702	0.00888	0.01494	0.01098	0.01200	0.00221	0.00627	0.00879
80360	0.76809	0.79784	0.50692	3.87814	3.55169	3.19682	6.99395	4.49767	2.37557	2.45767	2.38553	2.16174	1.88492	1.51992	1.23416	8.60131	6.30542	4.36971
80520	0.76606	0.79315	0.50394	3.87569	3.54923	3.19483	6.99193	4.49428	2.37415	2.45524	2.38425	2.15905	1.88607	1.52050	1.23433	8.59688	6.30833	4.37283
80690	0.77210	0.79595	0.50618	3.87960	3.55391	3.19785	6.98189	4.49670	2.37676	2.45803	2.38562	2.16086	1.88637	1.51915	1.23262	8.59905	6.30643	4.37090
80850	0.76868	0.79541	0.50513	3.87711	3.55042	3.19590	6.98446	4.49148	2.37426	2.45569	2.38306	2.15958	1.88850	1.52117	1.23413	8.60140	6.31063	4.37537
81020	0.77086	0.79732	0.50802	3.87934	3.55384	3.19941	6.98721	4.49562	2.37771	2.45999	2.38619	2.16190	1.88628	1.51702	1.23240	8.60366	6.30717	4.37153
81180	0.77120	0.79771	0.50834	3.88010	3.55338	3.19834	6.98065	4.49868	2.37874	2.45918	2.38632	2.16169	1.88482	1.52068	1.23545	8.59888	6.30938	4.37207
81340	0.77177	0.79537	0.50799	3.87841	3.55120	3.19729	6.99028	4.49528	2.37648	2.45862	2.38491	2.16140	1.88613	1.51668	1.23407	8.59610	6.30760	4.37102
81510	0.77402	0.80054	0.51102	3.88178	3.55577	3.20200	6.98794	4.49742	2.38028	2.46207	2.38912	2.16374	1.88668	1.52335	1.23709	8.60549	6.31167	4.37713
81670	0.77073	0.79652	0.50908	3.88130	3.55357	3.19923	6.98368	4.49443	2.37661	2.45948	2.38670	2.16183	1.88603	1.52113	1.23359	8.60705	6.31018	4.37510
81830	0.77257	0.79450	0.50620	3.88110	3.55294	3.19948	6.98078	4.49576	2.37565	2.46024	2.38631	2.16212	1.88278	1.52067	1.23231	8.59908	6.30987	4.37393	28.98	6.2	0.00	7.36	0.01272	0.01294	0.01642	0.00790	0.00588	0.00644	0.00471	0.01271	0.01688	0.00683	0.00703	0.00888	0.01494	0.01098	0.01200	0.00221	0.00627	0.00879
82000	0.77090	0.79514	0.50760	3.87899	3.55157	3.19763	6.97139	4.49321	2.37447	2.45945	2.38525	2.16095	1.88451	1.51935	1.23143	8.60221	6.31141	4.37633
82160	0.77151	0.79646	0.50896	3.88099	3.55190	3.19814	6.98687	4.49309	2.37663	2.45912	2.38645	2.16140	1.88388	1.52003	1.23280	8.59986	6.30987	4.37422
82330	0.77222	0.79618	0.50704	3.88008	3.55125	3.19784	6.98641	4.49053	2.37275	2.45860	2.38472	2.15968	1.88685	1.52033	1.23670	8.60177	6.31251	4.37792
82490	0.77573	0.79651	0.50938	3.88314	3.55403	3.19981	6.99031	4.49540	2.37847	2.46083	2.38670	2.16164	1.88493	1.51807	1.23168	8.59734	6.30984	4.37480
82650	0.77639	0.79875	0.50973	3.88420	3.55540	3.20292	6.99151	4.49798	2.38030	2.46272	2.38847	2.16286	1.88793	1.52293	1.23544	8.60125	6.31249	4.37702
82820	0.77366	0.79371	0.50883	3.88209	3.55147	3.19912	6.97262	4.49401	2.37532	2.45991	2.38735	2.16112	1.88270	1.51816	1.23201	8.59943	6.31145	4.37566
82980	0.77085	0.79469	0.50951	3.88097	3.55307	3.20023	6.99481	4.49658	2.37644	2.46059	2.38752	2.16274	1.88323	1.52058	1.23106	8.60047	6.31203	4.37473
83150	0.77246	0.79552	0.51129	3.88148	3.55568	3.20235	6.99311	4.50452	2.38187	2.46405	2.39065	2.16593	1.88812	1.52416	1.23481	8.61143	6.31626	4.37854
83310	0.77555	0.79806	0.51021	3.88408	3.55446	3.20115	6.99426	4.49566	2.37856	2.46094	2.38722	2.16273	1.88621	1.52026	1.23542	8.60264	6.31278	4.37639
83470	0.77322	0.79598	0.50760	3.88153	3.55385	3.20066	6.99906	4.49584	2.37859	2.45983	2.38686	2.16188	1.88497	1.51925	1.23297	8.60069	6.31156	4.37446	29.03	6.2	0.00	7.33	0.01272	0.01294	0.01642	0.00790	0.00588	0.00644	0.00471	0.01271	0.01688	0.00683	0.00703	0.00888	0.01494	0.01098	0.01200	0.00221	0.00627	0.00879
83640	0.77115	0.79261	0.50886	3.88004	3.55389	3.19871	6.98727	4.49221	2.37586	2.46023	2.38608	2.16050	1.88518	1.52244	1.23448	8.60260	6.31250	4.37590
83800	0.77464	0.79447	0.50863	3.88229	3.55451	3.19942	6.98851	4.49524	2.37697	2.46112	2.38655	2.16085	1.88690	1.52039	1.23437	8.60191	6.31163	4.37374
83960	0.77359	0.79425	0.50693	3.87972	3.55186	3.19810	6.99594	4.49357	2.37531	2.45931	2.38472	2.15872	1.88655	1.52046	1.23784	8.60504	6.31308	4.37705
84130	0.77425	0.79587	0.50997	3.88206	3.55475	3.20020	7.00030	4.49617	2.37817	2.46278	2.38771	2.16141	1.88674	1.51793	1.23490	8.60060	6.30993	4.37249
84290	0.77460	0.79583	0.51131	3.88099	3.55449	3.20045	7.00232	4.49620	2.37956	2.46258	2.38784	2.16277	1.88523	1.52124	1.23339	8.60399	6.31137	4.37415
84460	0.77424	0.79522	0.51016	3.88031	3.55347	3.19983	6.99860	4.49640	2.37880	2.46190	2.38876	2.16184	1.88769	1.52008	1.23397	8.60225	6.30988	4.37324
84620	0.77608	0.79808	0.51305	3.88326	3.55738	3.20394	7.00705	4.49992	2.38109	2.46418	2.39070	2.16446	1.88986	1.52317	1.23603	8.60625	6.31435	4.37719
84780	0.77520	0.79853	0.51081	3.88283	3.55539	3.20089	6.98452	4.49382	2.37744	2.46225	2.38614	2.16243	1.88621	1.52278	1.23617	8.60617	6.31392	4.37581
84950	0.77512	0.79770	0.50911	3.88174	3.55443	3.19937	6.99562	4.49622	2.37590	2.46222	2.38601	2.16178	1.88574	1.52116	1.23194	8.60634	6.31286	4.37564
85110	0.77451	0.79639	0.50957	3.88004	3.55291	3.19818	6.98890	4.49392	2.37642	2.46202	2.38569	2.16198	1.88437	1.51990	1.23062	8.60264	6.31130	4.37331	29.03	5.9	0.00	7.33	0.01272	0.01294	0.01642	0.00790	0.00588	0.00644	0.00471	0.01271	0.01688	0.00683	0.00703	0.00888	0.01494	0.01098	0.01200	0.00221	0.00627	0.00879
85270	0.77544	0.79816	0.51365	3.88535	3.55833	3.20353	6.99789	4.50388	2.38143	2.46836	2.39096	2.16625	1.88786	1.52271	1.23594	8.61196	6.31760	4.37851
85440	0.77598	0.79560	0.51179	3.88393	3.55654	3.20074	6.98184	4.49529	2.37958	2.46603	2.38884	2.16390	1.88842	1.52416	1.23468	8.60708	6.31531	4.37659
85600	0.77385	0.79704	0.51054	3.88197	3.55430	3.19997	6.98766	4.49524	2.37754	2.46459	2.38744	2.16324	1.88382	1.52038	1.23365	8.60351	6.31173	4.37514
85760	0.77376	0.79571	0.51055	3.88159	3.55408	3.19972	6.99211	4.49414	2.37699	2.46560	2.38788	2.16329	1.88443	1.52417	1.23529	8.60282	6.31428	4.37760
85930	0.77452	0.79522	0.51077	3.88243	3.55601	3.20195	6.98660	4.49360	2.37816	2.46615	2.38718	2.16299	1.88864	1.51805	1.23458	8.60404	6.31462	4.37674
86090	0.77494	0.79839	0.51029	3.88252	3.55477	3.20072	6.98729	4.49219	2.37605	2.46549	2.38734	2.16353	1.88607	1.52030	1.23465	8.60673	6.31577	4.37842
86260	0.77682	0.79849	0.51120	3.88392	3.55632	3.20187	6.99192	4.49620	2.37734	2.46631	2.38721	2.16324	1.88907	1.52153	1.23462	8.60769	6.31618	4.37889
86420	0.77682	0.79806	0.51109	3.88603	3.55765	3.20348	6.99041	4.49720	2.37942	2.46901	2.38923	2.16526	1.88678	1.52216	1.23483	8.60708	6.31527	4.37738
86590	0.77608	0.79635	0.50960	3.88434	3.55528	3.20190	6.98651	4.49479	2.37409	2.46570	2.38708	2.16326	1.88825	1.52494	1.23691	8.60743	6.31945	4.38289
86750	0.77916	0.79962	0.51253	3.89041	3.56145	3.20523	6.99475	4.49867	2.38274	2.47016	2.38989	2.16750	1.88782	1.52287	1.23622	8.60657	6.31763	4.38105	29.03	6.0	0.00	7.64	0.01272	0.01294	0.01642	0.00790	0.00588	0.00644	0.00471	0.01271	0.01688	0.00683	0.00702	0.00888	0.01494	0.01098	0.01200	0.00221	0.00627	0.00879
86910	0.77587	0.79595	0.51200	3.88767	3.55949	3.20406	6.99020	4.49513	2.37976	2.46818	2.38869	2.16633	1.88769	1.52111	1.23192	8.60239	6.31758	4.38038
87070	0.77435	0.79813	0.50885	3.88664	3.55846	3.20387	6.98681	4.49540	2.37704	2.46750	2.38601	2.16444	1.88673	1.51873	1.23045	8.60318	6.31465	4.37750
87240	0.77583	0.79556	0.50947	3.88446	3.55577	3.20103	6.97696	4.48943	2.37671	2.46568	2.38396	2.16297	1.88760	1.52397	1.23661	8.60866	6.32145	4.38311
87400	0.77757	0.79823	0.51208	3.89074	3.56120	3.20621	6.99039	4.49863	2.38309	2.47020	2.38751	2.16702	1.88742	1.52041	1.23626	8.60944	6.32035	4.38215
87560	0.77621	0.79638	0.51039	3.88651	3.55693	3.20257	6.98677	4.49703	2.37820	2.46665	2.38474	2.16303	1.89074	1.52502	1.23937	8.61423	6.32174	4.38321
87730	0.77901	0.79736	0.51370	3.88957	3.55893	3.20446	6.99071	4.49957	2.38220	2.46879	2.38537	2.16523	1.88740	1.52086	1.23895	8.60918	6.31765	4.37875
87890	0.77479	0.79244	0.50899	3.88443	3.55475	3.19972	6.98140	4.48984	2.37953	2.46659	2.38140	2.16272	1.88885	1.52315	1.23871	8.60805	6.31941	4.38219
88050	0.77779	0.79933	0.51134	3.88650	3.55622	3.20141	6.98406	4.49899	2.37844	2.46831	2.38386	2.16478	1.88338	1.51958	1.23635	8.60814	6.31542	4.37831
88220	0.77680	0.79827	0.51091	3.88375	3.55278	3.19847	6.98369	4.49167	2.37642	2.46551	2.38023	2.16154	1.88735	1.52433	1.23814	8.60805	6.31975	4.38188
88380	0.77966	0.80074	0.51262	3.88678	3.55763	3.20206	6.98982	4.49726	2.37873	2.46890	2.38349	2.16371	1.88939	1.52362	1.23620	8.60888	6.31612	4.37822	29.03	6.0	0.00	7.35	0.01272	0.01294	0.01642	0.00790	0.00588	0.00644	0.00471	0.01271	0.01688	0.00683	0.00702	0.00888	0.01494	0.01098	0.01200	0.00221	0.00627	0.00879
88550	0.77802	0.79802	0.51482	3.88591	3.55675	3.20261	6.99707	4.49715	2.38323	2.47032	2.38340	2.16379	1.89076	1.52317	1.23677	8.60983	6.31879	4.38106
88710	0.77676	0.79781	0.51265	3.88619	3.55522	3.20163	6.99606	4.49711	2.37932	2.46940	2.38229	2.16261	1.89040	1.52313	1.23581	8.61184	6.31739	4.37875
88870	0.77955	0.79991	0.51429	3.88737	3.55776	3.20281	6.99602	4.50271	2.38214	2.47132	2.38447	2.16445	1.88868	1.52205	1.23741	8.61140	6.31997	4.38084
89040	0.77829	0.79735	0.51142	3.88688	3.55500	3.20178	6.99106	4.49760	2.37787	2.46727	2.38301	2.16158	1.88664	1.52136	1.23266	8.60757	6.31629	4.37682
89200	0.77889	0.79920	0.51569	3.88872	3.55816	3.20397	6.99281	4.50252	2.38399	2.47244	2.38756	2.16496	1.89327	1.52467	1.23769	8.61628	6.32083	4.38295
89360	0.77843	0.79973	0.51303	3.88675	3.55532	3.20165	6.99418	4.49501	2.37907	2.46784	2.38551	2.16179	1.88885	1.52276	1.23709	8.61253	6.31999	4.38040
89530	0.77673	0.79660	0.51170	3.88516	3.55353	3.20048	6.99281	4.49649	2.37647	2.46570	2.38456	2.16081	1.88690	1.52134	1.23372	8.60905	6.31612	4.37826
89690	0.77760	0.80042	0.51315	3.88500	3.55526	3.20133	6.99753	4.49713	2.37770	2.46693	2.38524	2.16259	1.88946	1.51949	1.23723	8.60705	6.31518	4.37668
89850	0.77872	0.80095	0.51495	3.88921	3.56088	3.20617	7.00222	4.50501	2.38426	2.47032	2.39118	2.16606	1.89362	1.52640	1.24101	8.61619	6.32165	4.38198
90020	0.78006	0.79947	0.51353	3.88805	3.55817	3.20299	6.97868	4.50186	2.38044	2.46775	2.38712	2.16340	1.88840	1.52288	1.24023	8.60546	6.31751	4.37792	29.03	6.1	0.00	7.48	0.01272	0.01294	0.01642	0.00790	0.00588	0.00644	0.00471	0.01271	0.01688	0.00683	0.00702	0.00888	0.01494	0.01098	0.01200	0.00221	0.00627	0.00879
90180	0.77583	0.79844	0.51246	3.88505	3.55622	3.20291	6.98693	4.49769	2.38050	2.46698	2.38750	2.16260	1.88874	1.52146	1.23947	8.60834	6.31458	4.37675
90340	0.77931	0.79791	0.51317	3.88383	3.55595	3.20229	6.98698	4.49760	2.38245	2.46635	2.38718	2.16377	1.89013	1.52627	1.23936	8.60729	6.31888	4.37914
90510	0.78100	0.79837	0.51372	3.88456	3.55532	3.20168	6.98891	4.49554	2.37847	2.46472	2.38473	2.16106	1.88682	1.52252	1.23301	8.60790	6.31607	4.37546
90670	0.77646	0.79376	0.51078	3.88152	3.55355	3.19696	6.98473	4.49409	2.37362	2.46111	2.38224	2.15857	1.89235	1.52324	1.24186	8.61295	6.32237	4.38160
90840	0.78304	0.80122	0.51587	3.88910	3.55998	3.20332	7.00713	4.50245	2.38272	2.46757	2.38712	2.16332	1.89124	1.52758	1.24182	8.60790	6.32042	4.37935
91000	0.77918	0.79966	0.51515	3.88532	3.55780	3.20222	6.99152	4.50303	2.38152	2.46678	2.38688	2.16378	1.89346	1.52397	1.23802	8.60869	6.31848	4.37922
91160	0.77786	0.79615	0.51329	3.88447	3.55513	3.20027	6.98180	4.49636	2.37688	2.46376	2.38297	2.16079	1.88684	1.52017	1.23615	8.60164	6.31359	4.37563
91320	0.77672	0.79614	0.51371	3.88515	3.55676	3.20184	6.97978	4.49837	2.37972	2.46483	2.38448	2.16128	1.88958	1.52354	1.23771	8.60225	6.31581	4.37730
91490	0.77672	0.79463	0.51281	3.88281	3.55400	3.19888	6.99840	4.49279	2.37711	2.46092	2.38191	2.15857	1.88675	1.52286	1.23478	8.59685	6.31239	4.37522
91650	0.77581	0.79166	0.51139	3.88006	3.55014	3.19478	6.98507	4.49042	2.37171	2.45854	2.37927	2.15453	1.88686	1.52364	1.23810	8.60195	6.31696	4.37881	29.03	6.1	0.00	7.39	0.01272	0.01294	0.01642	0.00790	0.00588	0.00644	0.00471	0.01271	0.01688	0.00683	0.00702	0.00888	0.01494	0.01098	0.01200	0.00221	0.00627	0.00879
91820	0.77973	0.79700	0.51361	3.88517	3.55546	3.19939	6.99722	4.49547	2.37859	2.46206	2.38302	2.15810	1.88526	1.52119	1.23611	8.60221	6.31227	4.37575
91980	0.77929	0.79635	0.51585	3.88586	3.55730	3.20006	6.98200	4.49806	2.37817	2.46248	2.38316	2.15872	1.88688	1.52222	1.23744	8.60726	6.31586	4.37927
92140	0.77836	0.79780	0.51377	3.88547	3.55486	3.19863	6.99006	4.49728	2.37924	2.46176	2.38254	2.15822	1.88725	1.51994	1.23753	8.60595	6.31268	4.37466
92310	0.77942	0.79678	0.51599	3.88481	3.55789	3.20184	6.99516	4.50404	2.38380	2.46472	2.38431	2.16165	1.89633	1.52934	1.23913	8.60961	6.31672	4.37725
92470	0.76358	0.72842	0.41257	3.88183	3.55324	3.19571	5.52938	4.03796	2.10449	2.46013	2.37942	2.15631	1.60478	1.15786	0.92204	8.60204	6.31254	4.37296
92630	0.54419	0.56624	0.32643	3.88217	3.55554	3.19755	5.26216	3.94640	2.04566	2.46246	2.38104	2.15809	1.53404	1.07021	0.84650	8.60499	6.31465	4.37548
92800	0.47421	0.49987	0.27755	3.88012	3.55138	3.19372	5.20529	3.99216	2.09018	2.45941	2.37957	2.15691	1.58538	1.13460	0.90012	8.60334	6.31203	4.37396
92960	0.51849	0.54825	0.31802	3.88213	3.55251	3.19880	5.45609	4.06442	2.13169	2.46365	2.38228	2.16111	1.63001	1.19683	0.95810	8.61326	6.31838	4.37757
93120	0.56237	0.59034	0.35356	3.88061	3.55026	3.19565	5.77851	4.15266	2.17633	2.45961	2.37973	2.15816	1.67982	1.21472	0.91940	8.60708	6.31432	4.37573
93290	0.62276	0.43624	-0.13511	3.88064	3.55185	3.19723	-2.40286	-2.09001	-3.41295	2.46019	2.38187	2.15881	-4.51002	-7.38968	-6.21868	8.60947	6.32100	4.38276	29.03	6.1	0.00	7.41	0.01272	0.01294	0.01642	0.00790	0.00588	0.00644	0.00471	0.01271	0.01688	0.00683	0.00702	0.00888	0.01494	0.01098	0.01200	0.00221	0.00627	0.00878
93450	-4.82177	-4.48837	-2.38931	3.88454	3.55411	3.19995	-17.02113	-6.23227	-2.53132	2.46462	2.38826	2.16401	-2.68680	-5.56646	-4.39546	8.61513	6.32709	4.38839
93610	-2.99855	-2.66516	-0.56610	3.89344	3.56557	3.20886	-15.19791	-4.40905	-0.70811	2.46889	2.38618	2.15995	-0.86359	-3.74325	-2.57225	8.61234	6.31901	4.38199
93780	-1.17534	-0.84194	1.25711	3.88491	3.55462	3.19749	-13.37470	-2.58584	1.11510	2.46296	2.38831	2.15968	0.95962	-1.92004	-0.74904	8.61156	6.32211	4.38209
93940	0.64788	0.98127	3.08033	3.88785	3.55921	3.19927	-11.55149	-0.76263	2.93832	2.46343	2.38712	2.16153	2.78284	-0.09683	1.07418	8.62472	6.33138	4.39315
94110	2.47109	2.80448	4.90354	3.90255	3.57843	3.22168	-9.72828	1.06058	4.76153	2.48402	2.40578	2.17842	4.60604	1.72638	2.89738	8.63763	6.34093	4.40240
94270	4.29430	4.62770	6.72675	3.90162	3.56832	3.21456	-7.90506	2.88380	6.58475	2.47426	2.39590	2.17123	6.42926	3.54960	4.72060	8.62489	6.33285	4.39206
94430	6.11752	6.45091	8.54997	3.89629	3.56813	3.21405	-6.39803	4.39083	8.09177	2.47611	2.39793	2.17113	6.54872	23.46346	11.79006	8.62018	6.32900	4.38981
94600	7.94073	8.27412	10.37318	3.89550	3.56583	3.20868	-4.57482	6.21404	9.91499	2.46958	2.39385	2.16563	7.58056	4.70090	5.87190	8.61983	6.32876	4.38754
94760	9.76394	10.09733	12.19639	3.89413	3.56545	3.21104	-2.75161	8.03725	11.73819	2.47227	2.39348	2.16624	9.40377	6.52411	7.69511	8.61914	6.32784	4.38865
94920	11.58696	11.92060	14.01961	3.89173	3.56065	3.20779	-0.92914	9.86062	13.56107	2.46925	2.39119	2.16595	11.22663	8.34693	9.51776	8.61861	6.33024	4.39124	28.98	6.1	0.00	6.76	0.01272	0.01294	0.01642	0.00790	0.00588	0.00644	0.00471	0.01271	0.01688	0.00683	0.00702	0.00888	0.01494	0.01098	0.01199	0.00221	0.00627	0.00878
95090	13.41019	13.74382	15.84284	3.89558	3.56780	3.21241	0.89406	11.68381	15.38426	2.47377	2.39544	2.16896	13.04984	10.17014	11.34098	8.61896	6.32988	4.38990
95250	15.23337	15.56701	17.66602	3.89276	3.56253	3.20778	2.71726	13.50702	17.20747	2.47051	2.38973	2.16402	14.87304	11.99334	13.16417	8.61652	6.32923	4.38949
95420	17.05658	17.39022	19.48923	3.89279	3.56247	3.20779	4.54048	15.33023	19.03068	2.47194	2.39241	2.16752	16.69624	13.81654	14.98737	8.61696	6.32728	4.38913
95580	18.87977	19.21340	21.31242	3.89567	3.56729	3.21260	6.36367	17.15343	20.85388	2.47644	2.39667	2.17106	18.51945	15.63975	16.81059	8.62106	6.33113	4.39203
95740	20.70297	21.03660	23.13562	3.89613	3.56546	3.21016	8.18686	18.97662	22.67707	2.47327	2.39278	2.16714	20.34262	17.46292	18.63375	8.61452	6.32487	4.38612
95910	22.52616	22.85980	24.95881	3.89321	3.56337	3.20993	10.01001	20.79977	24.50022	2.47263	2.39187	2.16776	22.16584	19.28614	20.45698	8.61539	6.32627	4.38725
96070	24.34932	24.68296	26.78197	3.89134	3.56033	3.20815	11.83322	22.62297	26.32342	2.47179	2.39044	2.16740	23.98900	21.10930	22.28014	8.61435	6.32340	4.38633
96230	26.17252	26.50616	28.60517	3.88965	3.56036	3.20696	13.65637	24.44613	28.14658	2.46944	2.38881	2.16412	25.81219	22.93249	24.10333	8.61905	6.32790	4.39012
96390	27.99572	28.32936	30.42837	3.89387	3.56251	3.20922	15.47954	26.26929	29.96974	2.47286	2.39144	2.16781	27.63538	24.75568	25.92651	8.61539	6.32345	4.38438
96560	29.81910	30.15263	32.25132	3.88834	3.55721	3.20333	17.30220	28.09218	31.79228	2.46930	2.38642	2.16473	29.45823	26.57863	27.74909	8.61593	6.32616	4.38860	29.03	6.1	0.00	6.84	0.01272	0.01294	0.01642	0.00790	0.00588	0.00644	0.00471	0.01271	0.01688	0.00683	0.00702	0.00888	0.01494	0.01098	0.01199	0.00221	0.00627	0.00878
96720	31.64219	31.97572	34.07442	3.89295	3.56291	3.20789	19.12541	29.91540	33.61550	2.47243	2.39113	2.16658	31.28140	28.40180	29.57226	8.61184	6.32231	4.38435
96890	33.46538	33.79891	35.89760	3.89160	3.56255	3.20966	20.94850	31.73849	35.43859	2.47220	2.39197	2.16697	33.10453	30.22494	31.39540	8.61062	6.32486	4.38574
97050	35.28845	35.62199	37.72068	3.89181	3.56109	3.20771	22.77164	33.56163	37.26173	2.47181	2.39034	2.16708	34.92753	32.04793	33.21839	8.61010	6.32248	4.38408
97210	37.11150	37.44504	39.54373	3.89414	3.56481	3.21022	24.59464	35.38463	39.08472	2.47373	2.39399	2.16790	36.75074	33.87115	35.04161	8.61559	6.32854	4.38661
97380	38.93477	39.26830	41.36699	3.89124	3.56301	3.20574	26.41775	37.20774	40.90783	2.46931	2.39120	2.16455	38.57373	35.69413	36.86459	8.61210	6.32488	4.38398
97540	40.75774	41.09128	43.18997	3.89092	3.56216	3.20482	28.24096	39.03095	42.73105	2.46934	2.39132	2.16449	40.39667	37.51707	38.68753	8.61175	6.32310	4.38203
97710	42.58074	42.91428	45.01297	3.88855	3.56321	3.20544	30.06364	40.85363	44.55373	2.47048	2.39131	2.16460	42.21962	39.34002	40.51048	8.61376	6.32577	4.38305
97870	44.40379	44.73732	46.83601	3.88833	3.56039	3.20193	31.88676	42.67675	46.37685	2.46739	2.38731	2.16120	44.04291	41.16332	42.33378	8.60810	6.31939	4.37941
98030	46.22669	46.56022	48.65891	3.88535	3.55975	3.20329	33.70965	44.49964	48.19973	2.47079	2.39084	2.16412	45.86593	42.98634	44.15680	8.61515	6.32380	4.38270
98200	48.04964	48.38326	50.48181	3.88841	3.55912	3.20255	35.53298	46.32273	50.02268	2.46696	2.38780	2.16052	47.68803	44.80837	45.97882	8.61421	6.32182	4.38229	29.03	6.1	0.00	6.49	0.01272	0.01294	0.01642	0.00790	0.00588	0.00644	0.00471	0.01271	0.01688	0.00683	0.00702	0.00888	0.01494	0.01098	0.01199	0.00221	0.00627	0.00878
98360	49.87286	50.20648	52.30503	3.88713	3.55897	3.20062	37.35540	48.14515	51.84510	2.46713	2.38743	2.16038	49.51124	46.63159	47.80203	8.60863	6.31814	4.37793
98520	51.69553	52.02915	54.12771	3.88188	3.55474	3.19695	39.17842	49.96817	53.66813	2.46371	2.38393	2.15763	51.33413	48.45447	49.62492	8.61133	6.31978	4.37952
98690	53.51746	53.85108	55.94963	3.88395	3.55639	3.19860	41.00095	51.79070	55.49065	2.46576	2.38662	2.15897	53.15616	50.27650	51.44694	8.60933	6.31699	4.37785
98850	55.34041	55.67403	57.77259	3.88182	3.55338	3.19646	42.82361	53.61336	57.31332	2.46325	2.38336	2.15666	54.97961	52.09995	53.27040	8.61133	6.32043	4.38036
99020	57.16332	57.49694	59.59549	3.88447	3.55711	3.19934	44.64584	55.43559	59.13554	2.46554	2.38598	2.15899	56.80083	53.92117	55.09161	8.60820	6.31480	4.37671
99180	58.98430	59.31792	61.41648	3.88399	3.55761	3.19929	46.46826	57.25801	60.95797	2.46541	2.38751	2.16007	58.62267	55.74302	56.91346	8.60881	6.31727	4.37865
99340	60.80797	61.14159	63.24014	3.88337	3.55613	3.19700	48.29100	59.08075	62.78071	2.46339	2.38481	2.15710	60.44466	57.56500	58.73544	8.60776	6.31838	4.37938
99510	62.63011	62.96373	65.06228	3.88432	3.55662	3.19814	50.11308	60.90283	64.60278	2.46325	2.38685	2.15805	62.26689	59.38723	60.55767	8.60672	6.31465	4.37705
99670	64.45076	64.78438	66.88293	3.88139	3.55504	3.19516	51.93219	62.72194	66.42189	2.46118	2.38431	2.15508	64.08774	61.20808	62.37852	8.60742	6.31894	4.38014
99840	66.27193	66.60557	68.70408	3.88675	3.55997	3.19901	53.75492	64.54442	68.24484	2.46386	2.38816	2.15862	65.91131	63.03200	64.20234	8.60473	6.31567	4.37662	28.98	5.9	0.00	6.83	0.01272	0.01294	0.01642	0.00790	0.00588	0.00644	0.00471	0.01271	0.01688	0.00683	0.00702	0.00888	0.01494	0.01098	0.01199	0.00221	0.00627	0.00878
100000	68.09329	68.42693	70.52544	3.88570	3.56009	3.20129	55.57617	66.36567	70.06609	2.46525	2.39014	2.16064	67.73197	64.85266	66.02300	8.61118	6.32050	4.38118
100160	69.91429	70.24793	72.34644	3.88558	3.55918	3.19957	57.39229	68.18179	71.88221	2.46335	2.38801	2.15908	69.55314	66.67383	67.84417	8.60534	6.31718	4.37824
100330	71.73484	72.06848	74.16699	3.88318	3.55760	3.19788	59.21409	70.00359	73.70401	2.46187	2.38759	2.15716	71.36901	68.48970	69.66004	8.61335	6.31685	4.37702
100490	73.55167	73.88531	75.98382	3.88288	3.55702	3.19742	61.03731	71.82681	75.52723	2.46036	2.38761	2.15639	73.19369	70.31438	71.48473	8.60256	6.31418	4.37488
100650	75.37488	75.70852	77.80704	3.88541	3.56146	3.20173	62.85644	73.64594	77.34636	2.46499	2.39105	2.15908	75.00633	72.12702	73.29736	8.61179	6.32000	4.38077
100820	77.18432	77.51796	79.61647	3.88503	3.55834	3.19734	64.66254	75.45204	79.15246	2.46086	2.38853	2.15652	76.82110	73.94178	75.11213	8.61754	6.32327	4.38335
100980	79.00753	79.34117	81.43968	3.89001	3.56361	3.20294	66.47403	77.26353	80.96395	2.46332	2.39248	2.15910	78.63671	75.75740	76.92774	8.61153	6.32373	4.38311
101140	80.81423	81.14787	83.24638	3.88730	3.55982	3.20001	68.30076	79.09026	82.79068	2.45952	2.38839	2.15713	80.44777	77.56846	78.73881	8.61231	6.31990	4.38302
101300	82.63349	82.96713	85.06564	3.88654	3.55772	3.19978	70.09869	80.88819	84.58861	2.46094	2.38758	2.15788	82.26007	79.38076	80.55110	8.60595	6.31237	4.37632
101470	84.40516	84.74080	86.83983	3.77851	3.44799	3.08818	71.89550	82.68654	86.38784	2.36956	2.29569	2.07313	84.05050	81.17226	82.34306	8.47784	6.19168	4.26534	29.03	5.9	0.00	7.14	0.01270	0.01292	0.01639	0.00783	0.00582	0.00639	0.00469	0.01268	0.01684	0.00678	0.00697	0.00881	0.01490	0.01095	0.01197	0.00219	0.00620	0.00869
101640	86.20567	86.54132	88.64034	3.79905	3.48377	3.13319	73.68241	84.47346	88.17475	2.41546	2.33742	2.12292	85.85279	82.97456	84.14535	8.56656	6.28221	4.33930
101810	88.02888	88.36453	90.46356	3.87365	3.54715	3.17756	75.50563	86.29668	89.99797	2.47343	2.39679	2.20325	87.66974	84.79150	85.96230	8.72173	6.42810	4.49063
101980	89.81137	90.14702	92.24604	4.01402	3.70564	3.33828	77.31147	88.10252	91.80381	2.61683	2.54288	2.35053	89.47793	86.59969	87.77049	17.33672	22.56126	26.64701
102150	91.62483	91.96048	94.05951	35.41374	36.66058	37.55431	79.07238	89.86343	93.56472	45.18674	36.68559	61.04310	91.30114	88.42291	89.59370	67.49037	71.68435	57.92318
102320	18.02922	18.36487	20.46390	76.26838	82.73205	88.45031	129.88642	140.67747	144.37876	86.05850	87.52077	64.61340	143.50470	140.62647	141.79726	16.28253	22.05731	23.81794
102480	26.98022	19.19196	21.29099	15.78015	8.52112	2.64613	1.78557	12.57662	16.27791	1.14836	1.74443	1.78780	15.59289	12.71466	13.88545	1.87746	2.08090	2.06327
102640	16.19012	16.52576	18.62479	2.27143	2.53041	2.57389	129.88642	140.67747	144.37876	3.87379	5.12269	3.59197	143.50470	140.62647	141.79726	4.56563	4.41413	3.81483
102810	143.04147	143.37712	145.47614	3.28805	3.18606	2.95831	129.88642	140.67747	144.37876	2.12497	2.45095	1.43478	143.50470	140.62647	141.79726	2.26113	2.54978	2.55521
102970	13.45244	9.66684	9.59695	2.62821	2.71250	2.60567	129.88642	14.87497	7.36907	1.96307	2.27731	1.34140	6.87752	9.99513	7.71769	2.19984	2.48541	2.49533
103130	5.63640	5.74412	7.67552	2.46837	2.56044	2.46622	129.87422	10.83398	6.38983	1.85545	2.17071	1.24002	7.01911	10.59139	9.40270	2.03290	2.32191	2.34639	29.03	6.2	0.00	7.36	0.01269	0.01293	0.01639	0.00775	0.00577	0.00633	0.00469	0.01266	0.01682	0.00673	0.00693	0.00876	0.01489	0.01095	0.01196	0.00217	0.00614	0.00862
103290	7.57573	7.45778	5.96480	2.41304	2.50979	2.41522	129.87422	11.40353	6.45063	1.82443	2.13476	1.22013	6.86929	11.99438	9.63069	2.00531	2.28676	2.30440
103440	7.41201	7.25013	4.63557	2.36209	2.45912	2.36728	129.87422	11.07418	6.32267	1.78258	2.09300	1.17627	6.70820	10.20073	8.54721	1.92670	2.20949	2.23925
103600	6.49813	7.01254	4.16481	2.30951	2.40901	2.31686	129.87422	10.34662	6.15102	1.76422	2.05968	1.18562	6.64145	9.76320	8.41521	1.87857	2.16968	2.21076
103750	5.91028	6.81661	3.93235	2.27762	2.37877	2.28468	129.87422	9.58843	5.25360	1.71636	2.02629	1.14312	5.21377	6.77651	5.31035	1.87549	2.17996	2.23181
103890	3.50565	3.19891	2.33151	2.32770	2.43468	2.34812	6.79669	1.35590	1.28581	1.79375	2.11616	1.24390	0.61991	-1.55568	-1.08871	2.05484	2.35981	2.40021
104040	0.27072	0.61420	2.70943	2.48237	2.56626	2.45422	-4.60292	-1.53459	1.59958	1.87485	2.26095	1.37380	0.93330	-1.28612	-0.77532	2.09650	2.40444	2.47223
104200	0.53506	0.87854	2.97377	2.62178	2.81282	2.73141	-2.96087	-1.29600	2.32040	2.17371	2.51172	1.41244	2.13949	-0.73801	0.43087	2.06989	2.36704	2.40119
104350	1.67392	2.01740	4.11263	2.49213	2.59120	2.47497	-9.62309	-0.34533	3.35792	1.83583	2.17859	1.21920	3.41791	0.54040	1.70929	2.00026	2.28614	2.30013
104510	2.91538	3.25886	5.35409	2.34514	2.43692	2.33257	-9.31455	1.47788	5.18114	1.71550	2.04323	1.11295	5.24111	2.36361	3.53250	1.86118	2.13777	2.15788
104670	4.74597	5.09124	7.18497	2.26022	2.34813	2.23999	-7.47914	3.31238	7.01476	1.63991	1.98860	1.04395	7.07561	4.19804	5.36658	1.75112	2.04991	2.08456	29.03	6.4	0.00	6.80	0.01270	0.01294	0.01640	0.00780	0.00580	0.00636	0.00469	0.01268	0.01684	0.00676	0.00697	0.00881	0.01491	0.01096	0.01197	0.00218	0.00618	0.00867
104830	6.56918	6.91445	9.00818	2.15738	2.26408	2.19907	-5.65593	5.13559	8.83797	1.57438	2.00270	0.98096	8.89882	6.02125	7.18978	1.60191	1.90488	1.94740
105000	8.39239	8.73767	10.83140	1.99575	2.10854	2.08395	-3.83271	6.95881	10.66118	1.50981	1.93776	0.94407	10.72202	7.84445	9.01299	1.51792	1.83094	1.88315
105170	10.21559	10.56087	12.65460	1.97197	2.05496	1.98958	-2.00952	8.78200	12.48438	1.42821	1.79560	0.84766	12.54523	9.66766	10.83619	1.45899	1.75306	1.81376
105330	12.03880	12.38408	14.47781	1.87802	1.98532	1.90706	-0.18631	10.60521	14.30759	1.37006	1.70747	0.80245	14.36844	11.49086	12.65940	1.41282	1.71364	1.77820
105500	13.86200	14.20728	16.30101	1.84827	1.95775	1.90075	1.63691	12.42843	16.13081	1.39677	1.70952	0.80405	16.19164	13.31406	14.48260	1.40551	1.70781	1.77315
105670	15.68521	16.03049	18.12422	1.84533	1.95699	1.88320	3.46010	14.25162	17.95399	1.35871	1.68089	0.78937	18.01484	15.13726	16.30580	1.39783	1.69656	1.76329
105840	17.50842	17.85370	19.94743	1.83402	1.94748	1.87070	5.28331	16.07482	19.77720	1.35606	1.68099	0.78904	19.83804	16.96046	18.12900	1.39654	1.69311	1.75892
106010	19.33160	19.67687	21.77060	1.82944	1.94110	1.86561	7.10649	17.89801	21.60039	1.34687	1.66982	0.78163	21.66123	18.78365	19.95219	1.38458	1.68156	1.74811
106170	21.15481	21.50009	23.59382	1.81834	1.93090	1.85551	8.92971	19.72122	23.42360	1.33638	1.66017	0.77519	23.48440	20.60682	21.77536	1.37601	1.67170	1.73963
106340	22.99155	23.33851	25.43040	1.87324	1.98490	1.90645	10.77124	21.56132	25.26266	1.37996	1.70693	0.81752	25.32360	22.44575	23.61371	1.44107	1.73507	1.79534	29.03	6.1	0.00	6.95	0.01272	0.01296	0.01643	0.00784	0.00584	0.00640	0.00470	0.01270	0.01687	0.00679	0.00701	0.00885	0.01493	0.01098	0.01199	0.00220	0.00623	0.00872
106500	24.81474	25.16170	27.25359	1.86594	1.97614	1.89776	12.59442	23.38450	27.08583	1.37321	1.69774	0.81168	27.14673	24.26888	25.43684	1.43153	1.72685	1.78824
106660	26.63793	26.98489	29.07678	1.85870	1.96773	1.89154	12.72040	23.51047	27.21181	1.36723	1.69183	0.80514	21.46745	18.58960	19.75756	1.43358	1.72734	1.78847
106830	18.53434	18.88130	20.97319	1.85876	1.96611	1.88992	129.90482	13.74491	17.32767	1.36681	1.68922	0.80509	14.45281	16.85664	13.19393	1.42529	1.72150	1.78255
106990	14.18750	14.53446	16.62635	1.85237	1.96230	1.88594	129.90482	10.27647	13.97781	1.36520	1.68724	0.80348	16.27602	13.39816	14.56612	1.42401	1.71769	1.77932
107160	16.01070	16.35766	18.44955	1.85071	1.96012	1.88333	1.30960	12.09968	15.80101	1.36020	1.68465	0.80060	18.09923	15.22138	16.38934	1.42179	1.71396	1.77574
107320	17.83391	18.18088	20.27277	1.84838	1.95996	1.88365	3.13282	13.92289	17.62423	1.36144	1.68535	0.80084	19.92240	17.04455	18.21251	1.42384	1.71627	1.77778
107480	19.65709	20.00406	22.09595	1.84819	1.95751	1.88050	4.95602	15.74610	19.44743	1.35835	1.68241	0.79748	21.74559	18.86773	20.03569	1.41850	1.71340	1.77373
107650	21.48029	21.82726	23.91915	1.84900	1.95979	1.88239	6.77921	17.56929	21.27063	1.35852	1.68224	0.79679	23.56877	20.69092	21.85888	1.42106	1.71584	1.77597
107810	23.30350	23.65046	25.74235	1.84592	1.95446	1.87761	8.60238	19.39246	23.09380	1.35526	1.68066	0.79542	25.39195	22.51410	23.68206	1.41615	1.71036	1.77121
107970	25.13734	25.48664	27.57647	1.88923	1.99967	1.91977	10.43952	21.22927	24.92964	1.39299	1.72087	0.83370	27.22767	24.35033	25.51679	1.47125	1.76464	1.81899	29.03	6.2	0.00	6.76	0.01273	0.01297	0.01644	0.00788	0.00586	0.00642	0.00471	0.01272	0.01689	0.00682	0.00704	0.00888	0.01495	0.01099	0.01200	0.00221	0.00626	0.00876
108140	26.96051	27.30981	29.39964	1.88915	1.99735	1.91667	12.26271	23.05246	26.75283	1.38814	1.71707	0.82931	29.05089	26.17355	27.34001	1.46737	1.76041	1.81575
108300	28.78367	29.13297	31.22280	1.88639	1.99613	1.91540	14.08585	24.87559	28.57597	1.38823	1.71673	0.82828	30.87406	27.99672	29.16318	1.46579	1.75833	1.81361
108460	30.60687	30.95616	33.04599	1.88488	1.99321	1.91199	15.90899	26.69873	30.39911	1.38528	1.71523	0.82691	32.69717	29.81983	30.98629	1.46814	1.76062	1.81554
108630	32.43003	32.77933	34.86916	1.88658	1.99492	1.91339	17.73214	28.52188	32.22226	1.38660	1.71630	0.82749	34.52036	31.64302	32.80948	1.46574	1.75793	1.81285
108790	34.25306	34.60235	36.69219	1.88334	1.99221	1.91099	19.55536	30.34510	34.04548	1.38404	1.71390	0.82472	36.34350	33.46616	34.63262	1.46596	1.75960	1.81585
108960	36.07620	36.42549	38.51533	1.88566	1.99414	1.91307	21.37851	32.16825	35.86863	1.38552	1.71331	0.82564	38.16645	35.28911	36.45557	1.46195	1.75568	1.81138
109120	37.89941	38.24871	40.33854	1.88637	1.99459	1.91407	23.20157	33.99131	37.69169	1.38567	1.71571	0.82727	39.98967	37.11233	38.27879	1.46468	1.75859	1.81315
109280	39.72236	40.07165	42.16149	1.88342	1.99126	1.91165	25.02464	35.81439	39.51477	1.38365	1.71126	0.82368	41.81244	38.93510	40.10156	1.46365	1.75659	1.81231
109450	41.54557	41.89487	43.98470	1.88249	1.99122	1.91138	26.84758	37.63732	41.33770	1.38273	1.71158	0.82282	43.63565	40.75831	41.92477	1.46246	1.75608	1.81066
109610	43.37815	43.73024	45.81730	1.91178	2.01924	1.93771	28.68162	39.47133	43.17153	1.40543	1.73735	0.84566	45.46892	42.59160	43.75702	1.49876	1.79051	1.84278	29.03	6.1	0.00	6.77	0.01274	0.01299	0.01646	0.00790	0.00588	0.00644	0.00471	0.01273	0.01691	0.00683	0.00705	0.00890	0.01497	0.01100	0.01201	0.00221	0.00628	0.00879
109780	45.20099	45.55308	47.64015	1.91354	2.02027	1.93939	30.50435	41.29407	44.99427	1.40694	1.73870	0.84774	47.29191	44.41460	45.58001	1.49889	1.79158	1.84212
109940	47.02420	47.37630	49.46336	1.91458	2.02170	1.94078	32.32757	43.11728	46.81748	1.40914	1.74031	0.84785	49.11473	46.23742	47.40283	1.49821	1.78967	1.84038
110110	48.84648	49.19857	51.28563	1.91192	2.01982	1.93890	34.15055	44.94027	48.64047	1.40643	1.73905	0.84711	50.93716	48.05984	49.22526	1.49637	1.78865	1.83970
110270	50.66969	51.02179	53.10885	1.91112	2.01808	1.93725	35.97294	46.76265	50.46285	1.40451	1.73720	0.84494	52.75999	49.88268	51.04809	1.49385	1.78547	1.83657
110430	52.49252	52.84462	54.93168	1.90869	2.01832	1.93676	37.79615	48.58587	52.28607	1.40576	1.73733	0.84533	54.58298	51.70566	52.87108	1.49663	1.78825	1.83858
110600	54.31434	54.66643	56.75350	1.90886	2.01648	1.93426	39.61857	50.40829	54.10849	1.40039	1.73381	0.84110	56.40510	53.52778	54.69320	1.49223	1.78582	1.83688
110760	56.13672	56.48881	58.57587	1.90911	2.01529	1.93404	41.44155	52.23126	55.93146	1.40078	1.73351	0.84126	58.22667	55.34936	56.51477	1.49223	1.78524	1.83551
110930	57.95859	58.31069	60.39775	1.90592	2.01331	1.93093	43.26304	54.05276	57.75296	1.39777	1.73082	0.83829	60.05028	57.17297	58.33838	1.49321	1.78810	1.83946
111090	59.78181	60.13390	62.22096	1.90949	2.01664	1.93391	45.08488	55.87460	59.57479	1.40023	1.73175	0.84046	61.87113	58.99382	60.15923	1.49326	1.78443	1.83525
111250	61.61032	61.96558	64.05009	1.93132	2.03961	1.95516	46.91621	57.70598	61.40568	1.42050	1.75426	0.85970	63.70208	60.82475	61.98903	1.51823	1.81035	1.85812	29.03	6.2	0.00	6.72	0.01275	0.01300	0.01647	0.00792	0.00589	0.00645	0.00472	0.01274	0.01692	0.00684	0.00707	0.00892	0.01498	0.01101	0.01202	0.00222	0.00629	0.00881
111420	63.43065	63.78590	65.87041	1.93001	2.03612	1.95114	48.73893	59.52870	63.22840	1.41609	1.75110	0.85550	65.52257	62.64525	63.80952	1.51448	1.80806	1.85688
111580	65.25386	65.60911	67.69363	1.92836	2.03497	1.95046	50.56155	61.35132	65.05102	1.41619	1.75142	0.85630	67.34497	64.46765	65.63192	1.51559	1.80748	1.85581
111750	67.07208	67.42733	69.51185	1.92713	2.03336	1.94831	52.38120	63.17096	66.87067	1.41304	1.74938	0.85346	69.16721	66.28988	67.45416	1.51747	1.80947	1.85838
111910	68.89230	69.24755	71.33206	1.92963	2.03565	1.95098	54.20355	64.99332	68.69303	1.41572	1.75103	0.85597	70.98690	68.10957	69.27385	1.51738	1.80697	1.85449
112070	70.71551	71.07076	73.15528	1.92843	2.03610	1.95208	56.02472	66.81448	70.51419	1.41663	1.75098	0.85594	72.80729	69.92997	71.09424	1.51542	1.80874	1.85609
112240	72.53297	72.88822	74.97274	1.92791	2.03376	1.94991	57.84546	68.63523	72.33494	1.41462	1.74868	0.85295	74.62036	71.74303	72.90731	1.51503	1.80688	1.85462
112400	74.35446	74.70971	76.79423	1.92717	2.03426	1.94959	59.66572	70.45549	74.15520	1.41451	1.74872	0.85289	76.43952	73.56219	74.72647	1.51260	1.80627	1.85400
112570	76.16526	76.52052	78.60503	1.92474	2.03130	1.94639	61.48007	72.26984	75.96954	1.41217	1.74699	0.85114	78.26274	75.38541	76.54969	1.51474	1.80915	1.85595
112730	77.98352	78.33877	80.42329	1.92800	2.03460	1.95000	63.29478	74.08455	77.78425	1.41364	1.74894	0.85309	80.06554	77.18821	78.35248	1.51243	1.80651	1.85323
112900	79.81299	80.17161	82.25352	1.94343	2.05048	1.96514	65.11701	75.90556	79.60438	1.42695	1.76438	0.86716	81.88900	79.01211	80.17530	1.53360	1.82463	1.87151	29.03	6.2	0.00	6.73	0.01276	0.01302	0.01649	0.00793	0.00590	0.00646	0.00472	0.01275	0.01693	0.00685	0.00708	0.00893	0.01499	0.01102	0.01203	0.00222	0.00630	0.00882
113060	81.62907	81.98768	84.06959	1.94151	2.04839	1.96188	66.94023	77.72877	81.42760	1.42294	1.76224	0.86489	83.69964	80.82276	81.98595	1.53172	1.82312	1.86928
113220	83.43089	83.78951	85.87142	1.94198	2.04773	1.96191	68.74511	79.53366	83.23248	1.42442	1.76268	0.86445	85.51281	82.63593	83.79912	1.53100	1.82129	1.86774
113390	85.25411	85.61272	87.69463	1.94061	2.05048	1.96765	70.54637	81.33492	85.03374	1.42859	1.76519	0.86872	87.32399	84.44710	85.61029	1.53663	1.82759	1.87385
113550	87.03434	87.39295	89.47487	1.94284	2.04953	1.96391	72.35907	83.14761	86.84644	1.42505	1.76123	0.86449	89.13999	86.26310	87.42629	1.53415	1.82602	1.87121
113710	88.84286	89.20147	91.28339	1.94216	2.04821	1.96247	74.15079	84.93933	88.63816	1.42321	1.76005	0.86353	90.93726	88.06038	89.22356	1.53087	1.82146	1.86806
113880	90.62212	90.98073	93.06265	1.93903	2.04547	1.95935	75.96646	86.75500	90.45383	1.42052	1.75735	0.86078	92.68820	89.81132	90.97450	1.53594	1.82678	1.87228
114040	92.40332	92.76193	94.84384	1.94439	2.05001	1.96458	77.74453	88.53307	92.23190	1.42475	1.76171	0.86444	94.51142	91.63453	92.79772	1.53420	1.82407	1.86987
114200	94.18887	94.54748	96.62940	1.94314	2.04956	1.96313	79.57856	90.36711	94.06593	1.42097	1.75795	0.85911	96.29029	93.41340	94.57659	1.52592	1.81876	1.86475
114370	95.99706	96.35567	98.43758	1.93578	2.04341	1.95681	81.34996	92.13851	95.83733	1.41894	1.75705	0.86104	98.02540	95.14851	96.31170	1.52635	1.81696	1.86242
114530	97.77090	98.13226	100.21213	1.94498	2.05207	1.96508	83.13435	93.92102	97.61928	1.42488	1.76292	0.86451	99.74930	96.87296	98.03535	1.54179	1.83430	1.88032	29.03	6.1	0.00	6.72	0.01277	0.01303	0.01649	0.00794	0.00591	0.00647	0.00473	0.01276	0.01694	0.00686	0.00709	0.00894	0.01500	0.01103	0.01204	0.00223	0.00631	0.00883
114700	99.52980	99.89116	101.97104	1.95082	2.05626	1.97000	84.95756	95.74424	99.44250	1.42940	1.76785	0.87032	101.52264	98.64630	99.80869	1.54085	1.83312	1.87690
114860	101.35302	101.71438	103.79425	1.94990	2.05681	1.97036	86.64832	97.43500	101.13326	1.43113	1.76857	0.87171	103.31605	100.43971	101.60210	1.54175	1.83404	1.87884
115020	103.02356	103.38492	105.46480	1.94922	2.05415	1.96799	88.36683	99.15350	102.85176	1.42765	1.76577	0.86906	105.06809	102.19175	103.35414	1.53885	1.82900	1.87487
115190	104.81048	105.17184	107.25171	1.95153	2.05797	1.97186	90.06582	100.85249	104.55075	1.43258	1.76910	0.87193	106.68078	103.80443	104.96682	1.54375	1.83575	1.87998
115350	106.46127	106.82263	108.90251	1.95050	2.05627	1.96871	91.88903	102.67571	106.37397	1.42786	1.76581	0.86940	108.30597	105.42962	106.59201	1.53987	1.83102	1.87672
115510	108.13181	108.49318	110.57305	1.94754	2.05384	1.96753	93.57980	104.36647	108.06473	1.42766	1.76526	0.86761	109.89661	107.02027	108.18266	1.53702	1.83067	1.87571
115680	109.77485	110.13621	112.21608	1.94719	2.05391	1.96766	95.29830	106.08497	109.78323	1.42776	1.76596	0.86788	111.78903	108.91269	110.07508	1.53655	1.82838	1.87452
115840	111.31635	111.67771	113.75759	1.95105	2.06342	1.99018	96.99729	107.78396	111.48223	1.50974	1.86287	1.03779	113.12435	110.24800	111.41039	1.66146	2.01575	2.14987
116000	113.13957	113.50093	115.58080	2.27045	2.39203	2.37609	98.60072	109.38739	113.08565	1.96686	2.29842	1.57130	114.66585	111.78951	112.95190	2.18384	2.23188	2.34121
116170	114.76681	115.12964	117.20823	2.45610	2.55549	2.54083	100.00010	110.78748	114.48545	2.10269	2.39899	1.58436	116.49106	113.61440	114.77635	1.95342	2.28356	2.39340	29.03	6.1	0.00	6.77	0.01277	0.01303	0.01650	0.00794	0.00591	0.00647	0.00473	0.01276	0.01695	0.00686	0.00709	0.00894	0.01500	0.01103	0.01204	0.00223	0.00631	0.00884
116330	116.01844	116.38127	118.45987	2.47602	2.57216	2.55681	101.62529	112.41267	116.11064	2.12029	2.41491	1.60364	117.92206	115.04541	116.20736	1.96439	2.29370	2.40374
116490	117.44945	117.81228	119.89087	2.49071	2.58587	2.57164	102.87692	113.66431	117.36227	2.13581	2.42988	1.61907	118.72249	115.84584	117.00779	1.97600	2.30506	2.41576
116660	119.11999	119.48282	121.56142	2.49805	2.59035	2.57799	104.30793	115.09531	118.79328	2.14412	2.43630	1.62554	120.54571	117.66905	118.83100	1.97577	2.30699	2.41804
116820	120.07309	120.43592	122.51452	2.50127	2.59317	2.58184	105.97847	116.76585	120.46382	2.14917	2.44057	1.63117	121.59931	118.72266	119.88461	1.98494	2.31581	2.42542
116980	121.12670	121.48953	123.56812	2.50832	2.60086	2.58966	106.93157	117.71896	121.41692	2.15803	2.44884	1.63940	122.77714	119.90049	121.06244	1.99118	2.32107	2.43340
117150	122.30453	122.66736	124.74595	2.51536	2.60550	2.59666	107.98518	118.77256	122.47053	2.16296	2.45463	1.64563	124.11246	121.23580	122.39775	1.99274	2.32238	2.43355
117310	123.63984	124.00267	126.08127	2.51499	2.60957	2.60136	109.16301	119.95039	123.64836	2.16845	2.45903	1.65098	125.65396	122.77731	123.93926	1.99604	2.32680	2.43796
117480	125.18135	125.54418	127.62277	2.51863	2.60887	2.60269	110.49832	121.28571	124.98367	2.16965	2.45979	1.65194	125.65396	122.77731	123.93926	1.99582	2.32895	2.44129
117640	125.18135	125.54418	127.62277	2.52200	2.61351	2.60604	112.03983	122.82721	126.52518	2.17389	2.46457	1.65632	127.47718	124.60052	125.76248	2.00148	2.32921	2.44097
117810	126.99962	127.35879	129.43909	2.52617	2.61632	2.60803	112.03516	122.82348	126.52127	2.17518	2.46348	1.65584	127.47281	124.59560	125.75921	2.01182	2.34106	2.45148	29.03	6.1	0.00	6.71	0.01276	0.01302	0.01649	0.00795	0.00591	0.00647	0.00472	0.01276	0.01694	0.00686	0.00709	0.00894	0.01499	0.01102	0.01203	0.00223	0.00632	0.00884
117970	126.99962	127.35879	129.43909	2.53257	2.62258	2.61438	113.85838	124.64669	128.34449	2.18138	2.46877	1.66135	127.47281	124.59560	125.75921	2.01182	2.33936	2.44960
118130	126.99962	127.35879	129.43909	2.53253	2.62430	2.61570	113.85838	124.64669	128.34449	2.18271	2.47209	1.66357	129.70424	126.82704	127.99064	2.01249	2.34143	2.45145
118300	129.23105	129.59023	131.67052	2.53223	2.62137	2.61400	113.85838	124.64669	128.34449	2.18138	2.47001	1.66208	129.70424	126.82704	127.99064	2.00803	2.33716	2.44790
118460	129.23105	129.59023	131.67052	2.53366	2.62515	2.61798	116.08981	126.87813	130.57593	2.18540	2.47365	1.66585	129.70424	126.82704	127.99064	2.01280	2.34199	2.45238
118620	129.23105	129.59023	131.67052	2.53337	2.62275	2.61598	116.08981	126.87813	130.57593	2.18451	2.47173	1.66493	129.70424	126.82704	127.99064	2.00727	2.33833	2.44972
118790	129.23105	129.59023	131.67052	2.53443	2.62561	2.61898	116.08981	126.87813	130.57593	2.18803	2.47589	1.66746	129.70424	126.82704	127.99064	2.01040	2.34252	2.45289
118950	129.23105	129.59023	131.67052	2.53329	2.62345	2.61717	116.08981	126.87813	130.57593	2.18631	2.47247	1.66660	129.70424	126.82704	127.99064	2.00790	2.33971	2.45118
119110	129.23105	129.59023	131.67052	2.53473	2.62653	2.62003	116.08981	126.87813	130.57593	2.18842	2.47572	1.66763	129.70424	126.82704	127.99064	2.01365	2.34250	2.45334
119280	129.23105	129.59023	131.67052	2.53509	2.62612	2.61927	116.08981	126.87813	130.57593	2.18927	2.47570	1.66831	129.70424	126.82704	127.99064	2.01231	2.34218	2.45357
119440	129.22988	129.58867	131.66810	2.53706	2.62748	2.62087	116.08880	126.87602	130.57381	2.19051	2.48036	1.67043	129.70229	126.82509	127.98931	2.01433	2.34308	2.45506	29.03	6.1	0.00	6.70	0.01276	0.01302	0.01648	0.00795	0.00591	0.00647	0.00472	0.01276	0.01693	0.00686	0.00709	0.00894	0.01499	0.01102	0.01203	0.00223	0.00632	0.00884
119600	129.22988	129.58867	131.66810	2.53582	2.62702	2.61937	116.08880	126.87602	130.57381	2.19076	2.48090	1.67195	129.70229	126.82509	127.98931	2.01169	2.33859	2.45145
119770	129.22988	129.58867	131.66810	2.53793	2.62996	2.63296	116.08880	126.87602	130.57381	2.37440	2.64767	1.89370	129.70229	126.82509	127.98931	2.14269	2.40745	2.39901
119930	129.22988	129.58867	131.66810	2.27055	2.36901	2.23714	116.08880	126.87602	130.57381	1.46601	1.76119	0.86644	129.70229	126.82509	127.98931	1.55552	1.83882	1.87734
120090	129.22988	129.58867	131.66810	1.94917	2.07349	1.99344	116.08880	126.87602	130.57381	1.45998	1.80453	0.90138	129.70229	126.82509	127.98931	1.61942	1.88212	1.89766
120260	129.22988	129.58867	131.66810	1.94247	2.04376	1.94909	116.08880	126.87602	130.57381	1.41579	1.75407	0.86089	129.70229	126.82509	127.98931	1.58686	1.87293	1.90977
120420	129.22988	129.58867	131.66810	1.98376	2.09150	1.99805	116.08880	126.87602	130.57381	1.45138	1.78642	0.88588	129.70229	126.82509	127.98931	1.63089	1.91210	1.93479
120580	129.22988	129.58867	131.66810	1.97225	2.06374	1.96335	116.08880	126.87602	130.57381	1.40166	1.73050	0.82482	129.70229	126.82509	127.98931	1.52831	1.82173	1.86617
120750	129.22988	129.58867	131.66810	1.94510	2.05609	1.95675	116.08880	126.87602	130.57381	1.41663	1.75673	0.86290	129.70229	126.82509	127.98931	1.59080	1.88288	1.92458
120910	129.22988	129.58867	131.66810	2.00692	2.11194	2.00684	116.08880	126.87602	130.57381	1.42841	1.76857	0.90146	129.70229	126.82509	127.98931	1.53175	1.81701	1.84881
121080	129.22437	129.58107	131.66267	1.92414	2.04745	1.97113	116.08489	126.87074	130.56843	1.45907	1.79174	0.89275	129.69617	126.81968	127.98564	1.64361	1.93095	1.96019	29.03	6.2	0.00	6.76	0.01276	0.01301	0.01647	0.00794	0.00591	0.00647	0.00472	0.01275	0.01693	0.00686	0.00709	0.00894	0.01498	0.01102	0.01203	0.00223	0.00631	0.00883
121240	129.22437	129.58107	131.66267	2.02105	2.12597	2.02389	116.08489	126.87074	130.56843	1.44325	1.84580	1.34197	129.69617	126.81968	127.98564	1.80797	1.67941	1.38337
121400	129.22437	129.58107	131.66267	1.20390	1.30076	1.19521	116.08489	126.87074	130.56843	0.82985	0.94954	0.27213	129.69617	126.81968	127.98564	1.09197	1.25195	1.32248
121570	129.22437	129.58107	131.66267	1.36601	1.44718	1.31615	116.08489	126.87074	130.56843	1.32585	3.79150	3.42739	129.69617	126.81968	127.98564	1.70763	1.64737	1.27308
121730	129.22437	129.58107	131.66267	1.16546	1.25946	1.16929	116.08489	126.87074	130.56843	0.84233	0.93677	0.26706	129.69617	126.81968	127.98564	1.05851	1.20122	1.25524
121890	129.22437	129.58107	131.66267	1.23941	1.31468	1.18495	116.08489	126.87074	130.56843	0.78679	0.87810	0.19140	129.69617	126.81968	127.98564	0.92314	1.05308	1.11873
122050	129.22437	129.58107	131.66267	1.13934	1.23622	1.12861	116.08489	126.87074	130.56843	0.77075	0.87293	0.19357	129.69617	126.81968	127.98564	0.94338	1.07782	1.14917
122220	129.22437	129.58107	131.66267	1.20178	1.32036	1.21974	116.08489	126.87074	130.56843	0.84067	0.92174	0.22249	129.69617	126.81968	127.98564	0.95571	1.07170	1.12615
122380	129.22437	129.58107	131.66267	1.11772	1.21496	1.15557	116.08489	126.87074	130.56843	0.82378	0.96536	0.29239	129.69617	126.81968	127.98564	1.13209	1.31573	1.37274
122540	129.22437	129.58107	131.66267	1.29281	1.32776	1.17585	116.08489	126.87074	130.56843	0.76797	0.87417	0.21255	129.69617	126.81968	127.98564	0.88741	1.02569	1.10687
122710	129.21507	129.57139	131.65424	1.12715	1.23637	1.15781	116.07744	126.85811	130.55638	0.84429	0.95753	0.27473	129.68534	126.80875	127.97404	0.95874	1.09004	1.16934	29.03	6.0	0.00	6.85	0.01274	0.01300	0.01646	0.00792	0.00590	0.00646	0.00472	0.01273	0.01691	0.00685	0.00707	0.00893	0.01497	0.01100	0.01201	0.00222	0.00629	0.00881
122870	129.21507	129.57139	131.65424	1.22539	1.32325	1.19350	116.07744	126.85811	130.55638	0.77202	0.85606	0.18281	129.68534	126.80875	127.97404	1.01428	1.21472	1.33236
123040	129.21507	129.57139	131.65424	1.41221	1.48069	1.31927	116.07744	126.85811	130.55638	0.83325	0.89267	0.20385	129.68534	126.80875	127.97404	6.53210	2.87721	1.58802
123200	129.21507	129.57139	131.65424	1.15532	1.21073	1.09789	116.07744	126.85811	130.55638	0.84591	1.00775	0.36728	129.68534	126.80875	127.97404	1.24825	1.31688	1.29176
123360	129.21507	129.57139	131.65424	1.19745	1.27750	1.17178	116.07744	126.85811	130.55638	14.79280	6.03161	2.73259	129.68534	126.80875	127.97404	2.02257	1.57856	1.26951
123530	129.21507	129.57139	131.65424	1.26806	1.35449	1.22117	116.07744	126.85811	130.55638	0.80290	0.88868	0.20056	129.68534	126.80875	127.97404	0.93343	1.05345	1.10989
123700	129.21507	129.57139	131.65424	1.11142	1.19770	1.08186	116.07744	126.85811	130.55638	0.73043	0.84299	0.17800	129.68534	126.80875	127.97404	0.94782	1.08557	1.15404
123860	129.21507	129.57139	131.65424	1.18864	1.29022	1.18472	116.07744	126.85811	130.55638	0.84168	0.98720	0.29373	129.68534	126.80875	127.97404	1.07396	1.19518	1.24273
124040	129.21507	129.57139	131.65424	1.26350	1.35876	1.26320	116.07744	126.85811	130.55638	0.88938	1.03743	0.33840	129.68534	126.80875	127.97404	1.15526	1.29878	1.35279
124200	129.21507	129.57139	131.65424	1.37700	1.45471	1.34896	116.07744	126.85811	130.55638	0.94621	1.09168	0.37781	129.68534	126.80875	127.97404	1.20146	1.33245	1.38009
124370	129.19683	129.55985	131.63947	1.27382	1.36602	1.24544	116.04305	126.83047	130.53200	0.87203	0.98589	0.30829	129.66210	126.78688	127.95212	1.15376	1.28609	1.34387	28.98	6.0	0.00	6.69	0.01272	0.01298	0.01644	0.00782	0.00582	0.00637	0.00470	0.01270	0.01686	0.00677	0.00700	0.00883	0.01493	0.01098	0.01199	0.00219	0.00620	0.00869
124530	129.19683	129.55985	131.63947	1.38607	1.48204	1.36287	116.04305	126.83047	130.53200	0.97673	1.08739	0.40446	43.93251	41.05729	42.22253	1.28960	1.40735	1.45379
124690	43.70845	44.07148	46.15110	1.50850	1.61895	1.52032	31.65235	42.43978	46.14131	1.14531	1.24689	0.55228	45.75545	42.88023	44.04547	1.48948	1.59860	1.62564
124850	45.53138	45.89440	47.97403	1.63684	1.70811	1.56425	19.99240	30.77983	34.48136	1.12298	1.21231	0.51071	19.48910	16.61388	17.77912	1.43233	1.53819	1.55924
125010	17.38266	17.74568	19.82531	1.53928	1.60210	1.46199	129.90599	140.69342	18.99936	1.07929	1.19990	0.52252	19.63852	140.64983	141.81507	1.49505	1.61591	1.64667
125170	17.83085	18.76006	13.58996	1.65504	1.73040	1.59255	129.90599	27.33631	11.98401	1.16270	1.25175	0.54800	9.09208	12.12257	9.47015	1.48202	1.59033	1.61789
125340	8.62834	8.99136	11.07099	1.63188	1.71234	1.58188	129.90599	9.84425	9.51231	1.17514	1.28082	0.58583	7.12820	10.48391	8.43440	1.54249	1.62371	1.60778
125500	6.86990	7.23292	9.31255	1.55581	1.62668	1.49911	129.90599	7.53189	8.03386	1.10947	1.22119	0.51534	6.08900	4.90159	4.41879	1.42423	1.52836	1.55157
125660	5.82913	6.19215	8.27178	1.54467	1.62441	1.49047	129.90599	5.22404	6.85826	1.08664	1.19729	0.53083	5.09290	4.96598	4.51356	1.53525	1.64569	1.66211
125820	4.47607	4.83910	6.91872	1.66000	1.72530	1.57066	129.90599	9.90063	6.22385	1.10091	1.17468	0.46450	6.89470	11.55308	9.14072	1.31778	1.41507	1.43912
125980	5.95768	6.72964	5.62869	1.35065	1.42356	1.29180	129.89455	9.71661	5.37007	0.90432	1.00460	0.32245	4.76354	7.00276	5.81188	1.12930	1.24539	1.28973	29.03	6.3	0.00	7.46	0.01272	0.01298	0.01643	0.00776	0.00577	0.00632	0.00470	0.01269	0.01685	0.00673	0.00695	0.00878	0.01492	0.01097	0.01198	0.00217	0.00614	0.00861
126130	4.38853	4.21483	4.71302	1.28962	1.36682	1.23765	129.89455	6.13167	3.90926	0.84768	0.94139	0.26497	3.93783	5.85919	5.19624	1.03916	1.16415	1.22228
126280	4.38429	4.46955	3.71439	1.24322	1.33669	1.22681	129.89455	8.55294	5.09153	0.87255	0.98216	0.33278	4.85643	6.64814	5.32443	1.19429	1.33310	1.39223
126430	3.77253	3.45020	3.06153	1.42593	1.51090	1.37850	129.89455	5.46726	3.35038	0.97713	1.07241	0.38251	3.28415	4.45057	3.66471	1.22205	1.33221	1.36983
126590	2.62045	2.36578	2.67981	1.37499	1.45549	1.32441	11.08683	2.45992	1.56636	0.92120	1.01690	0.33725	1.01100	1.13591	0.84669	1.18212	1.32191	1.38593
126740	0.32872	0.59768	2.67287	1.41766	1.49528	1.35878	1.23433	0.73032	1.53222	0.96917	1.07682	0.40531	0.63354	-0.06671	-0.07817	1.28175	1.40543	1.44983
126900	0.16484	0.55363	2.49017	1.47762	1.57106	1.45778	6.10320	2.29844	1.67696	1.08567	1.19950	0.49040	1.86297	2.55798	2.26374	1.35888	1.45303	1.47026
127060	1.54724	1.43925	2.18465	1.45863	1.54098	1.41082	10.01028	2.89573	2.01425	1.02317	1.13645	0.44401	2.18880	3.05377	2.73611	1.37860	1.51883	1.55887
127210	1.99006	1.21490	2.22833	1.56448	1.65382	1.52053	-0.53748	-0.99338	1.67255	1.09085	1.18183	0.47609	1.75399	-1.12046	0.04281	1.35200	1.44891	1.47219
127370	1.60638	1.97635	4.05155	1.46130	1.53777	1.40301	-10.99719	-0.20689	3.49576	0.99741	1.09556	0.39740	3.57720	0.70275	1.86602	1.24447	1.34287	1.36876
127530	3.43952	3.81534	5.88614	1.40523	1.48157	1.34699	-9.15724	1.63181	5.33287	0.93846	1.03509	0.33975	5.41510	2.54149	3.70331	1.14581	1.25356	1.28776	29.03	6.4	0.00	6.95	0.01273	0.01301	0.01645	0.00779	0.00580	0.00635	0.00470	0.01271	0.01688	0.00676	0.00699	0.00882	0.01494	0.01099	0.01200	0.00218	0.00618	0.00867
127690	5.26273	5.63856	7.70936	1.25779	1.33169	1.19960	-7.33403	3.45503	7.15608	0.81235	0.92583	0.22974	7.23831	4.36469	5.52651	0.99322	1.11551	1.16727
127860	7.08594	7.46176	9.53256	1.15583	1.23498	1.10728	-5.51081	5.27824	8.97929	0.72315	0.83090	0.14154	9.06151	6.18790	7.34972	0.85191	0.98351	1.05124
128030	8.90915	9.28498	11.35578	1.05047	1.14014	1.02269	-3.68761	7.10145	10.80250	0.65366	0.76343	0.08518	10.88472	8.01111	9.17293	0.77774	0.91711	0.99163
128200	10.73235	11.10818	13.17898	0.99697	1.09245	0.97593	-1.86440	8.92465	12.62570	0.64232	0.75704	0.08292	12.70793	9.83432	10.99614	0.78359	0.92605	1.00189
128360	12.55558	12.93140	15.00220	1.00932	1.10225	0.98608	-0.04119	10.74786	14.44891	0.64275	0.75239	0.07928	14.53114	11.65752	12.81935	0.76959	0.90506	0.97799
128530	14.37876	14.75459	16.82538	0.97720	1.06974	0.95569	1.78202	12.57108	16.27213	0.61264	0.72583	0.05930	16.35433	13.48072	14.64254	0.74942	0.90228	0.96987
128700	16.20196	16.57779	18.64858	0.97093	1.06015	0.94504	3.60521	14.39426	18.09531	0.60584	0.71946	0.04596	18.17753	15.30392	16.46574	0.72909	0.87259	0.95300
128860	18.02517	18.40100	20.47179	0.95875	1.05607	0.94739	5.42839	16.21745	19.91850	0.60824	0.71965	0.04758	20.00075	17.12713	18.28895	0.72291	0.86684	0.94784
129030	19.84839	20.22421	22.29501	0.95637	1.05054	0.93746	7.25161	18.04067	21.74172	0.60080	0.71301	0.04203	21.82390	18.95029	20.11211	0.71794	0.86141	0.94256
129190	21.68808	22.06726	24.13477	1.01770	1.11036	0.99574	9.09731	19.88600	23.58535	0.65133	0.76183	0.08887	23.66733	20.79340	21.95355	0.78565	0.92781	1.00530	29.03	6.1	0.00	6.73	0.01275	0.01303	0.01648	0.00784	0.00584	0.00639	0.00472	0.01273	0.01691	0.00679	0.00702	0.00886	0.01497	0.01101	0.01202	0.00220	0.00623	0.00872
129360	23.51125	23.89042	25.95793	1.01539	1.10791	0.99391	10.92049	21.70918	25.40853	0.64964	0.76138	0.08743	25.49047	22.61654	23.77670	0.78437	0.92614	1.00202
129520	25.33442	25.71360	27.78111	1.01587	1.10799	0.99346	12.74369	23.53238	27.23174	0.65007	0.76112	0.08782	27.31366	24.43972	25.59988	0.78493	0.92664	1.00248
129690	27.15761	27.53679	29.60429	1.01336	1.10611	0.99112	14.56681	25.35550	29.05485	0.64711	0.75937	0.08568	29.13682	26.26289	27.42304	0.78100	0.92557	1.00109
129850	28.98082	29.36000	31.42751	1.01211	1.10605	0.99095	16.38994	27.17864	30.87799	0.64714	0.75945	0.08492	30.95997	28.08604	29.24619	0.78144	0.92427	1.00029
130010	30.80388	31.18306	33.25057	1.01025	1.10285	0.98724	18.21314	29.00183	32.70118	0.64511	0.75626	0.08262	32.78306	29.90912	31.06928	0.78060	0.92388	0.99994
130180	32.62713	33.00630	35.07381	1.01152	1.10520	0.98982	20.03624	30.82493	34.52429	0.64722	0.75861	0.08518	34.60621	31.73228	32.89243	0.78673	0.92780	1.00330
130340	34.45015	34.82933	36.89683	1.01544	1.10873	0.99399	21.85939	32.64808	36.34743	0.64963	0.76090	0.08821	36.42942	33.55549	34.71565	0.78529	0.92644	1.00202
130500	36.27325	36.65243	38.71993	1.01184	1.10482	0.98940	23.68256	34.47126	38.17061	0.64652	0.75743	0.08442	38.25237	35.37844	36.53860	0.77940	0.92220	0.99828
130670	38.09647	38.47564	40.54315	1.00857	1.10115	0.98614	25.50568	36.29437	39.99373	0.64274	0.75455	0.08239	40.07537	37.20144	38.36160	0.77664	0.91962	0.99520
130830	39.93144	40.31315	42.37809	1.05317	1.14543	1.02879	27.34516	38.13308	41.83157	0.68016	0.79106	0.11579	41.91316	39.03893	40.19779	0.83199	0.97489	1.04651	29.03	6.1	0.00	6.67	0.01277	0.01305	0.01650	0.00788	0.00587	0.00642	0.00472	0.01275	0.01694	0.00682	0.00705	0.00889	0.01500	0.01103	0.01203	0.00221	0.00626	0.00876
130990	41.75466	42.13636	44.20130	1.05671	1.14791	1.03155	29.16810	39.95602	43.65451	0.68281	0.79405	0.11811	43.73599	40.86176	42.02062	0.83079	0.97197	1.04370
131160	43.57763	43.95934	46.02428	1.05293	1.14511	1.02838	30.99140	41.77932	45.47781	0.67939	0.79182	0.11583	45.55921	42.68497	43.84383	0.82959	0.97356	1.04510
131320	45.40028	45.78198	47.84693	1.05500	1.14702	1.03040	32.81391	43.60183	47.30032	0.68128	0.79221	0.11741	47.38220	44.50797	45.66683	0.82727	0.97096	1.04252
131480	47.22338	47.60508	49.67003	1.05110	1.14217	1.02629	34.63712	45.42504	49.12354	0.67803	0.78835	0.11403	49.20462	46.33039	47.48925	0.82923	0.97336	1.04440
131650	49.04632	49.42803	51.49297	1.05454	1.14717	1.02998	36.45990	47.24782	50.94632	0.68060	0.79151	0.11653	51.02752	48.15328	49.31214	0.82739	0.97050	1.04204
131810	50.86904	51.25075	53.31569	1.05099	1.14341	1.02686	38.28242	49.07034	52.76884	0.67855	0.78927	0.11360	52.85054	49.97631	51.13517	0.83256	0.97564	1.04810
131980	52.69206	53.07376	55.13871	1.05761	1.14753	1.03142	40.10480	50.89272	54.59122	0.68192	0.79285	0.11788	54.67238	51.79814	52.95700	0.83155	0.97283	1.04403
132140	54.51385	54.89556	56.96050	1.05753	1.14814	1.03416	41.92827	52.71619	56.41468	0.68446	0.79471	0.11946	56.49504	53.62081	54.77967	0.83384	0.97486	1.04583
132300	56.33735	56.71906	58.78400	1.05612	1.14554	1.02950	43.74938	54.53730	58.23579	0.68050	0.79237	0.11656	58.31661	55.44237	56.60123	0.82943	0.97002	1.04164
132470	58.16841	58.55198	60.61475	1.08986	1.18177	1.06490	45.58250	56.37065	60.06840	0.71168	0.82064	0.14388	60.15063	57.27601	58.43410	0.87099	1.01220	1.07972	29.03	6.2	0.00	6.71	0.01278	0.01306	0.01651	0.00791	0.00588	0.00644	0.00473	0.01277	0.01695	0.00684	0.00707	0.00891	0.01501	0.01104	0.01204	0.00222	0.00628	0.00879
132630	59.98958	60.37315	62.43592	1.08835	1.17894	1.06117	47.40615	58.19430	61.89205	0.70841	0.81949	0.14152	61.97099	59.09637	60.25446	0.86762	1.00735	1.07546
132790	61.81181	62.19538	64.25815	1.08421	1.17497	1.05712	49.22781	60.01596	63.71370	0.70565	0.81474	0.13888	63.79249	60.91787	62.07596	0.87031	1.00909	1.07855
132950	63.63385	64.01741	66.08019	1.08731	1.17778	1.05966	51.04853	61.83668	65.53443	0.70768	0.81702	0.14160	65.61433	62.73972	63.89781	0.86498	1.00710	1.07588
133120	65.45636	65.83992	67.90270	1.08498	1.17682	1.05995	52.86875	63.65691	67.35465	0.70662	0.81710	0.14136	67.43590	64.56129	65.71938	0.86634	1.00600	1.07389
133280	67.27618	67.65974	69.72252	1.08943	1.18239	1.06509	54.68928	65.47743	69.17517	0.71123	0.82141	0.14500	69.25419	66.37957	67.53766	0.87271	1.01296	1.08023
133440	69.09736	69.48092	71.54370	1.08824	1.18012	1.06265	56.50819	67.29634	70.99408	0.70776	0.81781	0.14243	71.07267	68.19805	69.35614	0.86991	1.00992	1.07737
133610	70.91447	71.29803	73.36080	1.08524	1.17721	1.06016	58.33011	69.11827	72.81601	0.70618	0.81700	0.13987	72.89730	70.02269	71.18078	0.86430	1.00816	1.07564
133770	72.73329	73.11685	75.17963	1.08501	1.17796	1.06018	60.15178	70.93993	74.63768	0.70762	0.81697	0.14055	74.71371	71.83909	72.99718	0.86594	1.00714	1.07543
133930	74.54948	74.93304	76.99581	1.08754	1.17935	1.06272	61.97128	72.75943	76.45717	0.70961	0.81788	0.14284	76.53488	73.66027	74.81835	0.86919	1.00974	1.07837
134100	76.37729	76.76179	78.82336	1.10932	1.20064	1.08168	63.79723	74.58453	78.28152	0.72582	0.83572	0.15911	78.35149	75.47657	76.63426	0.89562	1.03822	1.10414	29.09	6.0	0.00	5.84	0.01279	0.01307	0.01652	0.00793	0.00590	0.00646	0.00473	0.01278	0.01697	0.00685	0.00708	0.00893	0.01502	0.01105	0.01205	0.00222	0.00630	0.00881
134260	78.18787	78.57237	80.63394	1.11379	1.20559	1.08648	65.60975	76.39705	80.09405	0.73020	0.83938	0.16313	80.16590	77.29098	78.44866	0.89790	1.03872	1.10357
134420	80.01108	80.39558	82.45716	1.11176	1.20237	1.08264	67.43297	78.22027	81.91727	0.72706	0.83624	0.15937	81.97504	79.10012	80.25781	0.89694	1.03855	1.10331
134590	81.81976	82.20427	84.26584	1.11250	1.20393	1.08368	69.24081	80.02811	83.72511	0.72847	0.83759	0.16076	83.79826	80.92333	82.08102	0.89522	1.03537	1.10032
134750	83.62992	84.01442	86.07599	1.10863	1.20092	1.08153	71.05482	81.84211	85.53911	0.72602	0.83572	0.15861	85.59619	82.72127	83.87895	0.89062	1.03163	1.09759
134910	85.42706	85.81156	87.87313	1.10737	1.20122	1.08309	72.86699	83.65428	87.35128	0.72827	0.83845	0.16041	87.41940	84.54448	85.70217	0.89722	1.03462	1.10078
135070	87.23778	87.62228	89.68385	1.10909	1.20141	1.08106	74.67697	85.46426	89.16126	0.72662	0.83783	0.15931	89.20632	86.33140	87.48909	0.89222	1.03228	1.09823
135240	89.03855	89.42305	91.48462	1.10845	1.20177	1.08249	76.50018	87.28748	90.98448	0.72791	0.83926	0.16087	91.01216	88.13724	89.29493	0.89642	1.03389	1.10054
135400	90.85280	91.23730	93.29887	1.11027	1.20089	1.08174	78.26642	89.05372	92.75071	0.72645	0.83704	0.15945	92.83538	89.96045	91.11814	0.89302	1.03276	1.09833
135570	92.61171	92.99621	95.05778	1.11151	1.20356	1.08429	80.06693	90.85423	94.55123	0.72837	0.83911	0.16142	94.60872	91.73379	92.89148	0.89870	1.03684	1.10216
135730	94.43921	94.82471	96.88543	1.12635	1.21851	1.09931	81.85659	92.64315	96.33950	0.74071	0.85127	0.17316	96.40776	93.53287	94.68993	0.91425	1.05244	1.11602	29.09	6.0	0.00	6.81	0.01279	0.01308	0.01653	0.00794	0.00591	0.00647	0.00474	0.01279	0.01698	0.00686	0.00709	0.00894	0.01503	0.01105	0.01206	0.00223	0.00631	0.00883
135890	96.20108	96.58658	98.64730	1.12812	1.22141	1.10133	83.63114	94.41770	98.11406	0.74273	0.85450	0.17468	98.15980	95.28491	96.44197	0.91834	1.05683	1.11941
136060	98.00596	98.39146	100.45218	1.12740	1.21839	1.09873	85.43496	96.22152	99.91788	0.74002	0.85057	0.17226	99.89827	97.02338	98.18044	0.91357	1.05090	1.11493
136220	99.67650	100.06200	102.12272	1.12897	1.22120	1.10210	87.21177	97.99833	101.69469	0.74284	0.85302	0.17569	101.69620	98.82131	99.97837	0.92010	1.05677	1.12013
136380	101.52572	101.91122	103.97194	1.12761	1.21860	1.09829	88.86970	99.65625	103.35261	0.73986	0.85023	0.17340	103.51942	100.64452	101.80159	0.91361	1.05136	1.11582
136550	103.22471	103.61021	105.67093	1.12883	1.22048	1.09998	90.66018	101.44673	105.14309	0.74114	0.85187	0.17403	105.09127	102.21638	103.37345	0.91834	1.05563	1.11887
136710	105.04793	105.43343	107.49415	1.12671	1.21792	1.09727	92.36643	103.15299	106.84935	0.73930	0.84902	0.17158	106.95713	104.08224	105.23930	0.91029	1.05035	1.11486
136870	106.73869	107.12419	109.18491	1.12381	1.21485	1.09505	94.14324	104.92980	108.62616	0.73704	0.84768	0.16892	108.62767	105.75278	106.90985	0.91473	1.05726	1.12071
137040	108.45720	108.84270	110.90342	1.12877	1.22006	1.09881	95.63856	106.42512	110.12148	0.74147	0.85103	0.17276	110.27070	107.39581	108.55288	0.91445	1.05188	1.11654
137200	110.15619	110.54169	112.60241	1.12514	1.21605	1.09621	97.39747	108.18402	111.88038	0.73810	0.84930	0.17049	111.81221	108.93732	110.09438	0.91954	1.05651	1.12028
137360	111.76298	112.14896	114.20924	1.14122	1.23098	1.11038	99.07231	109.85868	113.55484	0.75105	0.86146	0.18277	113.63912	110.76457	111.92090	0.92882	1.06622	1.12850	29.03	6.0	0.00	6.72	0.01280	0.01309	0.01654	0.00795	0.00592	0.00647	0.00474	0.01279	0.01698	0.00687	0.00710	0.00895	0.01504	0.01106	0.01206	0.00223	0.00632	0.00884
137530	113.16060	113.54658	115.60686	1.14035	1.23255	1.11095	100.53835	111.32472	115.02087	0.75169	0.86300	0.18395	115.26431	112.38975	113.54609	0.93039	1.06757	1.13034
137690	114.78579	115.17177	117.23205	1.13860	1.22889	1.10796	102.25685	113.04322	116.73937	0.74917	0.85936	0.18107	116.51594	113.64139	114.79772	0.92734	1.06244	1.12609
137850	116.03742	116.42340	118.48368	1.13450	1.22500	1.10597	103.59217	114.37854	118.07469	0.74677	0.85800	0.17867	117.94695	115.07239	116.22873	0.92911	1.06868	1.13088
138020	117.46843	117.85441	119.91469	1.14001	1.23033	1.11023	105.13367	115.92004	119.61620	0.75050	0.86141	0.18204	119.61749	116.74294	117.89927	0.93031	1.06759	1.12994
138180	119.13897	119.52495	121.58523	1.13977	1.23096	1.11111	106.95689	117.74326	121.43941	0.75050	0.86175	0.18236	120.57059	117.69604	118.85237	0.93007	1.06548	1.12827
138340	120.09207	120.47805	122.53833	1.13592	1.22784	1.10703	108.01049	118.79686	122.49302	0.74724	0.85875	0.17879	121.62419	118.74964	119.90598	0.92614	1.06608	1.12957
138510	121.14568	121.53166	123.59194	1.13811	1.22861	1.10854	109.18832	119.97469	123.67085	0.74930	0.85843	0.18113	122.80202	119.92747	121.08381	0.92686	1.06337	1.12798
138670	122.32351	122.70949	124.76977	1.13693	1.22775	1.10641	110.52364	121.31001	125.00616	0.74670	0.85739	0.17912	124.13734	121.26279	122.41912	0.92718	1.06651	1.13019
138830	123.65882	124.04480	126.10508	1.13887	1.22885	1.10913	112.06514	122.85151	126.54767	0.74969	0.85958	0.18030	125.67884	122.80429	123.96063	0.92658	1.06538	1.12765
139000	125.20289	125.58909	127.64886	1.14484	1.23496	1.11537	112.06791	122.85445	126.55037	0.75548	0.86529	0.18558	125.68154	122.80688	123.96310	0.93939	1.07756	1.14032	29.03	6.1	0.00	6.78	0.01280	0.01309	0.01654	0.00795	0.00592	0.00648	0.00474	0.01280	0.01699	0.00687	0.00710	0.00896	0.01504	0.01106	0.01207	0.00223	0.00632	0.00885
139160	125.20289	125.58909	127.64886	1.14928	1.24053	1.11917	113.89113	124.67766	128.37358	0.75784	0.86922	0.18928	127.50476	124.63010	125.78631	0.93975	1.07484	1.13780
139320	127.02610	127.41230	129.47208	1.14691	1.23773	1.11727	113.89113	124.67766	128.37358	0.75685	0.86919	0.18813	127.50476	124.63010	125.78631	0.93711	1.07355	1.13641
139490	127.02610	127.41230	129.47208	1.14435	1.23604	1.11530	113.89113	124.67766	128.37358	0.75493	0.86653	0.18690	127.50476	124.63010	125.78631	0.93423	1.07013	1.13356
139650	127.02610	127.41230	129.47208	1.14144	1.23287	1.11227	116.12256	126.90910	130.60502	0.75277	0.86461	0.18419	129.73619	126.86153	128.01775	0.93751	1.07597	1.13870
139820	129.25754	129.64374	131.70351	1.14709	1.23733	1.11768	116.12256	126.90910	130.60502	0.75675	0.86786	0.18767	129.73619	126.86153	128.01775	0.93663	1.07259	1.13524
139980	129.25754	129.64374	131.70351	1.14642	1.23773	1.11848	116.12256	126.90910	130.60502	0.75704	0.86893	0.18856	129.73619	126.86153	128.01775	0.93779	1.07399	1.13701
140140	129.25754	129.64374	131.70351	1.14524	1.23619	1.11616	116.12256	126.90910	130.60502	0.75495	0.86664	0.18696	129.73619	126.86153	128.01775	0.93619	1.07044	1.13403
140310	129.25754	129.64374	131.70351	1.14666	1.23816	1.11837	116.12256	126.90910	130.60502	0.75669	0.86776	0.18883	129.73619	126.86153	128.01775	0.93847	1.07398	1.13685
140470	129.25754	129.64374	131.70351	1.14522	1.23496	1.11620	116.12256	126.90910	130.60502	0.75519	0.86561	0.18639	129.73619	126.86153	128.01775	0.93531	1.07120	1.13411
140630	129.25950	129.64652	131.70531	1.15246	1.24405	1.12424	116.12583	126.91185	130.60720	0.76056	0.87169	0.19137	129.73837	126.86374	128.01982	0.94358	1.08047	1.14276	29.03	6.1	0.00	6.68	0.01280	0.01309	0.01654	0.00796	0.00592	0.00648	0.00474	0.01280	0.01699	0.00687	0.00711	0.00896	0.01505	0.01106	0.01207	0.00223	0.00633	0.00885
140800	129.25950	129.64652	131.70531	1.14959	1.24131	1.12144	116.12583	126.91185	130.60720	0.75782	0.87000	0.19004	129.73837	126.86374	128.01982	0.93898	1.07669	1.13912
140960	129.25950	129.64652	131.70531	1.15178	1.24417	1.12363	116.12583	126.91185	130.60720	0.76068	0.87165	0.19161	129.73837	126.86374	128.01982	0.94530	1.07948	1.14265
141120	129.25950	129.64652	131.70531	1.15182	1.24175	1.12162	116.12583	126.91185	130.60720	0.75952	0.86979	0.18982	129.73837	126.86374	128.01982	0.94262	1.07759	1.13980
141290	129.25950	129.64652	131.70531	1.15199	1.24292	1.12365	116.12583	126.91185	130.60720	0.76111	0.87184	0.19148	129.73837	126.86374	128.01982	0.94466	1.08121	1.14271
141450	129.25950	129.64652	131.70531	1.15056	1.24295	1.12122	116.12583	126.91185	130.60720	0.75964	0.87049	0.18927	129.73837	126.86374	128.01982	0.94030	1.07782	1.13966
141610	129.25950	129.64652	131.70531	1.15149	1.24289	1.12293	116.12583	126.91185	130.60720	0.75993	0.87224	0.19149	129.73837	126.86374	128.01982	0.94310	1.07924	1.14168
141780	129.25950	129.64652	131.70531	1.15079	1.24184	1.12141	116.12583	126.91185	130.60720	0.75831	0.87152	0.19028	129.73837	126.86374	128.01982	0.94678	1.08088	1.14270
141940	129.25950	129.64652	131.70531	1.15193	1.24322	1.12326	116.12583	126.91185	130.60720	0.76061	0.87217	0.19155	129.73837	126.86374	128.01982	0.94314	1.07955	1.14165
142100	129.25950	129.64652	131.70531	1.14945	1.24007	1.12046	116.12583	126.91185	130.60720	0.75723	0.86854	0.18865	129.73837	126.86374	128.01982	0.94330	1.08039	1.14228
142270	129.26061	129.64770	131.70654	1.15517	1.24535	1.12473	116.12684	126.91343	130.60888	0.76225	0.87410	0.19295	129.73995	126.86530	128.02131	0.94141	1.08254	1.14293	29.03	6.2	0.00	6.70	0.01280	0.01309	0.01655	0.00796	0.00593	0.00649	0.00474	0.01280	0.01699	0.00688	0.00711	0.00896	0.01505	0.01107	0.01207	0.00223	0.00633	0.00886
142430	129.26061	129.64770	131.70654	1.15349	1.24340	1.12371	116.12684	126.91343	130.60888	0.76123	0.87243	0.19178	129.73995	126.86530	128.02131	0.94045	1.08080	1.14109
142590	129.26061	129.64770	131.70654	1.15206	1.24545	1.12749	116.12684	126.91343	130.60888	0.76405	0.87666	0.19621	129.73995	126.86530	128.02131	0.94337	1.08561	1.14756
142760	129.26061	129.64770	131.70654	1.15492	1.24547	1.12524	116.12684	126.91343	130.60888	0.76213	0.87367	0.19281	129.73995	126.86530	128.02131	0.94553	1.08491	1.14580
142920	129.26061	129.64770	131.70654	1.15488	1.24643	1.12502	116.12684	126.91343	130.60888	0.76288	0.87347	0.19249	129.73995	126.86530	128.02131	0.94105	1.08125	1.14339
143080	129.26061	129.64770	131.70654	1.15132	1.24153	1.12173	116.12684	126.91343	130.60888	0.76025	0.87010	0.19073	129.73995	126.86530	128.02131	0.94233	1.08348	1.14554
143250	129.26061	129.64770	131.70654	1.15399	1.24402	1.12438	116.12684	126.91343	130.60888	0.76209	0.87253	0.19211	129.73995	126.86530	128.02131	0.94229	1.08186	1.14404
143410	129.26061	129.64770	131.70654	1.15249	1.24326	1.12251	116.12684	126.91343	130.60888	0.76095	0.87231	0.19062	129.73995	126.86530	128.02131	0.94465	1.08522	1.14734
143580	129.26061	129.64770	131.70654	1.15581	1.24474	1.12414	116.12684	126.91343	130.60888	0.76331	0.87335	0.19236	129.73995	126.86530	128.02131	0.94161	1.08097	1.14274
143740	129.26061	129.64770	131.70654	1.15491	1.24570	1.12534	116.12684	126.91343	130.60888	0.76400	0.87401	0.19310	129.73995	126.86530	128.02131	0.94217	1.08216	1.14404
143900	129.26131	129.64906	131.70733	1.15636	1.24663	1.12604	116.12709	126.91413	130.60979	0.76337	0.87571	0.19425	129.74126	126.86643	128.02264	0.94442	1.08349	1.14468	29.03	5.9	0.00	6.65	0.01280	0.01310	0.01655	0.00796	0.00593	0.00649	0.00474	0.01280	0.01700	0.00688	0.00711	0.00897	0.01505	0.01107	0.01207	0.00223	0.00633	0.00886
144070	129.26131	129.64906	131.70733	1.15947	1.25101	1.12861	116.12709	126.91413	130.60979	0.76732	0.88033	0.19857	129.74126	126.86643	128.02264	0.95127	1.08871	1.14908
144230	129.26131	129.64906	131.70733	1.15775	1.24692	1.12608	116.12709	126.91413	130.60979	0.76435	0.87598	0.19519	129.74126	126.86643	128.02264	0.94570	1.08572	1.14728
144390	129.26131	129.64906	131.70733	1.15579	1.24790	1.12521	116.12709	126.91413	130.60979	0.76364	0.87572	0.19431	129.74126	126.86643	128.02264	0.94286	1.08328	1.14448
144560	129.26131	129.64906	131.70733	1.15457	1.24661	1.12418	116.12709	126.91413	130.60979	0.76285	0.87476	0.19358	129.74126	126.86643	128.02264	0.94618	1.08125	1.14425
144720	129.26131	129.64906	131.70733	1.15800	1.25015	1.12915	116.12709	126.91413	130.60979	0.76546	0.87726	0.19751	129.74126	126.86643	128.02264	0.94866	1.08737	1.14874
144880	129.26131	129.64906	131.70733	1.15668	1.24627	1.12574	116.12709	126.91413	130.60979	0.76238	0.87487	0.19511	129.74126	126.86643	128.02264	0.94302	1.08363	1.14533
145050	129.26131	129.64906	131.70733	1.15475	1.24660	1.12551	116.12709	126.91413	130.60979	0.76307	0.87413	0.19405	129.74126	126.86643	128.02264	0.94330	1.08347	1.14448
145210	129.26131	129.64906	131.70733	1.15506	1.24626	1.12542	116.12709	126.91413	130.60979	0.76310	0.87469	0.19367	129.74126	126.86643	128.02264	0.94218	1.08208	1.14328
145370	129.26131	129.64906	131.70733	1.15688	1.24981	1.12808	116.12709	126.91413	130.60979	0.76517	0.87717	0.19640	129.74126	126.86643	128.02264	0.94750	1.08609	1.14831
145540	129.26215	129.64988	131.70780	1.15923	1.25057	1.12842	116.12809	126.91464	130.61049	0.76523	0.87505	0.19635	129.74174	126.86708	128.02333	0.95172	1.09107	1.15259	29.03	6.0	0.00	5.79	0.01280	0.01310	0.01655	0.00797	0.00593	0.00649	0.00474	0.01280	0.01700	0.00688	0.00711	0.00897	0.01505	0.01107	0.01207	0.00224	0.00633	0.00886
145700	129.26215	129.64988	131.70780	1.16227	1.25311	1.13092	116.12809	126.91464	130.61049	0.76804	0.87872	0.19858	129.74174	126.86708	128.02333	0.95252	1.09024	1.15143
145860	129.26215	129.64988	131.70780	1.15949	1.25002	1.12786	116.12809	126.91464	130.61049	0.76529	0.87503	0.19598	129.74174	126.86708	128.02333	0.94715	1.08557	1.14701
146020	129.26215	129.64988	131.70780	1.15752	1.25114	1.13003	116.12809	126.91464	130.61049	0.76788	0.87668	0.19789	129.74174	126.86708	128.02333	0.95304	1.08865	1.14969
146190	129.26215	129.64988	131.70780	1.15816	1.24938	1.12670	116.12809	126.91464	130.61049	0.76531	0.87558	0.19486	129.74174	126.86708	128.02333	0.94591	1.08531	1.14603
146350	129.26215	129.64988	131.70780	1.15664	1.24768	1.12475	116.12809	126.91464	130.61049	0.76361	0.87590	0.19417	129.74174	126.86708	128.02333	0.94431	1.08291	1.14492
146510	129.26215	129.64988	131.70780	1.15537	1.25110	1.12926	116.12809	126.91464	130.61049	0.76783	0.87997	0.19827	129.74174	126.86708	128.02333	0.95192	1.09008	1.15085
146680	129.26215	129.64988	131.70780	1.15934	1.25073	1.12757	116.12809	126.91464	130.61049	0.76604	0.87677	0.19594	129.74174	126.86708	128.02333	0.94375	1.08525	1.14622
146840	129.26215	129.64988	131.70780	1.15681	1.25122	1.12981	116.12809	126.91464	130.61049	0.76798	0.87972	0.19829	129.74174	126.86708	128.02333	0.95168	1.08939	1.15079
147000	129.26215	129.64988	131.70780	1.15903	1.24971	1.12723	116.12809	126.91464	130.61049	0.76435	0.87585	0.19551	129.74174	126.86708	128.02333	0.94639	1.08424	1.14563
147170	129.26271	129.65020	131.70827	1.16147	1.25294	1.13036	116.12860	126.91515	130.61098	0.76993	0.88089	0.20054	129.74285	126.86810	128.02422	0.95281	1.09168	1.15199	29.03	6.1	0.00	6.71	0.01281	0.01310	0.01655	0.00797	0.00593	0.00649	0.00474	0.01281	0.01700	0.00688	0.00711	0.00897	0.01505	0.01107	0.01207	0.00224	0.00633	0.00886
147330	129.26271	129.65020	131.70827	1.16023	1.25109	1.12829	116.12860	126.91515	130.61098	0.76729	0.87797	0.19697	129.74285	126.86810	128.02422	0.95105	1.08688	1.14799
147490	129.26271	129.65020	131.70827	1.16098	1.25226	1.13028	116.12860	126.91515	130.61098	0.76901	0.87908	0.19871	129.74285	126.86810	128.02422	0.95033	1.08977	1.15137
147660	129.26271	129.65020	131.70827	1.15944	1.25156	1.12813	116.12860	126.91515	130.61098	0.76688	0.87694	0.19675	129.74285	126.86810	128.02422	0.95001	1.08733	1.14823
147820	129.26271	129.65020	131.70827	1.16002	1.25229	1.13014	116.12860	126.91515	130.61098	0.76865	0.87899	0.19852	129.74285	126.86810	128.02422	0.95073	1.09055	1.15068
147980	129.26271	129.65020	131.70827	1.15980	1.25158	1.12746	116.12860	126.91515	130.61098	0.76694	0.87758	0.19657	129.74285	126.86810	128.02422	0.95017	1.08806	1.14830
148150	129.26271	129.65020	131.70827	1.16118	1.25195	1.13036	116.12860	126.91515	130.61098	0.76909	0.88009	0.19929	129.74285	126.86810	128.02422	0.95345	1.08956	1.15032
148310	129.26271	129.65020	131.70827	1.16047	1.25097	1.12796	116.12860	126.91515	130.61098	0.76741	0.87754	0.19660	129.74285	126.86810	128.02422	0.94889	1.08643	1.14805
148470	129.26271	129.65020	131.70827	1.16079	1.25220	1.12915	116.12860	126.91515	130.61098	0.76902	0.87960	0.19798	129.74285	126.86810	128.02422	0.95097	1.08911	1.14952
148640	129.26271	129.65020	131.70827	1.15929	1.25051	1.12694	116.12860	126.91515	130.61098	0.76740	0.87764	0.19606	129.74285	126.86810	128.02422	0.94733	1.08575	1.14680
148800	129.26322	129.65107	131.70884	1.16221	1.25428	1.13132	116.12960	126.91553	130.61133	0.76988	0.88103	0.19935	129.74324	126.86891	128.02461	0.95497	1.09231	1.15207	29.03	6.1	0.00	6.70	0.01281	0.01310	0.01655	0.00797	0.00593	0.00649	0.00474	0.01281	0.01700	0.00688	0.00711	0.00897	0.01505	0.01107	0.01207	0.00224	0.00634	0.00886
148960	129.26322	129.65107	131.70884	1.16055	1.25183	1.12916	116.12960	126.91553	130.61133	0.76723	0.87979	0.19728	129.74324	126.86891	128.02461	0.94885	1.08859	1.14899
149130	129.26322	129.65107	131.70884	1.16305	1.25453	1.13166	116.12960	126.91553	130.61133	0.77037	0.88147	0.20042	129.74324	126.86891	128.02461	0.95465	1.09330	1.15263
149290	129.26322	129.65107	131.70884	1.16160	1.25219	1.12900	116.12960	126.91553	130.61133	0.76783	0.87849	0.19744	129.74324	126.86891	128.02461	0.94933	1.08880	1.14965
149450	129.26322	129.65107	131.70884	1.16231	1.25379	1.13150	116.12960	126.91553	130.61133	0.76979	0.88098	0.19959	129.74324	126.86891	128.02461	0.95417	1.09151	1.15180
149620	129.26322	129.65107	131.70884	1.16020	1.25124	1.12960	116.12960	126.91553	130.61133	0.76636	0.87745	0.19630	129.74324	126.86891	128.02461	0.95445	1.09111	1.15172
149780	129.26322	129.65107	131.70884	1.16179	1.25271	1.13061	116.12960	126.91553	130.61133	0.76822	0.87907	0.19819	129.74324	126.86891	128.02461	0.95129	1.09012	1.15052
149940	129.26322	129.65107	131.70884	1.15957	1.25041	1.12804	116.12960	126.91553	130.61133	0.76603	0.87689	0.19625	129.74324	126.86891	128.02461	0.95009	1.08743	1.14791
150110	129.26322	129.65107	131.70884	1.15822	1.25302	1.13229	116.12960	126.91553	130.61133	0.76950	0.88017	0.20003	129.74324	126.86891	128.02461	0.95421	1.09216	1.15204
150270	129.26322	129.65107	131.70884	1.16141	1.25152	1.12867	116.12960	126.91553	130.61133	0.76551	0.87683	0.19648	129.74324	126.86891	128.02461	0.94713	1.08780	1.14818
150430	129.26331	129.65134	131.70902	1.15884	1.25219	1.13104	116.12860	126.91594	130.61158	0.76811	0.87804	0.19835	129.74336	126.86886	128.02446	0.95181	1.09218	1.15224	29.03	6.2	0.00	6.73	0.01281	0.01310	0.01655	0.00797	0.00593	0.00649	0.00474	0.01281	0.01700	0.00688	0.00711	0.00897	0.01505	0.01107	0.01207	0.00224	0.00634	0.00886
150600	129.26331	129.65134	131.70902	1.16111	1.25148	1.12825	116.12860	126.91594	130.61158	0.76560	0.87653	0.19617	129.74336	126.86886	128.02446	0.94765	1.08733	1.14823
150760	129.26331	129.65134	131.70902	1.15931	1.25330	1.13215	116.12860	126.91594	130.61158	0.76909	0.87926	0.19952	129.74336	126.86886	128.02446	0.95449	1.09335	1.15303
150920	129.26331	129.65134	131.70902	1.16166	1.25219	1.12908	116.12860	126.91594	130.61158	0.76678	0.87752	0.19632	129.74336	126.86886	128.02446	0.95113	1.08778	1.14928
151090	129.26331	129.65134	131.70902	1.16336	1.25513	1.13202	116.12860	126.91594	130.61158	0.76972	0.87968	0.19957	129.74336	126.86886	128.02446	0.95373	1.09220	1.15248
151250	129.26331	129.65134	131.70902	1.16227	1.25265	1.12895	116.12860	126.91594	130.61158	0.76635	0.87729	0.19664	129.74336	126.86886	128.02446	0.94917	1.08809	1.14841
151410	129.26331	129.65134	131.70902	1.16171	1.25263	1.13014	116.12860	126.91594	130.61158	0.76721	0.87799	0.19829	129.74336	126.86886	128.02446	0.94765	1.09361	1.15011
151570	129.26331	129.65134	131.70902	1.15925	1.25170	1.12820	116.12860	126.91594	130.61158	0.76611	0.87734	0.19602	129.74336	126.86886	128.02446	0.94933	1.08897	1.14867
151740	129.26331	129.65134	131.70902	1.15792	1.24892	1.12590	116.12860	126.91594	130.61158	0.76444	0.87538	0.19428	129.74336	126.86886	128.02446	0.95109	1.09283	1.15336
151900	129.26331	129.65134	131.70902	1.16241	1.25272	1.12922	116.12860	126.91594	130.61158	0.76682	0.87843	0.19665	129.74336	126.86886	128.02446	0.95009	1.08954	1.15007
152070	129.26336	129.65093	131.70902	1.15941	1.25006	1.12657	116.12847	126.91622	130.61161	0.76528	0.87585	0.19507	129.74364	126.86864	128.02442	0.95356	1.09501	1.15477	29.03	6.1	0.00	6.70	0.01281	0.01310	0.01655	0.00797	0.00593	0.00649	0.00474	0.01281	0.01700	0.00688	0.00711	0.00897	0.01505	0.01107	0.01207	0.00224	0.00634	0.00886
152230	129.26336	129.65093	131.70902	1.16493	1.25458	1.13232	116.12847	126.91622	130.61161	0.76911	0.87908	0.19861	129.74364	126.86864	128.02442	0.94975	1.09038	1.15143
152390	129.26336	129.65093	131.70902	1.16332	1.25378	1.13169	116.12847	126.91622	130.61161	0.76848	0.87984	0.19949	129.74364	126.86864	128.02442	0.95051	1.09114	1.15132
152560	129.26336	129.65093	131.70902	1.16129	1.25128	1.12991	116.12847	126.91622	130.61161	0.76601	0.87717	0.19698	129.74364	126.86864	128.02442	0.94867	1.08798	1.14894
152720	129.26336	129.65093	131.70902	1.16375	1.25450	1.13277	116.12847	126.91622	130.61161	0.76958	0.88015	0.19960	129.74364	126.86864	128.02442	0.95160	1.09294	1.15290
152880	129.26336	129.65093	131.70902	1.16159	1.25154	1.12929	116.12847	126.91622	130.61161	0.76634	0.87759	0.19625	129.74364	126.86864	128.02442	0.94739	1.08867	1.14847
153050	129.26336	129.65093	131.70902	1.16384	1.25435	1.13284	116.12847	126.91622	130.61161	0.76965	0.87957	0.19938	129.74364	126.86864	128.02442	0.95143	1.09261	1.15273
153210	129.26336	129.65093	131.70902	1.16214	1.25165	1.12953	116.12847	126.91622	130.61161	0.76661	0.87690	0.19668	129.74364	126.86864	128.02442	0.95027	1.08851	1.14870
153370	34.02865	34.41622	36.47431	1.15947	1.24858	1.12676	129.99142	140.77917	25.75172	0.76429	0.87440	0.19412	129.74364	126.86864	128.02442	0.94995	1.09162	1.15266
153540	35.85165	36.23922	38.29731	1.16323	1.25380	1.13079	13.09175	23.87950	27.57489	0.76760	0.87799	0.19630	129.74364	126.86864	128.02442	0.94935	1.09016	1.15096
153700	37.67492	38.06239	40.12068	1.16299	1.25343	1.13066	14.91440	25.70256	29.39846	0.76753	0.87995	0.19827	19.07019	16.19515	17.35080	0.94767	1.08896	1.14929	29.03	6.1	0.00	6.84	0.01281	0.01310	0.01655	0.00797	0.00593	0.00649	0.00474	0.01281	0.01700	0.00688	0.00712	0.00897	0.01505	0.01107	0.01207	0.00224	0.00634	0.00886
153860	19.34688	17.90314	19.34336	1.16145	1.25158	1.12939	129.99091	34.55240	20.18138	0.76537	0.87777	0.19603	20.89340	18.01835	19.17401	0.94507	1.08682	1.14770
154030	18.72077	19.10825	21.16654	1.16005	1.25398	1.13231	7.52049	18.30866	22.00456	0.76991	0.88024	0.20071	22.71657	19.84152	20.99718	0.94915	1.09328	1.15298
154190	20.54397	20.93144	22.98973	1.16367	1.25306	1.12954	9.34369	20.13185	23.82776	0.76603	0.87911	0.19731	24.53974	21.66469	22.82035	0.94719	1.08882	1.14901
154350	22.36713	22.75461	24.81290	1.16159	1.25432	1.13205	11.16687	21.95503	25.65094	0.76916	0.88103	0.19927	26.36297	23.48792	24.64358	0.95188	1.09298	1.15400
154520	24.19036	24.57784	26.63613	1.16290	1.25228	1.13081	12.99006	23.77822	27.47413	0.76595	0.87808	0.19692	28.18613	25.31109	26.46674	0.94607	1.08761	1.14833
154680	26.01348	26.40096	28.45925	1.16027	1.25309	1.13143	14.81328	25.60144	29.29734	0.76803	0.87879	0.19894	30.00927	27.13423	28.28988	0.94995	1.09201	1.15268
154840	27.83663	28.22411	30.28240	1.16210	1.25192	1.13059	16.63643	27.42459	31.12050	0.76566	0.87730	0.19618	31.83237	28.95733	30.11298	0.94503	1.08718	1.14799
155010	29.65979	30.04726	32.10555	1.16378	1.25456	1.13193	18.45960	29.24776	32.94366	0.76736	0.87994	0.19815	33.65547	30.78043	31.93608	0.95007	1.09137	1.15155
155170	31.48303	31.87050	33.92879	1.16207	1.25180	1.12897	20.28276	31.07092	34.76682	0.76548	0.87750	0.19608	35.47856	32.60351	33.75917	0.94503	1.08737	1.14824
155330	33.30611	33.69377	35.75199	1.15950	1.24987	1.12707	22.10690	32.89407	36.59004	0.76389	0.87555	0.19475	37.30169	34.42673	35.58242	0.94990	1.09547	1.15498	29.03	6.1	0.00	6.72	0.01281	0.01310	0.01655	0.00797	0.00593	0.00649	0.00474	0.01281	0.01700	0.00688	0.00712	0.00897	0.01505	0.01107	0.01208	0.00224	0.00634	0.00886
155500	35.12926	35.51692	37.57514	1.16594	1.25510	1.13239	23.93015	34.71732	38.41330	0.76895	0.87944	0.19829	39.12476	36.24980	37.40549	0.94950	1.09175	1.15070
155660	36.95227	37.33993	39.39815	1.16470	1.25418	1.13293	25.75317	36.54034	40.23632	0.76978	0.88056	0.19953	40.94792	38.07296	39.22865	0.95090	1.09251	1.15216
155820	38.77529	39.16295	41.22117	1.16295	1.25265	1.12991	27.57639	38.36356	42.05953	0.76695	0.87785	0.19728	42.77099	39.89603	41.05172	0.94702	1.08843	1.14813
155990	40.59839	40.98605	43.04427	1.16317	1.25384	1.13233	29.39910	40.18627	43.88225	0.76885	0.88123	0.19809	44.59413	41.71916	42.87485	0.94890	1.09113	1.15074
156150	42.42160	42.80926	44.86749	1.16222	1.25240	1.12985	31.22215	42.00932	45.70529	0.76611	0.87884	0.19683	46.41674	43.54178	44.69747	0.94514	1.08799	1.14918
156310	44.24423	44.63189	46.69011	1.16357	1.25433	1.13146	33.04526	43.83243	47.52841	0.76880	0.88007	0.19856	48.24008	45.36511	46.52080	0.94874	1.09131	1.15068
156480	46.06754	46.45520	48.51343	1.16216	1.25299	1.12986	34.86761	45.65478	49.35076	0.76712	0.87930	0.19682	50.06257	47.18761	48.34330	0.94654	1.08881	1.14880
156640	47.89027	48.27793	50.33616	1.16388	1.25499	1.13268	36.69039	47.47756	51.17353	0.76891	0.88123	0.19919	51.88579	49.01082	50.16651	0.95130	1.09317	1.15205
156800	49.71276	50.10042	52.15864	1.16195	1.25228	1.13059	38.51378	49.30095	52.99692	0.76535	0.87849	0.19643	53.70755	50.83259	51.98827	0.94750	1.08802	1.14774
156970	51.53625	51.92386	53.98200	1.16357	1.25555	1.13248	40.33753	51.12345	54.81925	0.76932	0.88007	0.20002	55.53120	52.65612	53.81208	0.95251	1.09406	1.15161	29.03	6.1	0.00	6.71	0.01281	0.01310	0.01655	0.00797	0.00593	0.00649	0.00474	0.01281	0.01700	0.00688	0.00712	0.00897	0.01506	0.01107	0.01208	0.00224	0.00634	0.00886
157130	53.35905	53.74665	55.80479	1.16272	1.25233	1.13011	42.15946	52.94539	56.64119	0.76587	0.87696	0.19660	57.35232	54.47725	55.63320	0.94619	1.08955	1.14831
157290	55.18150	55.56911	57.62725	1.16364	1.25511	1.13133	43.98176	54.76769	58.46349	0.76881	0.87964	0.19943	59.17410	56.29903	57.45498	0.95151	1.09283	1.15139
157460	57.00351	57.39111	59.44926	1.16222	1.25267	1.12888	45.80424	56.59017	60.28597	0.76570	0.87643	0.19642	60.99731	58.12224	59.27820	0.95123	1.09292	1.15218
157620	58.82563	59.21324	61.27138	1.16440	1.25391	1.13211	47.62657	58.41250	62.10830	0.76703	0.87849	0.19842	62.81743	59.94236	61.09831	0.94843	1.09190	1.15108
157780	60.64666	61.03427	63.09241	1.16219	1.25089	1.12867	49.44820	60.23413	63.92993	0.76584	0.87457	0.19496	64.63817	61.76309	62.91905	0.94243	1.08616	1.14682
157950	62.46779	62.85539	64.91354	1.16036	1.25351	1.13212	51.26887	62.05480	65.75060	0.76943	0.88088	0.19943	66.46064	63.58556	64.74152	0.95123	1.09461	1.15315
158110	64.28849	64.67610	66.73424	1.16326	1.25327	1.12968	53.09057	63.87649	67.57229	0.76568	0.87816	0.19632	68.28118	65.40610	66.56206	0.94567	1.08912	1.14837
158270	66.11020	66.49781	68.55595	1.16041	1.25395	1.13165	54.91104	65.69697	69.39277	0.76788	0.87952	0.19879	70.10225	67.22718	68.38314	0.95308	1.09334	1.15194
158440	67.92980	68.31740	70.37555	1.16239	1.25287	1.12849	56.72877	67.51470	71.21050	0.76569	0.87835	0.19571	71.92161	69.04654	70.20250	0.94655	1.08812	1.14723
158600	69.75109	70.13884	72.19701	1.16109	1.25379	1.13108	58.54913	69.33553	73.03092	0.76786	0.87765	0.19891	73.74159	70.86677	72.02282	0.95217	1.09198	1.15155	28.98	6.1	0.00	6.83	0.01281	0.01310	0.01655	0.00797	0.00593	0.00649	0.00474	0.01281	0.01700	0.00688	0.00711	0.00897	0.01505	0.01107	0.01208	0.00224	0.00634	0.00886
158760	71.57300	71.96075	74.01893	1.16277	1.25247	1.12868	60.37077	71.15717	74.85256	0.76512	0.87599	0.19652	75.56111	72.68629	73.84234	0.94860	1.08873	1.14803
158930	73.39154	73.77929	75.83746	1.16426	1.25450	1.13288	62.18263	72.96903	76.66442	0.76828	0.87837	0.19887	77.37990	74.50507	75.66112	0.95461	1.09256	1.15176
159090	75.20352	75.59127	77.64944	1.16267	1.25299	1.12977	64.00811	74.79452	78.48991	0.76518	0.87627	0.19667	79.19779	76.32297	77.47902	0.94960	1.08914	1.14884
159250	77.02001	77.40776	79.46593	1.16322	1.25303	1.13147	65.82588	76.61228	80.30767	0.76632	0.87697	0.19717	81.01144	78.13662	79.29267	0.95040	1.09081	1.15020
159420	78.84591	79.23366	81.29184	1.16234	1.25175	1.12955	67.62951	78.41591	82.11130	0.76602	0.87580	0.19530	82.83084	79.95601	81.11206	0.94896	1.08856	1.14821
159580	80.64654	81.03429	83.09246	1.16352	1.25428	1.13202	69.44881	80.23521	83.93060	0.76687	0.87751	0.19740	84.63572	81.76090	82.91695	0.95257	1.09170	1.15142
159740	82.46589	82.85363	84.91181	1.16268	1.25320	1.13103	71.27202	82.05843	85.75382	0.76514	0.87579	0.19654	86.43698	83.56216	84.71821	0.94872	1.08880	1.14872
159910	84.26593	84.65368	86.71185	1.16386	1.25466	1.13215	73.05588	83.84228	87.53767	0.76756	0.87817	0.19794	88.23392	85.35909	86.51514	0.95096	1.09229	1.15138
160070	86.08914	86.47689	88.53506	1.16240	1.25167	1.12901	74.85891	85.64532	89.34071	0.76416	0.87625	0.19522	90.04140	87.16657	88.32262	0.94792	1.08871	1.14816
160230	87.87242	88.26016	90.31805	1.16386	1.25499	1.13334	76.66636	87.45263	91.14793	0.76742	0.87744	0.19839	91.84572	88.97100	90.12675	0.94967	1.09197	1.15197	29.03	6.1	0.00	6.74	0.01281	0.01310	0.01655	0.00797	0.00593	0.00649	0.00474	0.01281	0.01700	0.00688	0.00712	0.00897	0.01505	0.01107	0.01208	0.00224	0.00634	0.00887
160400	89.70361	90.09135	92.14924	1.16266	1.25312	1.13078	78.46064	89.24690	92.94220	0.76518	0.87688	0.19659	93.63509	90.76038	91.91612	0.94811	1.08917	1.14816
160560	91.47909	91.86683	93.92472	1.16501	1.25632	1.13380	80.22621	91.01248	94.70778	0.76864	0.87896	0.19802	95.40440	92.52968	93.68543	0.95135	1.09224	1.15232
160720	93.29089	93.67863	95.73651	1.16357	1.25323	1.12984	82.03565	92.82191	96.51721	0.76440	0.87581	0.19589	97.16331	94.28859	95.44434	0.94751	1.08730	1.14769
160890	95.08674	95.47448	97.53237	1.16525	1.25550	1.13375	83.84235	94.62861	98.32391	0.76822	0.87933	0.19866	98.94813	96.07342	97.22917	0.95351	1.09286	1.15168
161050	96.87723	97.26496	99.32285	1.16355	1.25292	1.12978	85.56704	96.35331	100.04861	0.76449	0.87637	0.19629	100.70262	97.82791	98.98365	0.94947	1.08853	1.14788
161210	98.58348	98.97122	101.02911	1.15870	1.24985	1.12713	87.36675	98.15302	101.84832	0.76285	0.87422	0.19358	102.49848	99.62376	100.77951	0.95183	1.09365	1.15357
161380	100.36029	100.74803	102.80592	1.16427	1.25488	1.13218	89.05011	99.83637	103.53167	0.76668	0.87816	0.19738	104.09478	101.22006	102.37581	0.95047	1.09318	1.15145
161540	102.18351	102.57125	104.62913	1.16433	1.25357	1.13233	90.87332	101.65959	105.35489	0.76627	0.87775	0.19794	105.76532	102.89060	104.04635	0.95099	1.09160	1.15067
161700	103.80870	104.19644	106.25432	1.16121	1.25154	1.12835	92.61686	103.40312	107.09842	0.76425	0.87392	0.19460	107.49804	104.62332	105.77907	0.95127	1.09088	1.15041
161870	105.51481	105.90242	107.96054	1.16239	1.25280	1.13031	94.15773	104.94463	108.64017	0.76408	0.87578	0.19568	109.26774	106.39311	107.54847	0.95298	1.09084	1.15029	29.03	6.2	0.00	6.70	0.01281	0.01310	0.01655	0.00797	0.00593	0.00649	0.00474	0.01281	0.01700	0.00688	0.00712	0.00897	0.01506	0.01107	0.01208	0.00224	0.00634	0.00887
162030	107.29163	107.67923	109.73735	1.16110	1.25187	1.12924	95.98095	106.76785	110.46339	0.76385	0.87575	0.19480	110.64924	107.77462	108.92998	0.95114	1.09186	1.15051
162190	109.11484	109.50245	111.56057	1.16228	1.25301	1.12999	97.41196	108.19885	111.89440	0.76498	0.87613	0.19485	112.25267	109.37804	110.53340	0.94978	1.09029	1.15036
162360	110.54585	110.93345	112.99158	1.16060	1.25024	1.12829	99.08250	109.86939	113.56494	0.76347	0.87502	0.19455	114.16322	111.28859	112.44396	0.95398	1.09366	1.15253
162520	112.21639	112.60400	114.66212	1.16438	1.25459	1.13171	100.54853	111.33543	115.03097	0.76531	0.87657	0.19653	115.27548	112.40085	113.55621	0.95234	1.09055	1.15023
162690	113.68242	114.07003	116.12815	1.16227	1.25320	1.13040	102.26704	113.05393	116.74948	0.76560	0.87643	0.19543	117.21704	114.34241	115.49777	0.95014	1.08991	1.14983
162850	115.40093	115.78853	117.84666	1.16235	1.25212	1.12983	103.60235	114.38925	118.08479	0.76574	0.87545	0.19517	118.75854	115.88392	117.03928	0.95134	1.08884	1.14876
163010	116.73624	117.12385	119.18197	1.16298	1.25490	1.13092	105.14386	115.93075	119.62630	0.76648	0.87773	0.19603	119.62866	116.75403	117.90939	0.95250	1.09141	1.14996
163180	118.27775	118.66535	120.72348	1.16141	1.25295	1.12904	106.96707	117.75397	121.44951	0.76445	0.87577	0.19509	121.63536	118.76074	119.91610	0.94586	1.08791	1.14763
163340	120.10096	120.48857	122.54669	1.16292	1.25468	1.13208	108.02068	118.80757	122.50312	0.76659	0.87839	0.19667	122.81319	119.93857	121.09393	0.95362	1.09254	1.15088
163500	121.15434	121.54213	123.60033	1.16173	1.25230	1.12943	109.19826	119.98545	123.68116	0.76311	0.87679	0.19474	124.14831	121.27361	122.42895	0.95030	1.08787	1.14768	29.03	6.0	0.00	6.69	0.01281	0.01310	0.01655	0.00797	0.00593	0.00649	0.00474	0.01281	0.01700	0.00688	0.00712	0.00897	0.01506	0.01107	0.01208	0.00224	0.00634	0.00887
163670	122.33217	122.71996	124.77816	1.16368	1.25488	1.13282	110.53357	121.32076	125.01647	0.76735	0.87966	0.19768	124.14831	121.27361	122.42895	0.95365	1.09189	1.15266
163830	123.66748	124.05527	126.11348	1.16268	1.25304	1.13025	112.07508	122.86227	126.55798	0.76355	0.87629	0.19444	125.68982	122.81512	123.97046	0.95010	1.08791	1.14764
163990	125.20899	125.59678	127.65498	1.16230	1.25407	1.13112	112.07508	122.86227	126.55798	0.76569	0.87817	0.19591	127.51303	124.63834	125.79367	0.95273	1.09066	1.15074
164160	125.20899	125.59678	127.65498	1.16003	1.25162	1.12915	113.89829	124.68549	128.38120	0.76228	0.87472	0.19365	127.51303	124.63834	125.79367	0.95026	1.08740	1.14770
164320	127.03220	127.42000	129.47820	1.15734	1.24912	1.12599	113.89829	124.68549	128.38120	0.76079	0.87384	0.19180	127.51303	124.63834	125.79367	0.95185	1.09190	1.15154
164480	127.03220	127.42000	129.47820	1.16273	1.25256	1.13065	113.89829	124.68549	128.38120	0.76344	0.87644	0.19432	129.74447	126.86977	128.02511	0.95137	1.08908	1.14829
164650	127.03220	127.42000	129.47820	1.16128	1.25335	1.13106	116.12973	126.91692	130.61263	0.76490	0.87782	0.19501	129.74447	126.86977	128.02511	0.95221	1.09077	1.15016
164810	129.26364	129.65143	131.70963	1.15974	1.25104	1.12934	116.12973	126.91692	130.61263	0.76273	0.87559	0.19325	129.74447	126.86977	128.02511	0.95153	1.08771	1.14710
164970	129.26364	129.65143	131.70963	1.16159	1.25369	1.13136	116.12973	126.91692	130.61263	0.76500	0.87750	0.19538	129.74447	126.86977	128.02511	0.95333	1.09045	1.15031
165140	129.26396	129.65148	131.70971	1.16127	1.25189	1.12904	116.13061	126.91748	130.61302	0.76205	0.87421	0.19199	129.74423	126.86950	128.02501	0.95409	1.09330	1.15190	29.03	6.0	0.00	5.85	0.01281	0.01310	0.01655	0.00797	0.00593	0.00649	0.00474	0.01281	0.01700	0.00688	0.00712	0.00897	0.01505	0.01107	0.01208	0.00224	0.00634	0.00887
165300	129.26396	129.65148	131.70971	1.16423	1.25554	1.13272	116.13061	126.91748	130.61302	0.76602	0.87766	0.19620	129.74423	126.86950	128.02501	0.95437	1.09223	1.15120
165460	129.26396	129.65148	131.70971	1.16081	1.25168	1.12934	116.13061	126.91748	130.61302	0.76267	0.87342	0.19289	129.74423	126.86950	128.02501	0.95241	1.09072	1.15034
165630	129.26396	129.65148	131.70971	1.16235	1.25357	1.13037	116.13061	126.91748	130.61302	0.76390	0.87593	0.19420	129.74423	126.86950	128.02501	0.94974	1.08832	1.14737
165790	129.26396	129.65148	131.70971	1.15900	1.25076	1.12754	116.13061	126.91748	130.61302	0.76168	0.87446	0.19143	129.74423	126.86950	128.02501	0.94994	1.08571	1.14527
165950	129.26396	129.65148	131.70971	1.15743	1.25137	1.12984	116.13061	126.91748	130.61302	0.76430	0.87806	0.19356	129.74423	126.86950	128.02501	0.95014	1.08943	1.14862
166110	129.26396	129.65148	131.70971	1.15902	1.25099	1.12718	116.13061	126.91748	130.61302	0.76169	0.87435	0.19200	129.74423	126.86950	128.02501	0.94746	1.08609	1.14570
166280	129.26396	129.65148	131.70971	1.15778	1.25196	1.12960	116.13061	126.91748	130.61302	0.76355	0.87713	0.19358	129.74423	126.86950	128.02501	0.95085	1.08857	1.14789
166440	129.26396	129.65148	131.70971	1.15914	1.25070	1.12910	116.13061	126.91748	130.61302	0.76246	0.87516	0.19257	129.74423	126.86950	128.02501	0.94750	1.08682	1.14583
166610	129.26396	129.65148	131.70971	1.16008	1.25368	1.13030	116.13061	126.91748	130.61302	0.76367	0.87817	0.19418	129.74423	126.86950	128.02501	0.95097	1.08890	1.14889
166770	129.26392	129.65175	131.71003	1.15885	1.25013	1.12726	116.13111	126.91739	130.61319	0.75971	0.87341	0.19059	129.74427	126.86934	128.02496	0.94249	1.08451	1.14463	29.03	6.0	0.00	6.80	0.01281	0.01310	0.01655	0.00797	0.00593	0.00649	0.00474	0.01281	0.01700	0.00688	0.00712	0.00897	0.01505	0.01107	0.01208	0.00224	0.00634	0.00887
166930	129.26392	129.65175	131.71003	1.15946	1.25167	1.12904	116.13111	126.91739	130.61319	0.76261	0.87653	0.19275	129.74427	126.86934	128.02496	0.94621	1.08899	1.14873
167100	129.26392	129.65175	131.71003	1.15922	1.25034	1.12679	116.13111	126.91739	130.61319	0.75982	0.87389	0.18974	129.74427	126.86934	128.02496	0.94205	1.08448	1.14493
167260	129.26392	129.65175	131.71003	1.16095	1.25321	1.13062	116.13111	126.91739	130.61319	0.76406	0.87639	0.19289	129.74427	126.86934	128.02496	0.94873	1.08999	1.15012
167420	129.26392	129.65175	131.71003	1.15967	1.24992	1.12690	116.13111	126.91739	130.61319	0.76011	0.87370	0.19042	129.74427	126.86934	128.02496	0.94477	1.08810	1.14854
167590	129.26392	129.65175	131.71003	1.15859	1.24973	1.12658	116.13111	126.91739	130.61319	0.76009	0.87405	0.18980	129.74427	126.86934	128.02496	0.94437	1.08602	1.14597
167750	129.26392	129.65175	131.71003	1.15689	1.24844	1.12574	116.13111	126.91739	130.61319	0.75931	0.87110	0.18931	129.74427	126.86934	128.02496	0.94289	1.08446	1.14456
167910	129.26392	129.65175	131.71003	1.16153	1.25359	1.13161	116.13111	126.91739	130.61319	0.76386	0.87659	0.19282	129.74427	126.86934	128.02496	0.94785	1.09027	1.15029
168080	129.26392	129.65175	131.71003	1.16090	1.25057	1.12707	116.13111	126.91739	130.61319	0.76093	0.87367	0.19015	129.74427	126.86934	128.02496	0.94589	1.08764	1.14710
168240	129.26392	129.65175	131.71003	1.15792	1.24986	1.12654	116.13111	126.91739	130.61319	0.76034	0.87344	0.18956	129.74427	126.86934	128.02496	0.94285	1.08487	1.14545
168410	129.26396	129.65193	131.71021	1.15667	1.24845	1.12575	116.13124	126.91706	130.61284	0.75947	0.87395	0.18962	129.74427	126.86929	128.02476	0.94467	1.08653	1.14696	29.03	6.1	0.00	6.65	0.01281	0.01310	0.01655	0.00797	0.00593	0.00649	0.00474	0.01281	0.01700	0.00688	0.00712	0.00897	0.01505	0.01107	0.01208	0.00224	0.00634	0.00887
168570	129.26396	129.65193	131.71021	1.15801	1.24956	1.12559	116.13124	126.91706	130.61284	0.76091	0.87543	0.19021	129.74427	126.86929	128.02476	0.94227	1.08578	1.14558
168730	129.26396	129.65193	131.71021	1.15650	1.24901	1.12624	116.13124	126.91706	130.61284	0.76004	0.87309	0.18963	129.74427	126.86929	128.02476	0.94235	1.08758	1.14724
168900	129.26396	129.65193	131.71021	1.15910	1.25021	1.12624	116.13124	126.91706	130.61284	0.76066	0.87456	0.18977	129.74427	126.86929	128.02476	0.94175	1.08638	1.14645
169060	129.26396	129.65193	131.71021	1.15753	1.24940	1.12616	116.13124	126.91706	130.61284	0.76081	0.87410	0.19020	129.74427	126.86929	128.02476	0.94155	1.08569	1.14660
169220	129.26396	129.65193	131.71021	1.15703	1.24909	1.12538	116.13124	126.91706	130.61284	0.75895	0.87349	0.18962	129.74427	126.86929	128.02476	0.94591	1.08949	1.15020
169390	129.26396	129.65193	131.71021	1.16103	1.25289	1.12895	116.13124	126.91706	130.61284	0.76253	0.87610	0.19189	129.74427	126.86929	128.02476	0.94427	1.08793	1.14796
169550	129.26396	129.65193	131.71021	1.15803	1.25043	1.12783	116.13124	126.91706	130.61284	0.76087	0.87439	0.19104	129.74427	126.86929	128.02476	0.94363	1.08590	1.14663
169720	129.26396	129.65193	131.71021	1.15773	1.25031	1.12654	116.13124	126.91706	130.61284	0.76045	0.87437	0.19041	129.74427	126.86929	128.02476	0.94087	1.08474	1.14450
169880	129.26396	129.65193	131.71021	1.15612	1.25039	1.13015	116.13124	126.91706	130.61284	0.76259	0.87660	0.19233	129.74427	126.86929	128.02476	0.94727	1.08852	1.14890
170040	129.26364	129.65202	131.71039	1.15868	1.24819	1.12607	116.13073	126.91701	130.61284	0.75995	0.87325	0.19013	129.74415	126.86977	128.02491	0.94410	1.08786	1.14671	29.03	6.1	0.00	6.69	0.01281	0.01310	0.01655	0.00797	0.00593	0.00649	0.00474	0.01281	0.01700	0.00688	0.00712	0.00897	0.01505	0.01107	0.01208	0.00224	0.00634	0.00886
170210	129.26364	129.65202	131.71039	1.15775	1.24843	1.12464	116.13073	126.91701	130.61284	0.76030	0.87319	0.18976	129.74415	126.86977	128.02491	0.94114	1.08531	1.14601
170370	129.26364	129.65202	131.71039	1.15636	1.24668	1.12479	116.13073	126.91701	130.61284	0.75955	0.87173	0.18847	129.74415	126.86977	128.02491	0.94174	1.08629	1.14712
170530	129.26364	129.65202	131.71039	1.15932	1.24917	1.12653	116.13073	126.91701	130.61284	0.76125	0.87455	0.19040	129.74415	126.86977	128.02491	0.94302	1.08607	1.14547
170700	129.26364	129.65202	131.71039	1.15640	1.24590	1.12336	116.13073	126.91701	130.61284	0.75890	0.87401	0.18776	129.74415	126.86977	128.02491	0.94638	1.08944	1.14922
170860	129.26364	129.65202	131.71039	1.16111	1.25097	1.12777	116.13073	126.91701	130.61284	0.76304	0.87648	0.19162	129.74415	126.86977	128.02491	0.94226	1.08703	1.14575
171030	129.26364	129.65202	131.71039	1.15998	1.25178	1.12795	116.13073	126.91701	130.61284	0.76346	0.87724	0.19214	129.74415	126.86977	128.02491	0.94494	1.08725	1.14737
171190	129.26364	129.65202	131.71039	1.15828	1.24789	1.12512	116.13073	126.91701	130.61284	0.76046	0.87406	0.19020	129.74415	126.86977	128.02491	0.93790	1.08414	1.14383
171350	129.26364	129.65202	131.71039	1.15950	1.25090	1.12837	116.13073	126.91701	130.61284	0.76403	0.87616	0.19263	129.74415	126.86977	128.02491	0.94558	1.08707	1.14731
171520	129.26364	129.65202	131.71039	1.15800	1.24825	1.12517	116.13073	126.91701	130.61284	0.75979	0.87336	0.18894	129.74415	126.86977	128.02491	0.93806	1.08294	1.14313
171680	129.26402	129.65250	131.71030	1.15854	1.25025	1.12782	116.13126	126.91731	130.61307	0.76260	0.87620	0.19153	129.74420	126.87003	128.02465	0.94491	1.08673	1.14642	28.98	6.1	0.00	6.69	0.01281	0.01310	0.01655	0.00797	0.00593	0.00649	0.00474	0.01281	0.01700	0.00688	0.00712	0.00897	0.01505	0.01107	0.01207	0.00224	0.00634	0.00886
171840	129.26402	129.65250	131.71030	1.15695	1.24720	1.12555	116.13126	126.91731	130.61307	0.75884	0.87354	0.19010	129.74420	126.87003	128.02465	0.94347	1.08305	1.14321
172010	129.26402	129.65250	131.71030	1.15816	1.24935	1.12792	116.13126	126.91731	130.61307	0.76170	0.87457	0.19216	129.74420	126.87003	128.02465	0.94311	1.08693	1.14650
172170	129.26402	129.65250	131.71030	1.15718	1.24773	1.12596	116.13126	126.91731	130.61307	0.76045	0.87267	0.18983	129.74420	126.87003	128.02465	0.94083	1.08367	1.14386
172330	129.26402	129.65250	131.71030	1.15432	1.24493	1.12313	116.13126	126.91731	130.61307	0.75737	0.87154	0.18755	129.74420	126.87003	128.02465	0.94487	1.08896	1.14858
172500	129.26402	129.65250	131.71030	1.15952	1.24960	1.12695	116.13126	126.91731	130.61307	0.76181	0.87453	0.19062	129.74420	126.87003	128.02465	0.94535	1.08817	1.14798
172660	129.26402	129.65250	131.71030	1.16063	1.25093	1.12871	116.13126	126.91731	130.61307	0.76263	0.87621	0.19124	129.74420	126.87003	128.02465	0.94495	1.08770	1.14626
172820	129.26402	129.65250	131.71030	1.15728	1.24697	1.12510	116.13126	126.91731	130.61307	0.75985	0.87283	0.18859	129.74420	126.87003	128.02465	0.94459	1.08748	1.14741
172990	129.26402	129.65250	131.71030	1.15928	1.24881	1.12728	116.13126	126.91731	130.61307	0.76123	0.87462	0.19050	129.74420	126.87003	128.02465	0.94303	1.08531	1.14511
173150	129.26402	129.65250	131.71030	1.15596	1.24658	1.12382	116.13126	126.91731	130.61307	0.75868	0.87180	0.18809	129.74420	126.87003	128.02465	0.94419	1.08627	1.14586
173310	129.26388	129.65218	131.71034	1.15780	1.24757	1.12546	116.13114	126.91722	130.61303	0.75972	0.87341	0.18995	129.74428	126.87019	128.02426	0.94218	1.08419	1.14395	28.98	6.2	0.00	6.71	0.01281	0.01310	0.01655	0.00797	0.00593	0.00649	0.00474	0.01281	0.01700	0.00688	0.00712	0.00897	0.01505	0.01107	0.01207	0.00224	0.00634	0.00886
173480	129.26388	129.65218	131.71034	1.15635	1.24596	1.12385	116.13114	126.91722	130.61303	0.75949	0.87253	0.18839	129.74428	126.87019	128.02426	0.94614	1.08659	1.14537
173640	129.26388	129.65218	131.71034	1.15850	1.24828	1.12625	116.13114	126.91722	130.61303	0.76127	0.87342	0.19010	129.74428	126.87019	128.02426	0.94462	1.08446	1.14414
173800	129.26388	129.65218	131.71034	1.15523	1.24498	1.12256	116.13114	126.91722	130.61303	0.75738	0.87169	0.18782	129.74428	126.87019	128.02426	0.94578	1.08754	1.14633
173970	129.26388	129.65218	131.71034	1.15845	1.24894	1.12629	116.13114	126.91722	130.61303	0.76073	0.87367	0.19058	129.74428	126.87019	128.02426	0.94214	1.08400	1.14354
174130	129.26388	129.65218	131.71034	1.15488	1.24489	1.12278	116.13114	126.91722	130.61303	0.75726	0.86992	0.18706	129.74428	126.87019	128.02426	0.94438	1.08846	1.14850
174300	129.26388	129.65218	131.71034	1.15968	1.25002	1.12746	116.13114	126.91722	130.61303	0.76129	0.87380	0.19079	129.74428	126.87019	128.02426	0.94386	1.08506	1.14486
174460	129.26388	129.65218	131.71034	1.15957	1.25098	1.12895	116.13114	126.91722	130.61303	0.76206	0.87467	0.19282	129.74428	126.87019	128.02426	0.94454	1.08735	1.14646
174620	129.26388	129.65218	131.71034	1.15850	1.24788	1.12641	116.13114	126.91722	130.61303	0.75964	0.87288	0.18973	129.74428	126.87019	128.02426	0.94086	1.08261	1.14210
174790	129.26388	129.65218	131.71034	1.15951	1.24970	1.12854	116.13114	126.91722	130.61303	0.76337	0.87560	0.19172	129.74428	126.87019	128.02426	0.94574	1.08729	1.14621
174950	129.26396	129.65211	131.71036	1.15753	1.24763	1.12509	116.13036	126.91781	130.61312	0.76023	0.87175	0.18881	129.74447	126.87004	128.02466	0.94027	1.08228	1.14164	29.03	6.0	0.00	6.79	0.01281	0.01310	0.01655	0.00797	0.00593	0.00649	0.00474	0.01281	0.01700	0.00688	0.00712	0.00897	0.01506	0.01107	0.01207	0.00224	0.00634	0.00886
175110	129.26396	129.65211	131.71036	1.15690	1.24802	1.12646	116.13036	126.91781	130.61312	0.76150	0.87323	0.19048	129.74447	126.87004	128.02466	0.94359	1.08421	1.14384
175280	129.26396	129.65211	131.71036	1.15538	1.24582	1.12340	116.13036	126.91781	130.61312	0.75983	0.87180	0.18785	129.74447	126.87004	128.02466	0.93908	1.08179	1.14146
175440	129.26396	129.65211	131.71036	1.15297	1.24397	1.12065	116.13036	126.91781	130.61312	0.75758	0.87028	0.18649	129.74447	126.87004	128.02466	0.94355	1.08625	1.14637
175600	129.26396	129.65211	131.71036	1.15786	1.24797	1.12555	116.13036	126.91781	130.61312	0.76140	0.87304	0.18994	129.74447	126.87004	128.02466	0.94319	1.08329	1.14275
175770	129.26396	129.65211	131.71036	1.15373	1.24395	1.12225	116.13036	126.91781	130.61312	0.75842	0.87146	0.18766	129.74447	126.87004	128.02466	0.94443	1.08766	1.14691
175930	129.26396	129.65211	131.71036	1.15860	1.24883	1.12628	116.13036	126.91781	130.61312	0.76186	0.87450	0.19076	129.74447	126.87004	128.02466	0.94243	1.08475	1.14380
176090	129.26396	129.65211	131.71036	1.15807	1.24947	1.12681	116.13036	126.91781	130.61312	0.76223	0.87513	0.19132	129.74447	126.87004	128.02466	0.94235	1.08603	1.14364
176260	129.26396	129.65211	131.71036	1.15558	1.24576	1.12362	116.13036	126.91781	130.61312	0.75854	0.87176	0.18854	129.74447	126.87004	128.02466	0.94467	1.08735	1.14614
176420	129.26396	129.65211	131.71036	1.15830	1.24959	1.12815	116.13036	126.91781	130.61312	0.76316	0.87405	0.19219	129.74447	126.87004	128.02466	0.94463	1.08569	1.14538
176580	129.26416	129.65200	131.71027	1.15570	1.24669	1.12477	116.12963	126.91769	130.61314	0.75895	0.87102	0.18760	129.74491	126.87062	128.02549	0.94422	1.08598	1.14479	28.98	6.0	0.00	6.73	0.01281	0.01310	0.01655	0.00797	0.00593	0.00649	0.00474	0.01281	0.01700	0.00688	0.00712	0.00897	0.01506	0.01107	0.01208	0.00224	0.00634	0.00886
176750	129.26416	129.65200	131.71027	1.15740	1.24815	1.12564	116.12963	126.91769	130.61314	0.75943	0.87308	0.18915	129.74491	126.87062	128.02549	0.94426	1.08381	1.14321
176910	129.26416	129.65200	131.71027	1.15419	1.24511	1.12413	116.12963	126.91769	130.61314	0.75729	0.87198	0.18751	129.74491	126.87062	128.02549	0.94230	1.08214	1.14073
177070	129.26416	129.65200	131.71027	1.15414	1.24703	1.12569	116.12963	126.91769	130.61314	0.76148	0.87469	0.19038	129.74491	126.87062	128.02549	0.94562	1.08581	1.14507
177240	129.26416	129.65200	131.71027	1.15590	1.24687	1.12538	116.12963	126.91769	130.61314	0.75941	0.87185	0.18825	129.74491	126.87062	128.02549	0.94234	1.08250	1.14187
177400	129.26416	129.65200	131.71027	1.15416	1.24768	1.12691	116.12963	126.91769	130.61314	0.76178	0.87404	0.19031	129.74491	126.87062	128.02549	0.94422	1.08443	1.14486
177560	129.26416	129.65200	131.71027	1.15597	1.24608	1.12480	116.12963	126.91769	130.61314	0.75932	0.87236	0.18771	129.74491	126.87062	128.02549	0.94130	1.08271	1.14053
177730	129.26416	129.65200	131.71027	1.15731	1.24879	1.12688	116.12963	126.91769	130.61314	0.76244	0.87545	0.19063	129.74491	126.87062	128.02549	0.94482	1.08616	1.14537
177890	129.26416	129.65200	131.71027	1.15601	1.24642	1.12347	116.12963	126.91769	130.61314	0.75830	0.87236	0.18793	129.74491	126.87062	128.02549	0.93966	1.08219	1.14102
178050	129.26416	129.65200	131.71027	1.15638	1.24808	1.12514	116.12963	126.91769	130.61314	0.76160	0.87460	0.19051	129.74491	126.87062	128.02549	0.94406	1.08567	1.14387
178220	129.26406	129.65193	131.71043	1.15457	1.24638	1.12370	116.13061	126.91739	130.61312	0.75796	0.87252	0.18868	129.74514	126.87053	128.02575	0.94247	1.08248	1.14109	29.03	6.0	0.00	6.69	0.01281	0.01310	0.01655	0.00797	0.00593	0.00649	0.00474	0.01281	0.01700	0.00688	0.00712	0.00897	0.01506	0.01107	0.01208	0.00224	0.00634	0.00886
178380	129.26406	129.65193	131.71043	1.15615	1.24858	1.12641	116.13061	126.91739	130.61312	0.76035	0.87444	0.19018	129.74514	126.87053	128.02575	0.94455	1.08530	1.14365
178540	129.26406	129.65193	131.71043	1.15461	1.24588	1.12353	116.13061	126.91739	130.61312	0.75806	0.87197	0.18765	129.74514	126.87053	128.02575	0.94175	1.08281	1.14156
178710	129.26406	129.65193	131.71043	1.15542	1.24774	1.12624	116.13061	126.91739	130.61312	0.75983	0.87312	0.18935	129.74514	126.87053	128.02575	0.94315	1.08610	1.14452
178870	129.26406	129.65193	131.71043	1.15484	1.24653	1.12406	116.13061	126.91739	130.61312	0.75861	0.87115	0.18779	129.74514	126.87053	128.02575	0.94231	1.08310	1.14183
179030	129.26406	129.65193	131.71043	1.15575	1.24576	1.12583	116.13061	126.91739	130.61312	0.75946	0.87219	0.18911	129.74514	126.87053	128.02575	0.94383	1.08451	1.14343
179200	129.26406	129.65193	131.71043	1.15440	1.24656	1.12363	116.13061	126.91739	130.61312	0.75861	0.87046	0.18747	129.74514	126.87053	128.02575	0.94135	1.08323	1.14178
179360	129.26406	129.65193	131.71043	1.15720	1.24793	1.12711	116.13061	126.91739	130.61312	0.76063	0.87389	0.18957	129.74514	126.87053	128.02575	0.94423	1.08553	1.14442
179520	129.26406	129.65193	131.71043	1.15484	1.24669	1.12391	116.13061	126.91739	130.61312	0.75791	0.87090	0.18661	129.74514	126.87053	128.02575	0.94091	1.08230	1.14104
179690	129.26406	129.65193	131.71043	1.15762	1.24951	1.12770	116.13061	126.91739	130.61312	0.76129	0.87411	0.18981	129.74514	126.87053	128.02575	0.94563	1.08644	1.14528
179850	129.26407	129.65223	131.71038	1.15542	1.24537	1.12382	116.13051	126.91759	130.61300	0.75794	0.86928	0.18728	129.74467	126.87041	128.02569	0.94395	1.08208	1.14132	28.98	6.0	0.00	6.68	0.01281	0.01310	0.01655	0.00797	0.00593	0.00649	0.00474	0.01281	0.01700	0.00688	0.00712	0.00897	0.01506	0.01107	0.01208	0.00224	0.00634	0.00886
180010	129.26407	129.65223	131.71038	1.15702	1.24755	1.12534	116.13051	126.91759	130.61300	0.75999	0.87398	0.18977	129.74467	126.87041	128.02569	0.94655	1.08534	1.14412
180180	129.26407	129.65223	131.71038	1.15596	1.24524	1.12281	116.13051	126.91759	130.61300	0.75682	0.87041	0.18645	129.74467	126.87041	128.02569	0.94735	1.08554	1.14551
180340	129.26407	129.65223	131.71038	1.15716	1.24756	1.12611	116.13051	126.91759	130.61300	0.75994	0.87385	0.18960	129.74467	126.87041	128.02569	0.94591	1.08454	1.14464
180500	129.26407	129.65223	131.71038	1.15459	1.24565	1.12170	116.13051	126.91759	130.61300	0.75678	0.86945	0.18742	129.74467	126.87041	128.02569	0.94567	1.08440	1.14340
180670	129.26407	129.65223	131.71038	1.15615	1.24568	1.12277	116.13051	126.91759	130.61300	0.75637	0.86986	0.18814	129.74467	126.87041	128.02569	0.94151	1.08272	1.14150
180830	129.26407	129.65223	131.71038	1.15361	1.24295	1.12219	116.13051	126.91759	130.61300	0.75639	0.86990	0.18717	129.74467	126.87041	128.02569	0.94407	1.08146	1.14062
180990	129.26407	129.65223	131.71038	1.15266	1.24536	1.12477	116.13051	126.91759	130.61300	0.75911	0.87239	0.18932	129.74467	126.87041	128.02569	0.94531	1.08509	1.14465
