WetView ver 7.1	07-19-2018	17:15:25
AC9 Absorption and Attenuation Meter
00000266		; Serial number
2	; structure version number
Reserved
0.000000	0.000000		; Depth calibration
19200			; Baud rate
0.100000			; Path length (meters)
31			; number of temperature calibration bins
				12.59339	13.44920	14.48425	15.49668	16.50852	17.49564	18.50545	19.52458	20.50176	21.48889	22.47318	23.48707	24.50962	25.49370	26.49784	27.51372	28.50746	29.47237	30.47938	31.50214	32.50470	33.49235	34.50337	35.50914	36.50618	37.52058	38.51018	39.51308	40.49994	41.49866	42.47204	; temperature bins
a650	Blue	20.34952		-0.00383	-0.00415	-0.00430	-0.00391	-0.00363	-0.00317	-0.00269	-0.00237	-0.00179	-0.00130	-0.00099	-0.00071	-0.00015	0.00000	0.00004	-0.00001	0.00015	0.00036	0.00058	0.00101	0.00161	0.00132	0.00160	0.00169	0.00242	0.00273	0.00336	0.00365	0.00427	0.00566	0.00670		; offset and temperature correction info
a676	Green	20.51193		-0.00398	-0.00384	-0.00360	-0.00306	-0.00302	-0.00255	-0.00235	-0.00212	-0.00163	-0.00136	-0.00118	-0.00089	-0.00029	0.00000	0.00068	0.00082	0.00099	0.00137	0.00145	0.00212	0.00260	0.00252	0.00321	0.00354	0.00457	0.00535	0.00617	0.00648	0.00742	0.00887	0.01002		; offset and temperature correction info
a715	Brown	20.23230		-0.00421	-0.00394	-0.00391	-0.00291	-0.00264	-0.00192	-0.00204	-0.00179	-0.00188	-0.00239	-0.00180	-0.00187	-0.00099	0.00000	0.00084	0.00162	0.00188	0.00224	0.00321	0.00381	0.00466	0.00528	0.00588	0.00696	0.00859	0.01041	0.01148	0.01282	0.01333	0.01456	0.01617		; offset and temperature correction info
c510	Red	20.40042		-0.00261	-0.00247	-0.00258	-0.00225	-0.00203	-0.00197	-0.00199	-0.00203	-0.00154	-0.00103	-0.00069	-0.00019	-0.00007	0.00000	0.00011	-0.00021	-0.00042	-0.00056	-0.00040	0.00011	0.00036	0.00050	0.00077	0.00079	0.00050	0.00042	0.00043	0.00092	0.00147	0.00200	0.00232		; offset and temperature correction info
c532	Magenta	20.40760		-0.00248	-0.00265	-0.00278	-0.00279	-0.00296	-0.00292	-0.00238	-0.00206	-0.00129	-0.00096	-0.00092	-0.00052	-0.00009	0.00000	0.00007	-0.00049	-0.00136	-0.00107	-0.00079	-0.00065	-0.00074	-0.00105	-0.00152	-0.00192	-0.00236	-0.00269	-0.00252	-0.00233	-0.00172	-0.00128	-0.00067		; offset and temperature correction info
c555	Black	20.50654		-0.00053	-0.00063	-0.00106	-0.00094	-0.00068	-0.00055	-0.00053	-0.00039	-0.00028	-0.00025	-0.00011	-0.00035	-0.00007	0.00000	-0.00037	-0.00055	-0.00036	-0.00014	0.00019	0.00044	0.00032	0.00040	0.00050	0.00028	0.00014	0.00013	0.00030	0.00073	0.00117	0.00176	0.00241		; offset and temperature correction info
a412	LtBlue	17.15231		-0.01972	-0.01823	-0.01612	-0.01381	-0.01272	-0.01080	-0.00959	-0.00866	-0.00710	-0.00532	-0.00354	-0.00148	-0.00028	0.00000	0.00176	0.00297	0.00394	0.00440	0.00453	0.00487	0.00804	0.00856	0.01065	0.01248	0.01388	0.01439	0.01659	0.01881	0.02256	0.02450	0.02719		; offset and temperature correction info
a440	LtGreen	18.00171		-0.00729	-0.00642	-0.00581	-0.00502	-0.00426	-0.00349	-0.00244	-0.00218	-0.00179	-0.00101	-0.00046	-0.00006	0.00036	0.00000	0.00040	0.00045	0.00030	-0.00015	-0.00024	-0.00035	0.00012	-0.00013	-0.00033	-0.00089	-0.00142	-0.00189	-0.00231	-0.00205	-0.00140	-0.00140	-0.00146		; offset and temperature correction info
a488	Yellow	18.86491		-0.00113	-0.00102	-0.00106	-0.00064	-0.00027	-0.00020	-0.00030	-0.00037	-0.00047	-0.00059	-0.00052	-0.00012	0.00008	0.00000	0.00025	0.00012	-0.00013	-0.00043	-0.00065	-0.00076	-0.00025	0.00010	0.00090	0.00111	0.00113	0.00104	0.00073	0.00068	0.00120	0.00186	0.00258		; offset and temperature correction info
c650	Blue	20.46075		-0.00145	-0.00097	-0.00092	-0.00139	-0.00185	-0.00196	-0.00237	-0.00266	-0.00238	-0.00163	-0.00083	-0.00041	-0.00010	0.00000	0.00005	-0.00001	0.00015	0.00034	0.00029	0.00065	0.00101	0.00164	0.00126	0.00156	0.00175	0.00270	0.00287	0.00371	0.00407	0.00473	0.00534		; offset and temperature correction info
c676	Green	20.10118		-0.00170	-0.00144	-0.00149	-0.00177	-0.00188	-0.00194	-0.00198	-0.00196	-0.00177	-0.00156	-0.00140	-0.00091	-0.00033	0.00000	0.00050	0.00092	0.00110	0.00141	0.00167	0.00199	0.00216	0.00265	0.00269	0.00289	0.00315	0.00374	0.00367	0.00408	0.00486	0.00561	0.00646		; offset and temperature correction info
c715	Brown	19.91219		-0.01201	-0.01097	-0.00859	-0.00680	-0.00651	-0.00592	-0.00535	-0.00440	-0.00387	-0.00303	-0.00222	-0.00153	-0.00028	0.00000	0.00093	0.00149	0.00247	0.00322	0.00330	0.00427	0.00373	0.00464	0.00536	0.00551	0.00643	0.00733	0.00779	0.00884	0.00899	0.01021	0.01120		; offset and temperature correction info
a510	Red	19.21192		0.00201	0.00193	0.00158	0.00098	0.00089	0.00049	0.00011	-0.00016	-0.00016	-0.00005	0.00028	0.00025	0.00006	0.00000	0.00035	-0.00022	-0.00023	-0.00080	-0.00144	-0.00154	-0.00153	-0.00204	-0.00220	-0.00219	-0.00190	-0.00128	-0.00069	-0.00018	0.00068	0.00152	0.00241		; offset and temperature correction info
a532	Magenta	19.41084		-0.00097	-0.00072	-0.00060	-0.00081	-0.00062	-0.00071	-0.00040	0.00020	0.00028	0.00043	0.00000	-0.00035	0.00007	0.00000	-0.00011	-0.00059	-0.00080	-0.00098	-0.00137	-0.00162	-0.00163	-0.00130	-0.00073	-0.00018	0.00090	0.00185	0.00175	0.00247	0.00291	0.00327	0.00349		; offset and temperature correction info
a555	Black	19.69776		0.00171	0.00183	0.00183	0.00186	0.00191	0.00170	0.00115	0.00131	0.00097	0.00073	0.00060	0.00013	0.00015	0.00000	0.00014	-0.00029	-0.00066	-0.00082	-0.00116	-0.00139	-0.00134	-0.00167	-0.00119	-0.00093	-0.00048	0.00053	0.00111	0.00095	0.00178	0.00206	0.00273		; offset and temperature correction info
c412	LtBlue	19.91180		-0.02051	-0.01853	-0.01589	-0.01311	-0.01059	-0.00877	-0.00705	-0.00581	-0.00413	-0.00231	-0.00098	-0.00066	-0.00011	0.00000	-0.00013	-0.00085	-0.00170	-0.00170	-0.00302	-0.00330	-0.00429	-0.00551	-0.00626	-0.00775	-0.00978	-0.01181	-0.01113	-0.01108	-0.01116	-0.01192	-0.01291		; offset and temperature correction info
c440	LtGreen	20.06241		-0.01064	-0.00992	-0.00892	-0.00766	-0.00639	-0.00531	-0.00478	-0.00384	-0.00287	-0.00187	-0.00102	-0.00063	-0.00023	0.00000	-0.00007	-0.00053	-0.00090	-0.00119	-0.00169	-0.00197	-0.00226	-0.00257	-0.00260	-0.00289	-0.00394	-0.00470	-0.00481	-0.00493	-0.00520	-0.00580	-0.00620		; offset and temperature correction info
c488	Yellow	20.35984		-0.01125	-0.01082	-0.00966	-0.00833	-0.00726	-0.00661	-0.00579	-0.00500	-0.00389	-0.00278	-0.00167	-0.00113	-0.00041	0.00000	0.00055	0.00121	0.00187	0.00226	0.00222	0.00251	0.00281	0.00359	0.00414	0.00427	0.00401	0.00404	0.00486	0.00563	0.00638	0.00684	0.00718		; offset and temperature correction info
0.003500	0.004000	0.015000	0.020000	0.015000	0.020000	2500.000000	2000.000000	1000.000000	; maxANoise	maxCNoise	maxADifference	maxCDifference	minACounts	minCCounts	minRCounts	maxTempSdev	maxDepthSdev
0			; auxilliary capabilities
1			; acquisition binsize
0	0.31533	0.25651	0.15429	1.76154	1.39460	1.05199	9.17248	5.39116	2.40713	0.43174	0.37394	0.29991	1.77530	1.33654	0.99848	8.51696	5.06204	2.35434	28.51	6.2	0.00	7.46	0.01267	0.01287	0.01642	0.00778	0.00580	0.00636	0.00466	0.01262	0.01679	0.00676	0.00698	0.00884	0.01485	0.01092	0.01193	0.00216	0.00614	0.00865
170	0.31511	0.25471	0.15098	1.76023	1.39427	1.05085	9.14911	5.38907	2.40739	0.42948	0.37260	0.29789	1.77326	1.33463	0.99311	8.51572	5.05774	2.35028
330	0.31157	0.25244	0.14845	1.75579	1.38962	1.04710	9.16568	5.38905	2.40312	0.42697	0.36997	0.29548	1.77463	1.33532	0.99644	8.51546	5.05912	2.35267
490	0.31452	0.25562	0.15059	1.75942	1.39294	1.05140	9.16764	5.38803	2.40537	0.43046	0.37300	0.29756	1.77703	1.33856	0.99871	8.52111	5.06451	2.35590
660	0.31689	0.25851	0.15086	1.76178	1.39584	1.05199	9.17040	5.39028	2.40961	0.43175	0.37490	0.29955	1.77739	1.33828	0.99643	8.51829	5.06178	2.35471
820	0.31713	0.25923	0.15127	1.76023	1.39251	1.04979	9.14837	5.38946	2.40667	0.43035	0.37383	0.29784	1.77743	1.33951	0.99995	8.52641	5.06583	2.35805
990	0.31890	0.25891	0.15322	1.76367	1.39741	1.05363	9.15981	5.39215	2.40972	0.43406	0.37678	0.30127	1.77851	1.33853	0.99774	8.51723	5.06369	2.35459
1150	0.31644	0.25662	0.15441	1.76127	1.39578	1.05277	9.16781	5.39346	2.40954	0.43359	0.37636	0.30092	1.77710	1.33799	0.99822	8.51899	5.06159	2.35544
1310	0.31484	0.25601	0.15144	1.75991	1.39380	1.05077	9.15521	5.39054	2.40531	0.43057	0.37377	0.29854	1.77463	1.33427	0.99881	8.51219	5.05929	2.35051
1470	0.31594	0.25663	0.15144	1.76056	1.39520	1.05296	9.17035	5.39005	2.40826	0.43163	0.37407	0.30026	1.77899	1.33504	0.99675	8.51767	5.05975	2.35279
1640	0.31715	0.25744	0.15046	1.75960	1.39350	1.05096	9.16903	5.38815	2.40712	0.43145	0.37297	0.29723	1.77425	1.33700	0.99521	8.51531	5.05943	2.35066	28.51	6.3	0.00	7.50	0.01267	0.01287	0.01642	0.00778	0.00580	0.00636	0.00466	0.01262	0.01679	0.00676	0.00698	0.00884	0.01485	0.01092	0.01193	0.00216	0.00615	0.00865
1800	0.31396	0.25579	0.14891	1.75717	1.39137	1.04849	9.15603	5.38820	2.40310	0.42763	0.37044	0.29512	1.77674	1.33988	1.00220	8.51751	5.06430	2.35678
1970	0.31737	0.25942	0.15262	1.76146	1.39445	1.05077	9.16040	5.39379	2.40977	0.43195	0.37514	0.29966	1.77848	1.33708	0.99823	8.51266	5.05971	2.35253
2130	0.31866	0.25723	0.15283	1.75992	1.39404	1.05128	9.17791	5.39405	2.41142	0.43096	0.37437	0.29955	1.77740	1.33982	0.99836	8.52096	5.06121	2.35359
2290	0.31543	0.25494	0.15088	1.75927	1.39272	1.05109	9.17543	5.38608	2.40740	0.43014	0.37187	0.29729	1.77525	1.33407	0.99825	8.51760	5.05829	2.35161
2460	0.31725	0.25793	0.15238	1.76130	1.39577	1.05305	9.17065	5.39618	2.41107	0.43252	0.37461	0.29949	1.77776	1.33695	0.99933	8.51522	5.05967	2.35323
2620	0.31629	0.25505	0.15143	1.75943	1.39307	1.05099	9.15724	5.39340	2.40943	0.43039	0.37295	0.29739	1.77766	1.33370	0.99669	8.51142	5.05781	2.34930
2780	0.31668	0.25837	0.15185	1.76015	1.39487	1.05180	9.17537	5.39332	2.41005	0.43290	0.37495	0.29960	1.77807	1.33805	1.00015	8.51610	5.06010	2.35328
2950	0.31609	0.25764	0.15239	1.75883	1.39247	1.05002	9.16627	5.39111	2.40773	0.42950	0.37200	0.29717	1.77578	1.33623	0.99701	8.51177	5.05649	2.34992
3110	0.31267	0.25425	0.14808	1.75572	1.39034	1.04815	9.15315	5.38760	2.40252	0.42732	0.37116	0.29547	1.77714	1.33968	1.00149	8.51301	5.06220	2.35607
3270	0.31901	0.25888	0.15342	1.76116	1.39533	1.05135	9.17110	5.39506	2.40990	0.43051	0.37368	0.29839	1.77866	1.34087	0.99720	8.51447	5.06009	2.35242	28.46	6.0	0.00	7.46	0.01267	0.01287	0.01642	0.00778	0.00580	0.00636	0.00466	0.01262	0.01679	0.00676	0.00698	0.00884	0.01485	0.01092	0.01193	0.00216	0.00614	0.00865
3440	0.31720	0.25901	0.15367	1.76073	1.39501	1.05171	9.17202	5.39266	2.41061	0.43132	0.37314	0.29884	1.77590	1.34319	0.99794	8.51332	5.06163	2.35372
3600	0.31690	0.25805	0.15113	1.76004	1.39348	1.05001	9.15291	5.39143	2.40683	0.43099	0.37250	0.29762	1.77252	1.33709	0.99745	8.51570	5.05709	2.34962
3760	0.31677	0.25873	0.15376	1.76043	1.39473	1.05153	9.16649	5.39550	2.41063	0.43187	0.37549	0.30006	1.77762	1.33828	0.99894	8.51588	5.06131	2.35343
3930	0.31359	0.25664	0.14975	1.75752	1.39114	1.04798	9.15849	5.39052	2.40674	0.42938	0.37086	0.29679	1.77781	1.33735	1.00032	8.52021	5.06230	2.35547
4090	0.31685	0.25837	0.15199	1.76184	1.39500	1.05128	9.15935	5.39459	2.40919	0.43085	0.37354	0.29820	1.77580	1.33908	1.00078	8.51729	5.06044	2.35316
4250	0.31686	0.25434	0.14983	1.75935	1.39280	1.04931	9.14532	5.38887	2.40453	0.42887	0.37202	0.29690	1.77386	1.33561	0.99723	8.50855	5.05758	2.34713
4420	0.31553	0.25670	0.15209	1.75527	1.39179	1.05112	9.18320	5.39290	2.41133	0.43138	0.37479	0.29994	1.77997	1.33988	1.00000	8.51870	5.06202	2.35546
4580	0.31670	0.25741	0.15126	1.75946	1.39352	1.04938	9.16695	5.39099	2.40952	0.43000	0.37188	0.29668	1.77536	1.33697	0.99708	8.51138	5.05910	2.35146
4740	0.31760	0.25739	0.15170	1.75858	1.39340	1.05136	9.17190	5.39470	2.40972	0.43155	0.37247	0.29861	1.77867	1.33705	1.00047	8.51014	5.05873	2.35141
4910	0.31849	0.25735	0.15110	1.75884	1.39361	1.05021	9.14360	5.39231	2.40667	0.42993	0.37255	0.29686	1.77469	1.33552	0.99568	8.51361	5.05673	2.35012	28.51	6.0	0.00	7.38	0.01267	0.01287	0.01642	0.00778	0.00580	0.00636	0.00466	0.01262	0.01679	0.00676	0.00698	0.00884	0.01485	0.01092	0.01193	0.00216	0.00614	0.00865
5070	0.31522	0.25586	0.15229	1.75605	1.39217	1.05100	9.15860	5.39285	2.40864	0.43131	0.37382	0.29857	1.77614	1.33740	0.99608	8.51661	5.05948	2.35180
5230	0.31604	0.25609	0.15113	1.75838	1.39359	1.04987	9.16632	5.39164	2.40609	0.42975	0.37226	0.29752	1.77567	1.33814	0.99661	8.51316	5.05653	2.34957
5400	0.31720	0.25810	0.15290	1.76001	1.39495	1.05301	9.17582	5.39229	2.41079	0.43241	0.37470	0.29932	1.77966	1.33980	0.99849	8.51625	5.06030	2.35316
5560	0.31861	0.25467	0.15062	1.75694	1.39146	1.05012	9.16177	5.38957	2.40724	0.42978	0.37275	0.29640	1.77406	1.33612	0.99603	8.51378	5.05827	2.35054
5720	0.31757	0.25739	0.15162	1.75959	1.39349	1.05139	9.16562	5.39245	2.41030	0.43192	0.37337	0.29857	1.77631	1.33909	0.99995	8.51537	5.06071	2.35385
5890	0.31666	0.25683	0.14967	1.75815	1.39307	1.04971	9.16603	5.38818	2.40628	0.42928	0.37119	0.29570	1.77295	1.33378	0.99427	8.51087	5.05699	2.35013
6050	0.31601	0.25705	0.15440	1.75963	1.39488	1.05242	9.17576	5.39142	2.41088	0.43264	0.37454	0.29882	1.77762	1.33839	0.99780	8.51572	5.05935	2.35317
6210	0.31594	0.25675	0.15004	1.75780	1.39312	1.04993	9.17461	5.39596	2.40851	0.43029	0.37323	0.29722	1.77691	1.33715	0.99773	8.51652	5.05692	2.35053
6380	0.31597	0.25714	0.15213	1.75858	1.39274	1.05064	9.15527	5.39316	2.40949	0.43163	0.37312	0.29783	1.77518	1.34076	0.99893	8.51581	5.06095	2.35396
6540	0.31481	0.25667	0.15208	1.75806	1.39153	1.04873	9.16137	5.38859	2.40736	0.42972	0.37194	0.29605	1.77624	1.33281	0.99699	8.50626	5.05592	2.34953	28.46	6.1	0.00	7.54	0.01267	0.01287	0.01642	0.00778	0.00580	0.00636	0.00466	0.01262	0.01679	0.00676	0.00698	0.00884	0.01485	0.01092	0.01193	0.00216	0.00614	0.00865
6700	0.31521	0.25707	0.15202	1.75844	1.39188	1.04990	9.16137	5.39366	2.40899	0.43159	0.37341	0.29928	1.77697	1.33516	0.99511	8.51243	5.05865	2.35083
6870	0.31659	0.25596	0.14953	1.75650	1.39009	1.04822	9.16333	5.38863	2.40726	0.42966	0.37167	0.29736	1.77304	1.33740	0.99527	8.50484	5.05629	2.34998
7030	0.31259	0.25423	0.14890	1.75514	1.38883	1.04632	9.14671	5.38201	2.40360	0.42718	0.36921	0.29429	1.77675	1.33927	1.00098	8.51111	5.06241	2.35627
7190	0.31837	0.25945	0.15233	1.76282	1.39390	1.05135	9.17076	5.39514	2.40799	0.43066	0.37240	0.29716	1.77692	1.33517	0.99572	8.50908	5.05700	2.35152
7360	0.31952	0.25978	0.15437	1.76181	1.39583	1.05310	9.17341	5.39554	2.41021	0.43375	0.37583	0.29965	1.77744	1.33950	0.99963	8.51341	5.06001	2.35311
7520	0.31612	0.25766	0.15162	1.75930	1.39210	1.05093	9.15694	5.39123	2.40831	0.43174	0.37419	0.29836	1.77539	1.33610	0.99743	8.50970	5.05629	2.34953
7680	0.31762	0.25777	0.15265	1.75848	1.39257	1.05137	9.14929	5.39727	2.41162	0.43257	0.37456	0.30057	1.77957	1.33793	0.99724	8.51809	5.06094	2.35454
7850	0.31746	0.25651	0.15010	1.75819	1.39101	1.04814	9.14889	5.38954	2.40762	0.42963	0.37170	0.29658	1.77601	1.34148	1.00003	8.51658	5.06421	2.35660
8010	0.31807	0.25673	0.15288	1.76249	1.39512	1.05202	9.16483	5.39115	2.41055	0.43039	0.37425	0.29825	1.77623	1.33840	1.00071	8.51190	5.05921	2.35413
8170	0.31490	0.25472	0.15236	1.75874	1.39112	1.04842	9.17394	5.38666	2.40418	0.42932	0.37221	0.29623	1.77221	1.33453	0.99383	8.50445	5.05322	2.34761	28.46	6.3	0.00	7.45	0.01267	0.01287	0.01642	0.00778	0.00580	0.00635	0.00466	0.01262	0.01679	0.00676	0.00698	0.00884	0.01485	0.01092	0.01193	0.00216	0.00614	0.00865
8330	0.31187	0.25518	0.15314	1.75603	1.39149	1.05102	9.17429	5.39149	2.41153	0.43332	0.37618	0.30066	1.77877	1.34082	0.99788	8.51539	5.05938	2.35295
8500	0.31600	0.25851	0.15180	1.75809	1.39018	1.04808	9.16167	5.39350	2.40807	0.42938	0.37147	0.29752	1.77505	1.33492	0.99708	8.50860	5.05778	2.34988
8660	0.31629	0.25326	0.14907	1.75638	1.38777	1.04655	9.16231	5.38739	2.40544	0.42692	0.37003	0.29411	1.77531	1.33940	0.99926	8.50939	5.06033	2.35406
8820	0.31854	0.25898	0.15280	1.76083	1.39486	1.05290	9.17550	5.39406	2.41023	0.43357	0.37459	0.29984	1.77557	1.34056	0.99613	8.51010	5.05858	2.35194
8990	0.31593	0.25475	0.14904	1.75678	1.39035	1.04840	9.15235	5.39024	2.40707	0.42970	0.37238	0.29643	1.77816	1.33862	0.99936	8.51513	5.06090	2.35431
9150	0.31661	0.25826	0.15172	1.75940	1.39233	1.05011	9.16415	5.39265	2.40945	0.43170	0.37642	0.29957	1.77823	1.33907	0.99911	8.51601	5.06072	2.35261
9310	0.31675	0.25565	0.15105	1.75602	1.38766	1.04636	9.17083	5.38508	2.40526	0.42564	0.36940	0.29403	1.77819	1.34011	1.00034	8.51672	5.06224	2.35638
9480	0.31689	0.25841	0.15103	1.76049	1.39331	1.05069	9.16582	5.39113	2.40848	0.43035	0.37334	0.29750	1.77463	1.33681	0.99719	8.50515	5.05774	2.35065
9640	0.31698	0.25670	0.14979	1.75598	1.38860	1.04700	9.15552	5.38913	2.40619	0.42777	0.37160	0.29553	1.77666	1.33703	0.99926	8.51689	5.05832	2.35337
9810	0.31781	0.25716	0.15269	1.75805	1.39079	1.04939	9.16237	5.39056	2.40862	0.43118	0.37292	0.29923	1.78000	1.33599	0.99529	8.51609	5.05980	2.35152	28.57	6.2	0.00	7.44	0.01267	0.01287	0.01642	0.00778	0.00580	0.00635	0.00466	0.01262	0.01679	0.00676	0.00698	0.00884	0.01485	0.01092	0.01193	0.00216	0.00614	0.00865
9970	0.31570	0.25587	0.14965	1.75468	1.38594	1.04218	9.17107	5.38685	2.39963	0.42407	0.36623	0.29167	1.77364	1.33799	1.00186	8.51052	5.06177	2.35773
10130	0.32024	0.25733	0.15207	1.76055	1.39295	1.05013	9.15886	5.39380	2.40885	0.43036	0.37320	0.29819	1.77576	1.33613	0.99506	8.51176	5.05751	2.35053
10300	0.31589	0.25764	0.15521	1.75868	1.39320	1.05038	9.17343	5.39222	2.41053	0.43120	0.37298	0.29932	1.77864	1.34050	0.99838	8.51070	5.05879	2.35258
10460	0.31903	0.25752	0.15242	1.75785	1.39017	1.04892	9.15622	5.38852	2.40694	0.42967	0.37162	0.29711	1.77642	1.33672	0.99436	8.50849	5.05695	2.34958
10620	0.31766	0.25926	0.15290	1.76009	1.39423	1.05172	9.17384	5.39597	2.41025	0.43321	0.37539	0.30085	1.77850	1.34030	1.00022	8.51150	5.05950	2.35318
10790	0.31679	0.25648	0.15113	1.75726	1.39007	1.04907	9.17361	5.39173	2.40612	0.42944	0.37171	0.29818	1.77535	1.33333	0.99710	8.51150	5.05574	2.34998
10950	0.31883	0.25756	0.15277	1.75964	1.39260	1.05138	9.17297	5.39148	2.41172	0.43227	0.37473	0.30086	1.77901	1.34042	0.99692	8.52112	5.06127	2.35433
11110	0.31778	0.25545	0.15087	1.75789	1.39066	1.04844	9.16347	5.39319	2.40564	0.42896	0.37076	0.29703	1.77441	1.33763	0.99775	8.50858	5.05448	2.34897
11280	0.31268	0.25500	0.15054	1.75429	1.38787	1.04714	9.15495	5.39065	2.40344	0.42790	0.37002	0.29541	1.77893	1.33757	0.99871	8.51353	5.06158	2.35382
11440	0.31720	0.25977	0.15347	1.75968	1.39173	1.04888	9.15400	5.39106	2.40650	0.42977	0.37154	0.29767	1.77693	1.33551	0.99437	8.51125	5.05669	2.34942	28.51	6.2	0.00	7.57	0.01267	0.01287	0.01642	0.00778	0.00580	0.00635	0.00466	0.01262	0.01679	0.00676	0.00698	0.00884	0.01485	0.01092	0.01193	0.00216	0.00614	0.00865
11600	0.31348	0.25424	0.14892	1.75457	1.38689	1.04563	9.16551	5.38719	2.40487	0.42731	0.36897	0.29619	1.77538	1.33961	0.99862	8.51505	5.06141	2.35326
11770	0.31882	0.25718	0.15018	1.75866	1.38935	1.04863	9.16171	5.39035	2.40628	0.42930	0.37150	0.29694	1.77397	1.33347	0.99738	8.50878	5.05725	2.34904
11930	0.31364	0.25506	0.14952	1.75428	1.38576	1.04532	9.15814	5.38466	2.40335	0.42588	0.36809	0.29439	1.77536	1.33684	0.99722	8.50949	5.05823	2.35144
12090	0.31670	0.25542	0.15303	1.75777	1.38981	1.04784	9.16200	5.38998	2.40661	0.42897	0.37082	0.29724	1.77919	1.33807	0.99959	8.51655	5.06301	2.35460
12260	0.32006	0.25948	0.15498	1.76072	1.39237	1.04987	9.16580	5.38816	2.40882	0.43038	0.37255	0.29826	1.77839	1.33531	0.99775	8.51152	5.05920	2.35045
12420	0.31603	0.25946	0.15207	1.75749	1.39042	1.04864	9.16396	5.39320	2.41024	0.43024	0.37125	0.29772	1.78057	1.33641	0.99645	8.50931	5.05831	2.35106
12590	0.31747	0.25733	0.15176	1.75769	1.38976	1.04782	9.16407	5.39046	2.40781	0.42865	0.36993	0.29648	1.77682	1.33680	0.99649	8.50693	5.05762	2.35025
12750	0.31529	0.25799	0.15235	1.75807	1.38920	1.04878	9.17254	5.39275	2.40790	0.43054	0.37217	0.29811	1.77562	1.33515	0.99733	8.50843	5.05795	2.34967
12920	0.31612	0.25632	0.15087	1.75559	1.38692	1.04500	9.15354	5.38646	2.40613	0.42798	0.36933	0.29571	1.77654	1.34082	0.99909	8.51408	5.06301	2.35402
13080	0.31772	0.25911	0.15228	1.75854	1.39045	1.04769	9.15537	5.39202	2.40867	0.42964	0.37174	0.29838	1.77925	1.33814	0.99698	8.51413	5.05812	2.35125	28.51	6.0	0.00	7.53	0.01267	0.01287	0.01642	0.00778	0.00580	0.00635	0.00466	0.01262	0.01679	0.00676	0.00698	0.00884	0.01485	0.01092	0.01193	0.00216	0.00614	0.00865
13240	0.31784	0.25810	0.15246	1.75894	1.39160	1.04868	9.16584	5.39319	2.40980	0.43037	0.37151	0.29764	1.77790	1.33616	0.99950	8.51325	5.05617	2.35062
13410	0.31749	0.25718	0.15236	1.75697	1.39015	1.04768	9.15594	5.38939	2.40707	0.42859	0.36963	0.29603	1.77297	1.33476	0.99529	8.50734	5.05399	2.34760
13570	0.31869	0.25687	0.15391	1.75926	1.39316	1.05096	9.16452	5.39537	2.41053	0.43324	0.37446	0.29961	1.78036	1.33864	1.00077	8.51572	5.06115	2.35399
13730	0.31912	0.25802	0.15395	1.75818	1.39090	1.04695	9.15422	5.38952	2.40694	0.42860	0.37086	0.29650	1.77702	1.34037	0.99909	8.51466	5.05879	2.35264
13900	0.31743	0.25588	0.15148	1.75667	1.38972	1.04671	9.15629	5.39023	2.40684	0.42871	0.36940	0.29627	1.77255	1.33478	0.99484	8.51131	5.05526	2.34881
14060	0.31366	0.25705	0.15056	1.75508	1.38815	1.04547	9.15180	5.38484	2.40560	0.42780	0.36834	0.29505	1.77373	1.33369	0.99496	8.50513	5.05332	2.34817
14220	0.31751	0.25777	0.15623	1.75913	1.39286	1.04998	9.15485	5.39556	2.40975	0.43168	0.37210	0.29908	1.78013	1.33958	0.99905	8.51396	5.05940	2.35317
14390	0.31659	0.25876	0.15134	1.75811	1.39105	1.04769	9.16337	5.38904	2.40682	0.42823	0.36827	0.29575	1.77361	1.33659	0.99633	8.50690	5.05596	2.34961
14550	0.31675	0.25862	0.15293	1.76003	1.39230	1.04926	9.16262	5.39072	2.41132	0.43069	0.37209	0.29785	1.77875	1.33679	0.99973	8.51184	5.05970	2.35347
14710	0.31746	0.25681	0.14915	1.75824	1.39115	1.04845	9.16163	5.38962	2.40775	0.42832	0.36911	0.29587	1.77528	1.33420	0.99406	8.50944	5.05351	2.34721	28.51	6.2	0.00	7.41	0.01267	0.01287	0.01642	0.00778	0.00580	0.00635	0.00466	0.01262	0.01679	0.00676	0.00698	0.00884	0.01485	0.01092	0.01193	0.00216	0.00614	0.00865
14880	0.31235	0.25521	0.15040	1.75375	1.38738	1.04638	9.15680	5.38163	2.40393	0.42683	0.36907	0.29447	1.77715	1.33759	1.00037	8.51244	5.05723	2.35182
15040	0.31823	0.25712	0.15248	1.75831	1.39174	1.04844	9.15634	5.39505	2.40926	0.42953	0.37148	0.29772	1.77635	1.33470	0.99377	8.50697	5.05518	2.34893
15200	0.31420	0.25549	0.14796	1.75400	1.38736	1.04539	9.15795	5.38632	2.40557	0.42735	0.36917	0.29587	1.77626	1.33848	0.99872	8.51447	5.05903	2.35263
15370	0.31693	0.25774	0.14906	1.75661	1.39017	1.04614	9.16342	5.39427	2.41009	0.42892	0.37164	0.29734	1.77976	1.34029	0.99695	8.51791	5.05996	2.35362
15530	0.31675	0.25814	0.15132	1.75744	1.39083	1.04758	9.16250	5.39205	2.41002	0.42829	0.37233	0.29845	1.77916	1.33847	0.99548	8.51447	5.05762	2.35163
15690	0.31679	0.25560	0.15095	1.75675	1.38830	1.04547	9.17938	5.38895	2.40412	0.42725	0.36804	0.29519	1.77891	1.34118	0.99922	8.51561	5.06065	2.35400
15860	0.31720	0.25842	0.15360	1.76108	1.39375	1.04954	9.16682	5.39470	2.40920	0.42920	0.37135	0.29688	1.77632	1.33795	0.99848	8.51102	5.05786	2.35042
16020	0.31417	0.25680	0.15288	1.75858	1.39203	1.04757	9.17673	5.39302	2.40531	0.42891	0.36997	0.29506	1.77624	1.34033	1.00044	8.51155	5.05849	2.35280
16180	0.31809	0.26238	0.15334	1.76002	1.39369	1.05001	9.15093	5.39041	2.40963	0.43151	0.37349	0.29910	1.77627	1.33698	0.99670	8.51455	5.05719	2.34989
16350	0.31692	0.25523	0.15022	1.75469	1.39016	1.04551	9.15690	5.39261	2.40776	0.42884	0.37172	0.29664	1.78026	1.34096	1.00039	8.51920	5.06043	2.35381	28.51	6.1	0.00	7.51	0.01267	0.01287	0.01642	0.00778	0.00580	0.00635	0.00466	0.01262	0.01679	0.00676	0.00698	0.00884	0.01485	0.01092	0.01193	0.00216	0.00614	0.00864
16510	0.31944	0.26005	0.15343	1.75997	1.39353	1.04895	9.18750	5.39374	2.41137	0.43085	0.37373	0.29901	1.77854	1.33895	0.99915	8.52106	5.05986	2.35212
16670	0.31598	0.25557	0.15192	1.75691	1.38957	1.04580	9.14471	5.39263	2.40736	0.42732	0.37014	0.29624	1.77501	1.34064	0.99828	8.51814	5.06244	2.35409
16840	0.31935	0.25939	0.15176	1.76044	1.39312	1.04839	9.16853	5.38870	2.40810	0.42949	0.37129	0.29768	1.77619	1.33762	0.99796	8.51434	5.05530	2.34992
17000	0.31628	0.25612	0.15005	1.75539	1.39009	1.04555	9.17147	5.39010	2.40713	0.42720	0.36956	0.29455	1.77256	1.33347	0.99363	8.50878	5.05067	2.34581
17160	0.31625	0.25857	0.15549	1.76029	1.39631	1.05230	9.17389	5.39861	2.41509	0.43277	0.37598	0.30006	1.77983	1.33902	0.99932	8.51991	5.05965	2.35204
17330	0.31517	0.25942	0.15262	1.75927	1.39290	1.04865	9.17216	5.39329	2.40746	0.42991	0.37259	0.29853	1.77668	1.33740	0.99326	8.51417	5.05420	2.34800
17490	0.31624	0.25695	0.15280	1.75772	1.39436	1.04942	9.14724	5.39966	2.41062	0.43215	0.37595	0.30019	1.77876	1.33684	0.99799	8.52026	5.05945	2.35276
17650	0.31494	0.25470	0.15136	1.75776	1.39180	1.04671	9.16663	5.39046	2.40697	0.42921	0.37140	0.29697	1.77377	1.33424	0.99470	8.51055	5.05394	2.34805
17810	0.31397	0.25372	0.14723	1.75368	1.38916	1.04392	9.15638	5.38760	2.40437	0.42686	0.36873	0.29518	1.77458	1.34077	0.99889	8.51514	5.05909	2.35214
17980	0.31636	0.25697	0.15102	1.75616	1.39060	1.04670	9.17229	5.38876	2.40625	0.42945	0.37257	0.29746	1.77408	1.33539	0.99630	8.50856	5.05525	2.34951	28.57	6.2	0.00	7.56	0.01267	0.01287	0.01642	0.00778	0.00580	0.00635	0.00466	0.01262	0.01679	0.00676	0.00698	0.00884	0.01485	0.01092	0.01193	0.00216	0.00614	0.00864
18140	0.31301	0.25639	0.14860	1.75478	1.38848	1.04398	9.17045	5.39025	2.40595	0.42719	0.37023	0.29539	1.77580	1.33945	0.99944	8.51112	5.05715	2.35190
18300	0.31600	0.25611	0.15204	1.75789	1.39174	1.04703	9.16596	5.38635	2.40661	0.42979	0.37226	0.29759	1.77754	1.33779	0.99329	8.50706	5.05341	2.34863
18470	0.31333	0.25574	0.14984	1.75488	1.38937	1.04368	9.15237	5.38860	2.40314	0.42681	0.37142	0.29522	1.77586	1.33911	0.99950	8.51015	5.05581	2.35227
18630	0.31560	0.25853	0.15278	1.75779	1.39203	1.04717	9.16786	5.39222	2.40855	0.43033	0.37222	0.29774	1.77592	1.33452	0.99778	8.51024	5.05365	2.34916
18800	0.31443	0.25913	0.15305	1.75676	1.39284	1.04760	9.16912	5.39208	2.41054	0.43074	0.37285	0.29858	1.77720	1.33990	0.99838	8.51324	5.05698	2.35142
18960	0.31709	0.25603	0.15182	1.75695	1.38985	1.04599	9.16244	5.39132	2.40663	0.42854	0.37205	0.29724	1.77489	1.33547	0.99911	8.50538	5.05475	2.34848
19120	0.31946	0.25875	0.15448	1.76024	1.39490	1.04916	9.17408	5.39330	2.41253	0.43241	0.37510	0.30024	1.77978	1.34129	1.00145	8.51686	5.05973	2.35349
19290	0.31772	0.25813	0.15250	1.75844	1.39260	1.04690	9.16221	5.39054	2.40934	0.42852	0.37166	0.29755	1.77636	1.33642	0.99676	8.50847	5.05509	2.34886
19450	0.31611	0.25408	0.15127	1.75550	1.39068	1.04490	9.17120	5.38977	2.40753	0.42709	0.37102	0.29601	1.77360	1.33562	0.99163	8.50653	5.05246	2.34790
19620	0.31417	0.25391	0.14990	1.75505	1.38831	1.04504	9.17966	5.38896	2.40520	0.42684	0.36923	0.29456	1.77659	1.33837	0.99917	8.51250	5.05820	2.35273	28.51	5.9	0.00	7.44	0.01267	0.01287	0.01642	0.00778	0.00580	0.00635	0.00466	0.01262	0.01679	0.00676	0.00698	0.00884	0.01485	0.01092	0.01193	0.00216	0.00614	0.00864
19780	0.31813	0.25866	0.15370	1.76122	1.39452	1.04943	9.16525	5.39415	2.41282	0.43188	0.37348	0.29914	1.77934	1.33634	0.99784	8.50755	5.05476	2.35047
19940	0.31310	0.25514	0.15343	1.75740	1.39237	1.04785	9.16502	5.39815	2.40837	0.43035	0.37303	0.29825	1.77670	1.33724	0.99349	8.50720	5.05292	2.34813
20100	0.31487	0.25645	0.14910	1.75550	1.39111	1.04607	9.16479	5.39302	2.40889	0.42995	0.37151	0.29730	1.77647	1.33507	0.99826	8.50535	5.05024	2.34592
20270	0.31338	0.25576	0.14928	1.75384	1.38996	1.04559	9.16330	5.39013	2.40612	0.42866	0.37087	0.29545	1.77737	1.33630	0.99946	8.50800	5.05623	2.34992
20430	0.31653	0.25902	0.15323	1.75803	1.39310	1.04836	9.18785	5.39789	2.41272	0.43142	0.37390	0.29947	1.77579	1.33426	0.99556	8.51400	5.05439	2.34906
20590	0.31317	0.25442	0.14849	1.75437	1.38821	1.04388	9.17580	5.39187	2.40740	0.42821	0.37143	0.29642	1.77622	1.33906	0.99796	8.51003	5.05588	2.35125
20760	0.31601	0.25834	0.15291	1.75648	1.39208	1.04615	9.17695	5.39436	2.40939	0.42955	0.37270	0.29843	1.77655	1.33849	0.99721	8.51559	5.05435	2.34806
20920	0.31402	0.25465	0.14960	1.75311	1.38822	1.04285	9.15725	5.38854	2.40427	0.42668	0.36937	0.29420	1.77788	1.33579	0.99942	8.51020	5.05859	2.35300
21090	0.31902	0.25938	0.15208	1.75836	1.39231	1.04658	9.17787	5.39339	2.40904	0.42851	0.37043	0.29664	1.77494	1.33433	0.99684	8.50729	5.05244	2.34810
21250	0.31555	0.25826	0.15314	1.75723	1.39277	1.04839	9.16834	5.39513	2.41110	0.42864	0.37109	0.29679	1.77608	1.33497	0.99585	8.50640	5.05359	2.34865	28.51	6.1	0.00	7.49	0.01267	0.01287	0.01642	0.00778	0.00580	0.00635	0.00466	0.01262	0.01679	0.00676	0.00698	0.00884	0.01485	0.01092	0.01193	0.00216	0.00614	0.00864
21410	0.31675	0.25689	0.15287	1.75575	1.39128	1.04679	9.17179	5.39258	2.40645	0.42913	0.37215	0.29648	1.77419	1.33516	0.99515	8.50252	5.05251	2.34723
21580	0.31721	0.25840	0.15304	1.75691	1.39305	1.04890	9.17704	5.39375	2.41131	0.43101	0.37319	0.29915	1.77648	1.34003	0.99795	8.51223	5.05710	2.34954
21740	0.31507	0.25731	0.15118	1.75619	1.38891	1.04600	9.16926	5.39098	2.40765	0.42832	0.37062	0.29590	1.77431	1.33471	0.99629	8.50429	5.05279	2.34728
21900	0.31797	0.25865	0.15320	1.75759	1.39360	1.04868	9.17220	5.39298	2.40971	0.43051	0.37338	0.29811	1.77716	1.33899	0.99673	8.51153	5.05450	2.34959
22070	0.31501	0.25717	0.15129	1.75529	1.39084	1.04628	9.17865	5.39494	2.40987	0.42946	0.37243	0.29766	1.77687	1.33570	0.99496	8.50782	5.05189	2.34570
22230	0.31458	0.25840	0.15427	1.75721	1.39328	1.04847	9.14906	5.39312	2.41126	0.43229	0.37442	0.30049	1.77857	1.33634	0.99884	8.51153	5.05790	2.34966
22390	0.31498	0.25619	0.15164	1.75550	1.38884	1.04467	9.16143	5.39209	2.40744	0.42827	0.37240	0.29706	1.77552	1.33421	0.99371	8.50455	5.05359	2.34653
22560	0.31493	0.25950	0.15330	1.75671	1.39184	1.04679	9.17214	5.39404	2.41136	0.43033	0.37427	0.29967	1.77863	1.33983	0.99815	8.51117	5.05671	2.34983
22720	0.31522	0.25655	0.14982	1.75561	1.38972	1.04417	9.15234	5.39256	2.40743	0.42732	0.36954	0.29628	1.77409	1.33656	0.99578	8.50861	5.05450	2.34703
22880	0.31357	0.25655	0.14967	1.75262	1.38591	1.04209	9.16861	5.38695	2.40601	0.42610	0.36917	0.29454	1.77761	1.33897	1.00054	8.50779	5.06016	2.35256	28.51	6.1	0.00	7.42	0.01267	0.01287	0.01642	0.00778	0.00580	0.00635	0.00466	0.01262	0.01679	0.00676	0.00698	0.00884	0.01485	0.01092	0.01193	0.00216	0.00614	0.00864
23050	0.31642	0.25886	0.15096	1.75838	1.39072	1.04677	9.15583	5.39319	2.40881	0.42843	0.37129	0.29673	1.77606	1.33677	0.99744	8.50938	5.05696	2.35084
23210	0.31556	0.25800	0.15143	1.75768	1.39113	1.04778	9.17564	5.39245	2.40781	0.43049	0.37206	0.29768	1.77948	1.33654	0.99776	8.50700	5.05650	2.34932
23370	0.31571	0.25633	0.15125	1.75635	1.38966	1.04565	9.15768	5.39023	2.40793	0.42805	0.37103	0.29606	1.77733	1.33795	0.99763	8.50479	5.05704	2.35029
23540	0.31550	0.25654	0.15053	1.75834	1.39158	1.04794	9.16424	5.39075	2.41027	0.42999	0.37190	0.29762	1.77404	1.33497	0.99476	8.50656	5.05417	2.34790
23700	0.31503	0.25600	0.15075	1.75565	1.38887	1.04521	9.15773	5.38580	2.40680	0.42778	0.37072	0.29653	1.77662	1.33709	0.99917	8.50550	5.05694	2.35230
23860	0.31927	0.25774	0.15257	1.75844	1.39201	1.04792	9.16360	5.39463	2.40931	0.43055	0.37344	0.29826	1.77805	1.33531	0.99942	8.50497	5.05518	2.34847
24030	0.31563	0.25744	0.14986	1.75488	1.38927	1.04536	9.18008	5.38752	2.40607	0.42890	0.37161	0.29640	1.77823	1.33883	1.00134	8.51141	5.05932	2.35267
24190	0.31729	0.25890	0.15465	1.75921	1.39253	1.04902	9.14123	5.39400	2.41152	0.43156	0.37472	0.29998	1.77715	1.33543	0.99771	8.51044	5.05756	2.34945
24350	0.31648	0.25809	0.15241	1.75722	1.39086	1.04719	9.15952	5.39577	2.41092	0.43101	0.37372	0.29930	1.77562	1.33790	0.99587	8.50983	5.05590	2.34840
24520	0.31367	0.25691	0.15081	1.75528	1.38900	1.04520	9.18013	5.38816	2.40931	0.42938	0.37204	0.29678	1.77553	1.33340	0.99531	8.50853	5.05631	2.34714	28.57	6.3	0.00	7.48	0.01267	0.01287	0.01642	0.00778	0.00580	0.00635	0.00466	0.01262	0.01679	0.00676	0.00698	0.00884	0.01485	0.01092	0.01193	0.00216	0.00614	0.00864
24680	0.31446	0.25393	0.14729	1.75412	1.38590	1.04269	9.15836	5.38733	2.40564	0.42755	0.36940	0.29513	1.77656	1.33717	0.99980	8.51789	5.06205	2.35404
24850	0.31910	0.25776	0.15334	1.76029	1.39202	1.04849	9.16550	5.38948	2.40803	0.43083	0.37272	0.29767	1.77746	1.33421	0.99551	8.51250	5.05603	2.35055
25010	0.31631	0.26007	0.15325	1.75982	1.39259	1.04911	9.15692	5.39115	2.40768	0.43170	0.37399	0.29874	1.77601	1.33798	0.99843	8.51647	5.05731	2.35010
25170	0.31477	0.25497	0.15173	1.75843	1.39098	1.04844	9.17183	5.39538	2.40921	0.43075	0.37279	0.29781	1.77419	1.33300	0.99681	8.51276	5.05393	2.34748
25340	0.31626	0.25773	0.15190	1.75951	1.39391	1.05061	9.16469	5.39420	2.41137	0.43357	0.37522	0.30050	1.77678	1.33792	0.99957	8.51091	5.05716	2.35093
25500	0.31757	0.25632	0.15169	1.75827	1.39039	1.04686	9.17189	5.39001	2.40872	0.43131	0.37336	0.29871	1.77765	1.33749	0.99362	8.51276	5.05385	2.34708
25660	0.31635	0.25752	0.15182	1.75813	1.39148	1.04886	9.16912	5.39401	2.41192	0.43286	0.37556	0.29991	1.77855	1.33892	0.99931	8.51312	5.05951	2.35127
25830	0.31601	0.25615	0.15035	1.75681	1.38996	1.04604	9.15600	5.38844	2.40642	0.42952	0.37169	0.29737	1.77311	1.33671	0.99493	8.51126	5.05542	2.34805
25990	0.31448	0.25628	0.15199	1.75792	1.39113	1.04805	9.15905	5.39164	2.40720	0.43107	0.37209	0.29799	1.77482	1.33644	0.99731	8.51126	5.05705	2.34985
26150	0.31617	0.25648	0.15111	1.75716	1.39038	1.04718	9.14410	5.39130	2.40373	0.42877	0.37105	0.29592	1.77652	1.33427	0.99666	8.50973	5.05452	2.34746	28.57	6.2	0.00	7.36	0.01267	0.01287	0.01642	0.00778	0.00580	0.00635	0.00466	0.01262	0.01679	0.00676	0.00698	0.00884	0.01485	0.01092	0.01193	0.00216	0.00614	0.00864
26320	0.31317	0.25462	0.14856	1.75452	1.38748	1.04512	9.16504	5.39031	2.40444	0.42774	0.36992	0.29456	1.77640	1.33917	1.00263	8.51150	5.06125	2.35374
26480	0.31821	0.25937	0.15244	1.75934	1.39192	1.04906	9.16487	5.39051	2.40919	0.43137	0.37492	0.29860	1.77587	1.33838	0.99820	8.51644	5.05709	2.34970
26640	0.31701	0.25750	0.15277	1.75800	1.39155	1.04794	9.17581	5.39394	2.40835	0.43161	0.37435	0.29866	1.77753	1.33895	1.00018	8.50982	5.05794	2.35166
26810	0.31614	0.25888	0.15068	1.75568	1.38966	1.04606	9.16832	5.39378	2.40632	0.42812	0.37143	0.29635	1.77956	1.33836	0.99954	8.51618	5.06047	2.35352
26970	0.31879	0.25838	0.15410	1.76040	1.39395	1.04926	9.16798	5.39557	2.41151	0.43168	0.37389	0.29861	1.77844	1.33821	0.99849	8.51609	5.05841	2.35158
27130	0.31802	0.25617	0.15223	1.75753	1.38939	1.04737	9.17616	5.38944	2.40867	0.42919	0.37166	0.29653	1.77994	1.33833	0.99857	8.51653	5.05791	2.35207
27300	0.31895	0.25789	0.15190	1.75847	1.39151	1.04789	9.14997	5.39106	2.40777	0.43009	0.37195	0.29766	1.77685	1.33777	0.99743	8.51573	5.05556	2.34888
27460	0.31240	0.25571	0.15147	1.75625	1.38943	1.04711	9.16164	5.39228	2.40543	0.42974	0.37180	0.29619	1.77403	1.33453	0.99560	8.50532	5.05348	2.34734
27620	0.31138	0.25318	0.15281	1.75509	1.39126	1.04945	9.17651	5.39193	2.41042	0.43224	0.37484	0.29893	1.77794	1.33900	0.99830	8.51423	5.05713	2.35049
27790	0.31691	0.25719	0.15011	1.75769	1.38950	1.04723	9.17807	5.38905	2.40854	0.42974	0.37072	0.29680	1.77646	1.33633	0.99597	8.50945	5.05463	2.34792	28.57	6.0	0.00	7.40	0.01267	0.01287	0.01642	0.00778	0.00580	0.00635	0.00466	0.01262	0.01679	0.00676	0.00698	0.00884	0.01485	0.01092	0.01193	0.00216	0.00614	0.00865
27950	0.31314	0.25639	0.15158	1.75500	1.39039	1.04883	9.15849	5.39570	2.41022	0.43100	0.37351	0.29941	1.77853	1.34097	0.99998	8.51705	5.06022	2.35264
28110	0.31743	0.25676	0.15151	1.75788	1.38994	1.04807	9.16171	5.39003	2.40777	0.42922	0.37063	0.29571	1.77397	1.33412	0.99713	8.50654	5.05379	2.34669
28280	0.31670	0.25763	0.15272	1.75919	1.39320	1.05017	9.16372	5.39625	2.41193	0.43324	0.37525	0.30015	1.77864	1.34227	0.99774	8.51237	5.05961	2.35148
28440	0.31701	0.25804	0.15257	1.75787	1.38956	1.04792	9.16320	5.38469	2.40674	0.42970	0.37233	0.29691	1.77391	1.33726	0.99536	8.51166	5.05660	2.34938
28600	0.31644	0.25771	0.15105	1.75868	1.39212	1.04927	9.15055	5.39082	2.41080	0.43185	0.37386	0.29871	1.77688	1.33892	0.99920	8.51457	5.05864	2.35049
28770	0.31632	0.25728	0.15161	1.75720	1.38884	1.04596	9.14164	5.38949	2.40644	0.42945	0.37211	0.29747	1.77759	1.33698	0.99595	8.51016	5.05528	2.34817
28930	0.31740	0.25654	0.15073	1.75729	1.39053	1.04719	9.16424	5.39021	2.40701	0.42995	0.37237	0.29725	1.77764	1.33726	0.99813	8.50919	5.05732	2.35088
29090	0.31622	0.25680	0.15279	1.75703	1.38962	1.04710	9.16159	5.39033	2.40770	0.42815	0.37153	0.29650	1.77503	1.33673	0.99571	8.51175	5.05585	2.34907
29260	0.31218	0.25283	0.15078	1.75530	1.38675	1.04399	9.14934	5.38679	2.40471	0.42626	0.36770	0.29341	1.77676	1.33746	1.00057	8.51634	5.06045	2.35278
29420	0.31958	0.25987	0.15282	1.75905	1.39159	1.04908	9.16084	5.39311	2.40859	0.43148	0.37316	0.29778	1.77955	1.33705	0.99767	8.51023	5.05742	2.34954	28.57	6.1	0.00	7.47	0.01267	0.01287	0.01642	0.00778	0.00580	0.00635	0.00466	0.01262	0.01679	0.00676	0.00698	0.00884	0.01485	0.01092	0.01193	0.00216	0.00614	0.00865
29580	0.31635	0.25833	0.15156	1.75717	1.38944	1.04701	9.16493	5.39051	2.40939	0.43045	0.37211	0.29830	1.77795	1.33720	0.99982	8.51508	5.05836	2.35139
29750	0.31901	0.25663	0.15046	1.75654	1.38794	1.04615	9.18470	5.38899	2.40732	0.42865	0.37063	0.29658	1.77640	1.33708	0.99713	8.51323	5.05684	2.35110
29910	0.31907	0.25695	0.15226	1.75898	1.39172	1.04903	9.16568	5.38745	2.40848	0.42955	0.37240	0.29870	1.77990	1.33838	0.99861	8.51270	5.05866	2.35177
30070	0.31813	0.25805	0.15070	1.75652	1.38900	1.04744	9.15245	5.39105	2.40846	0.42950	0.37221	0.29725	1.77655	1.33652	0.99936	8.51252	5.05600	2.34840
30240	0.31748	0.26009	0.15207	1.75973	1.39215	1.04963	9.18158	5.39508	2.41065	0.43213	0.37480	0.29996	1.77946	1.34209	1.00100	8.51508	5.06303	2.35401
30400	0.31853	0.25642	0.15153	1.75852	1.38911	1.04690	9.15653	5.38987	2.40698	0.42896	0.37095	0.29602	1.77370	1.33448	0.99702	8.51376	5.05565	2.34999
30560	0.31774	0.25789	0.15169	1.75899	1.39244	1.04887	9.16182	5.39136	2.40969	0.43116	0.37221	0.29821	1.77841	1.33935	0.99825	8.51402	5.05784	2.35167
30730	0.31589	0.25698	0.15074	1.75676	1.38969	1.04725	9.16470	5.38827	2.40672	0.42952	0.37089	0.29689	1.77611	1.33599	0.99938	8.51535	5.05708	2.35067
30890	0.31561	0.25784	0.14936	1.75656	1.38941	1.04768	9.16148	5.39271	2.40803	0.42908	0.37167	0.29777	1.77763	1.33739	0.99630	8.51464	5.05747	2.35121
31050	0.31806	0.25976	0.15043	1.76252	1.39330	1.05191	9.18542	5.39179	2.41057	0.43251	0.37494	0.29973	1.77524	1.33779	0.99847	8.51946	5.06188	2.35510	28.57	6.3	0.00	7.43	0.01268	0.01288	0.01642	0.00778	0.00580	0.00636	0.00466	0.01262	0.01679	0.00677	0.00698	0.00884	0.01486	0.01092	0.01193	0.00216	0.00615	0.00865
31220	0.31421	0.25847	0.15191	1.76108	1.39439	1.05288	9.17084	5.39721	2.41343	0.43543	0.37739	0.30191	1.78076	1.33955	1.00017	8.51990	5.06504	2.35801
31380	0.31800	0.25748	0.15234	1.76302	1.39276	1.05162	9.16076	5.39161	2.40976	0.43427	0.37517	0.30096	1.77825	1.34028	0.99943	8.51734	5.06091	2.35487
31540	0.31688	0.25816	0.15223	1.76085	1.39328	1.05267	9.17919	5.39131	2.41264	0.43508	0.37769	0.30232	1.77973	1.33861	1.00270	8.52281	5.06396	2.35612
31710	0.31666	0.25966	0.15285	1.76213	1.39437	1.05175	9.18057	5.39245	2.41192	0.43390	0.37719	0.30108	1.77886	1.33949	0.99912	8.51486	5.06290	2.35506
31870	0.31684	0.25856	0.15344	1.76169	1.39373	1.05416	9.18092	5.39754	2.41478	0.43678	0.37901	0.30398	1.78246	1.34100	0.99990	8.51504	5.06136	2.35342
32030	0.31533	0.25596	0.15019	1.75626	1.38617	1.04271	9.16727	5.38980	2.40502	0.42489	0.36676	0.29150	1.76983	1.33471	0.99285	8.49661	5.04520	2.33769
32190	0.30988	0.24805	0.14435	1.73981	1.36999	1.02712	9.15122	5.38267	2.39531	0.40791	0.35063	0.27451	1.76170	1.32364	0.98523	8.46951	5.01408	2.30889
32350	0.30104	0.24305	0.13876	1.71608	1.34676	1.00306	9.15168	5.36945	2.38596	0.38662	0.33110	0.25380	1.75356	1.31470	0.97393	8.43748	4.98697	2.28623
32520	0.29469	0.23712	0.12982	1.69314	1.32630	0.98490	9.12825	5.35894	2.38063	0.37729	0.32546	0.25083	1.75944	1.31665	0.98002	8.44204	4.99818	2.30039
32690	0.30952	0.25169	0.14818	1.72360	1.36011	1.02210	9.16722	5.38613	2.40478	0.41161	0.35716	0.28261	1.77803	1.33514	0.99817	8.48878	5.03921	2.33649	28.51	6.0	0.00	7.49	0.01268	0.01288	0.01642	0.00779	0.00580	0.00636	0.00466	0.01262	0.01679	0.00677	0.00698	0.00884	0.01486	0.01092	0.01193	0.00216	0.00615	0.00865
32850	0.31718	0.25713	0.15029	1.74480	1.37741	1.03499	9.16325	5.39155	2.40550	0.41980	0.36332	0.28924	1.77784	1.33519	1.00183	8.50085	5.05001	2.34631
33020	0.31855	0.25876	0.15433	1.75848	1.39165	1.05022	9.18105	5.40196	2.41626	0.44350	0.38327	0.30719	1.78267	1.34020	1.00153	8.52149	5.06427	2.35811
33180	0.32140	0.25709	0.15306	1.76457	1.39570	1.05262	9.17811	5.39034	2.40971	0.43366	0.37473	0.30124	1.78235	1.34203	1.00580	8.51990	5.06739	2.36102
33340	0.31983	0.26192	0.15405	1.76728	1.39771	1.05327	9.16751	5.39131	2.40889	0.43050	0.37059	0.29581	1.77293	1.33605	0.99376	8.49891	5.04595	2.33850
33500	0.31236	0.25186	0.14388	1.74054	1.37032	1.02614	9.14623	5.37478	2.39450	0.40696	0.34948	0.27431	1.76508	1.32229	0.98412	8.46953	5.01639	2.31312
33670	0.30354	0.24290	0.13882	1.72089	1.35123	1.00752	9.12781	5.36697	2.38334	0.39139	0.33485	0.25904	1.75692	1.31229	0.97733	8.44304	4.99553	2.29614
33840	0.30385	0.24598	0.14173	1.71211	1.34825	1.00714	9.14905	5.37701	2.39343	0.39747	0.34377	0.27033	1.76929	1.33027	0.99372	8.47664	5.02951	2.32967
34000	0.31737	0.25783	0.15372	1.74773	1.38286	1.04243	9.19322	5.39795	2.41317	0.42985	0.37340	0.29918	1.78314	1.34274	1.00724	8.51522	5.06181	2.35583
34170	0.32250	0.26295	0.15515	1.76308	1.39391	1.05143	9.16043	5.40065	2.41942	0.43602	0.38234	0.30891	1.78239	1.34515	1.00453	8.52908	5.07143	2.36310
34330	0.32259	0.26158	0.15747	1.77412	1.40399	1.05891	9.17018	5.39373	2.41262	0.43882	0.37994	0.30526	1.78006	1.34277	1.00318	8.52490	5.07062	2.36428	28.51	6.2	0.00	7.56	0.01268	0.01288	0.01643	0.00779	0.00580	0.00636	0.00466	0.01262	0.01679	0.00677	0.00698	0.00885	0.01486	0.01092	0.01194	0.00216	0.00615	0.00866
34490	0.32143	0.25894	0.15441	1.77090	1.40181	1.05848	9.17174	5.39559	2.41224	0.43932	0.37893	0.30538	1.77901	1.34049	1.00086	8.52640	5.06828	2.36150
34650	0.31854	0.25889	0.15272	1.76752	1.39780	1.05271	9.17105	5.38605	2.40587	0.42898	0.37046	0.29463	1.77036	1.33597	0.99324	8.50163	5.05102	2.34285
34810	0.31211	0.25053	0.14529	1.74780	1.37829	1.03389	9.15741	5.37616	2.39786	0.41384	0.35431	0.27750	1.76424	1.32570	0.98343	8.47401	5.02284	2.31852
34980	0.30432	0.24722	0.14398	1.72668	1.36036	1.01737	9.14655	5.37574	2.39378	0.40091	0.34334	0.26764	1.76278	1.32167	0.98396	8.46216	5.01169	2.30755
35140	0.30419	0.24338	0.14067	1.71444	1.34723	1.00413	9.14408	5.37020	2.38897	0.39067	0.33485	0.25997	1.75906	1.31775	0.97940	8.45348	5.00196	2.30205
35310	0.30074	0.24634	0.14176	1.71356	1.35013	1.00977	9.16644	5.37717	2.39656	0.39879	0.34404	0.27101	1.76962	1.32738	0.99362	8.47384	5.02631	2.32484
35470	0.31571	0.25538	0.14825	1.73684	1.37164	1.02989	9.16719	5.38913	2.40698	0.41486	0.35909	0.28392	1.77829	1.33298	0.99782	8.49635	5.04407	2.34230
35640	0.32010	0.25922	0.15554	1.75536	1.38915	1.04710	9.17842	5.39750	2.41435	0.43165	0.37373	0.30100	1.78221	1.34284	1.00230	8.51829	5.06272	2.35627
35800	0.32258	0.25903	0.15261	1.76245	1.39459	1.05101	9.17583	5.39496	2.41660	0.43450	0.38041	0.31068	1.78413	1.34529	1.00572	8.53214	5.07395	2.36378
35960	0.32104	0.26162	0.15617	1.77166	1.40269	1.05898	9.17567	5.39787	2.41462	0.44036	0.38166	0.30736	1.78310	1.34125	1.00136	8.52955	5.07334	2.36629	28.57	6.2	0.00	7.41	0.01268	0.01288	0.01643	0.00779	0.00581	0.00636	0.00466	0.01263	0.01680	0.00677	0.00699	0.00885	0.01486	0.01092	0.01194	0.00216	0.00615	0.00866
36120	0.32295	0.25990	0.15609	1.77336	1.40507	1.06140	9.18460	5.39925	2.41497	0.44216	0.38185	0.30827	1.77811	1.34229	0.99987	8.52610	5.06787	2.35818
36280	0.31492	0.25589	0.14786	1.76117	1.38965	1.04436	9.15933	5.38417	2.40044	0.42035	0.35950	0.28581	1.76689	1.32876	0.98671	8.48937	5.03194	2.32724
36450	0.30532	0.24632	0.13991	1.73040	1.36167	1.01508	9.13876	5.36859	2.38991	0.39698	0.34053	0.26340	1.76138	1.32061	0.98367	8.46347	5.01103	2.30945
36610	0.30365	0.24295	0.13925	1.71740	1.35108	1.00747	9.14559	5.37460	2.39125	0.39608	0.34028	0.26489	1.76465	1.32262	0.98559	8.46557	5.01582	2.31352
36780	0.30670	0.24865	0.14666	1.72797	1.36289	1.02107	9.17636	5.38040	2.39903	0.40590	0.34892	0.27379	1.76842	1.32915	0.99203	8.47417	5.02695	2.32348
36950	0.31025	0.25144	0.14680	1.73315	1.36676	1.02592	9.16853	5.38383	2.40157	0.41387	0.35856	0.28391	1.77747	1.33652	0.99626	8.50081	5.04850	2.34529
37110	0.31960	0.25967	0.15507	1.75932	1.39233	1.04983	9.18408	5.39453	2.41445	0.43500	0.37873	0.30481	1.78476	1.34657	1.00696	8.52602	5.07185	2.36579
37280	0.32374	0.26489	0.15894	1.77391	1.40834	1.06518	9.16318	5.39582	2.41377	0.44199	0.38106	0.30680	1.78479	1.34567	1.00701	8.53131	5.07698	2.37014
37440	0.32389	0.26285	0.15801	1.77657	1.40720	1.06249	9.17342	5.39883	2.41523	0.44060	0.38233	0.30795	1.78298	1.34396	1.00195	8.52937	5.07003	2.36283
37600	0.31823	0.25839	0.15258	1.76455	1.39621	1.05216	9.17819	5.38967	2.40851	0.43453	0.37643	0.30330	1.78200	1.34412	1.00361	8.52346	5.07155	2.36482	28.57	6.1	0.00	7.37	0.01268	0.01288	0.01642	0.00779	0.00580	0.00636	0.00466	0.01262	0.01679	0.00677	0.00698	0.00885	0.01486	0.01092	0.01193	0.00216	0.00615	0.00866
37770	0.31942	0.26111	0.15367	1.77022	1.40151	1.05803	9.18119	5.39260	2.41310	0.43790	0.37941	0.30443	1.78043	1.34131	1.00103	8.52452	5.06839	2.36070
37930	0.31731	0.25866	0.15082	1.76761	1.39827	1.05408	9.16736	5.39336	2.40510	0.43430	0.37619	0.30104	1.78292	1.34094	0.99976	8.52443	5.07016	2.36347
38090	0.32088	0.25931	0.15363	1.77039	1.40086	1.05669	9.16351	5.39688	2.41134	0.43731	0.37898	0.30385	1.78471	1.34517	1.00485	8.52893	5.07269	2.36729
38260	0.32329	0.26144	0.15544	1.77396	1.40484	1.06073	9.18205	5.40048	2.41405	0.44104	0.38178	0.30713	1.78576	1.34324	1.00562	8.52584	5.07330	2.36553
38420	0.31888	0.26098	0.15552	1.77088	1.40194	1.05789	9.17093	5.39665	2.41305	0.43810	0.37971	0.30356	1.78035	1.34359	1.00153	8.52302	5.06729	2.36129
38590	0.31995	0.26123	0.15424	1.76901	1.40109	1.05732	9.18211	5.39639	2.41248	0.43793	0.37871	0.30402	1.78272	1.34162	1.00024	8.52028	5.06887	2.36079
38750	0.31812	0.25953	0.15717	1.76829	1.40212	1.05944	9.16448	5.39736	2.41515	0.43963	0.38110	0.30552	1.78391	1.34324	1.00270	8.52319	5.06794	2.36105
38910	0.32131	0.26183	0.15559	1.76989	1.40036	1.05764	9.14482	5.39054	2.41239	0.43829	0.37907	0.30437	1.78342	1.34533	1.00475	8.52681	5.07220	2.36478
39080	0.32124	0.26132	0.15467	1.77021	1.39951	1.05566	9.15867	5.39272	2.40944	0.43598	0.37782	0.30315	1.78284	1.34034	1.00223	8.52434	5.06765	2.36048
39240	0.31938	0.25781	0.15161	1.76450	1.39672	1.05180	9.16537	5.39032	2.40575	0.43338	0.37387	0.29980	1.78284	1.34139	1.00289	8.52121	5.06868	2.36083	28.57	6.1	0.00	7.42	0.01268	0.01288	0.01642	0.00779	0.00580	0.00636	0.00466	0.01262	0.01679	0.00677	0.00698	0.00884	0.01486	0.01092	0.01193	0.00216	0.00615	0.00865
39410	0.31971	0.25957	0.15387	1.76776	1.39997	1.05689	9.17723	5.39726	2.41337	0.43675	0.37872	0.30423	1.77987	1.33804	1.00126	8.52350	5.06808	2.35929
39570	0.31914	0.26039	0.15404	1.76934	1.40036	1.05633	9.17331	5.39295	2.41179	0.43669	0.37809	0.30412	1.78106	1.34279	1.00168	8.51962	5.06903	2.36140
39730	0.31897	0.26023	0.15485	1.76906	1.40265	1.05816	9.16824	5.39482	2.41116	0.43867	0.38079	0.30430	1.78057	1.34350	0.99724	8.51812	5.06955	2.35952
39900	0.32143	0.26259	0.15585	1.77097	1.40278	1.05878	9.17671	5.39466	2.41583	0.43836	0.38100	0.30553	1.78283	1.34361	1.00277	8.52474	5.07000	2.36107
40060	0.32016	0.26014	0.15289	1.76761	1.39982	1.05502	9.16899	5.39289	2.41050	0.43541	0.37646	0.30325	1.78017	1.33999	0.99591	8.52094	5.06418	2.35573
40220	0.32081	0.25855	0.15346	1.76525	1.39761	1.05481	9.17343	5.39628	2.41156	0.43413	0.37523	0.30055	1.78031	1.34287	0.99942	8.51918	5.06291	2.35580
40390	0.31722	0.25806	0.15200	1.76188	1.39384	1.04936	9.16502	5.38872	2.41018	0.43100	0.37470	0.30012	1.77641	1.33853	0.99625	8.51724	5.06245	2.35693
40550	0.31848	0.25527	0.15038	1.76329	1.39417	1.04995	9.15748	5.39109	2.40727	0.42953	0.37072	0.29658	1.77907	1.34080	1.00199	8.51759	5.06875	2.36237
40710	0.32247	0.26339	0.15744	1.77342	1.40564	1.06079	9.17809	5.39888	2.41337	0.43860	0.38031	0.30477	1.78224	1.33903	1.00293	8.51944	5.06786	2.35976
40880	0.31846	0.26129	0.15481	1.76805	1.40230	1.05723	9.18385	5.39580	2.41562	0.43814	0.38079	0.30629	1.78281	1.34638	1.00220	8.53077	5.07335	2.36448	28.57	6.1	0.00	6.71	0.01268	0.01288	0.01642	0.00779	0.00580	0.00636	0.00466	0.01262	0.01679	0.00677	0.00698	0.00884	0.01486	0.01092	0.01193	0.00216	0.00615	0.00865
41040	0.31937	0.25882	0.15418	1.76959	1.40092	1.05464	9.15719	5.38948	2.41008	0.43333	0.37450	0.29962	1.77728	1.33744	0.99421	8.51426	5.06061	2.35348
41200	0.31773	0.25596	0.15222	1.76279	1.39626	1.05119	9.17889	5.39564	2.41221	0.43252	0.37335	0.29956	1.77791	1.33921	0.99785	8.51347	5.06091	2.35427
41360	0.31636	0.25618	0.15013	1.76083	1.39447	1.04974	9.16611	5.39137	2.40639	0.42921	0.37216	0.29616	1.77231	1.33432	0.99314	8.50668	5.05263	2.34442
41530	0.31328	0.25276	0.14614	1.75010	1.38372	1.03959	9.14483	5.38433	2.40233	0.42331	0.36615	0.29127	1.77656	1.33580	0.99842	8.50959	5.05659	2.35235
41690	0.31939	0.25647	0.15386	1.76327	1.39715	1.05416	9.16686	5.39904	2.41220	0.43900	0.38314	0.30612	1.78231	1.34178	1.00473	8.53404	5.07361	2.36482
41860	0.32499	0.26225	0.15560	1.77211	1.40511	1.06079	9.16841	5.40010	2.41290	0.44159	0.38219	0.30543	1.77739	1.33893	0.99659	8.51850	5.06320	2.35430
42020	0.31731	0.25728	0.15165	1.76098	1.39399	1.04811	9.16289	5.38217	2.40467	0.42961	0.36946	0.29497	1.77557	1.33813	0.99577	8.51117	5.05456	2.34620
42180	0.31595	0.25654	0.14973	1.75289	1.38657	1.04013	9.15610	5.38833	2.40338	0.42343	0.36466	0.28963	1.77152	1.33174	0.99551	8.50121	5.04998	2.34468
42350	0.31466	0.25613	0.14943	1.75433	1.38938	1.04485	9.15696	5.38898	2.40602	0.43007	0.37193	0.29713	1.78161	1.34175	1.00308	8.52335	5.06601	2.35868
42510	0.32019	0.25974	0.15548	1.76409	1.39657	1.05143	9.15231	5.39108	2.40942	0.43285	0.37414	0.29940	1.77653	1.33745	0.99759	8.52040	5.06314	2.35695	28.57	5.9	0.00	7.42	0.01268	0.01288	0.01642	0.00779	0.00580	0.00636	0.00466	0.01262	0.01679	0.00677	0.00698	0.00884	0.01486	0.01092	0.01193	0.00216	0.00615	0.00865
42680	0.31939	0.26180	0.15727	1.76814	1.40477	1.06116	9.17649	5.39770	2.41411	0.44000	0.38098	0.30534	1.78178	1.34505	1.00086	8.52447	5.07138	2.36303
42840	0.32068	0.25917	0.15292	1.76868	1.40239	1.05645	9.15634	5.39231	2.41058	0.43818	0.37954	0.30444	1.77866	1.34365	0.99770	8.52385	5.06963	2.36111
43000	0.31790	0.25773	0.15232	1.76678	1.39916	1.05460	9.15916	5.38753	2.40789	0.43434	0.37366	0.29891	1.77685	1.34110	0.99579	8.51661	5.06145	2.35251
43160	0.31714	0.25396	0.15124	1.75694	1.38856	1.04200	9.15548	5.38360	2.40290	0.42282	0.36411	0.28803	1.77149	1.32680	0.99264	8.49211	5.04065	2.33423
43330	0.31221	0.25281	0.14790	1.74411	1.37884	1.03664	9.16192	5.38165	2.40403	0.42298	0.36527	0.29251	1.77338	1.33425	0.99543	8.50726	5.05599	2.35054
43490	0.31877	0.25976	0.15523	1.76501	1.39997	1.05460	9.17413	5.39419	2.40968	0.43450	0.37686	0.30209	1.78052	1.33727	0.99903	8.52129	5.06416	2.35623
43650	0.31774	0.25798	0.15300	1.76348	1.39529	1.05120	9.17251	5.38619	2.40895	0.43311	0.37419	0.29974	1.77859	1.34006	1.00006	8.52173	5.06578	2.35786
43820	0.31855	0.26012	0.15357	1.76368	1.39712	1.05247	9.16681	5.39326	2.41216	0.43716	0.37979	0.30481	1.77819	1.34142	0.99969	8.52447	5.06639	2.35882
43980	0.31700	0.25703	0.15240	1.76557	1.39881	1.05365	9.17349	5.39252	2.40952	0.43564	0.37629	0.30139	1.78148	1.34061	1.00024	8.52535	5.07054	2.36083
44150	0.31884	0.25885	0.15180	1.76684	1.39856	1.05445	9.17271	5.39574	2.41012	0.43549	0.37641	0.30060	1.77458	1.33733	0.99629	8.52037	5.06296	2.35549	28.51	6.2	0.00	7.43	0.01268	0.01288	0.01642	0.00779	0.00580	0.00636	0.00466	0.01262	0.01679	0.00677	0.00698	0.00884	0.01486	0.01092	0.01193	0.00216	0.00615	0.00865
44310	0.31509	0.25631	0.15258	1.76202	1.39602	1.05072	9.16488	5.38813	2.40682	0.43006	0.37114	0.29481	1.77580	1.33448	0.99408	8.51481	5.05736	2.34927
44470	0.31536	0.25419	0.14860	1.75375	1.38698	1.04243	9.17427	5.38887	2.40362	0.42586	0.36772	0.29112	1.77529	1.33121	0.99212	8.50362	5.04831	2.34289
44640	0.31181	0.25458	0.15074	1.75032	1.38477	1.04064	9.16482	5.38585	2.40419	0.42514	0.36849	0.29312	1.77797	1.33743	1.00044	8.51561	5.06071	2.35546
44800	0.32053	0.25943	0.15365	1.76358	1.39738	1.05179	9.16707	5.39219	2.41142	0.43277	0.37468	0.29967	1.78035	1.34200	1.00274	8.52055	5.07027	2.36574
44970	0.32067	0.26086	0.15590	1.76897	1.40285	1.05691	9.18020	5.39649	2.41298	0.43848	0.37952	0.30314	1.78125	1.34291	1.00077	8.52894	5.07112	2.36205
45130	0.32001	0.26245	0.15795	1.76915	1.40314	1.05927	9.16862	5.39468	2.41356	0.43961	0.38038	0.30504	1.77821	1.34124	1.00019	8.52196	5.06324	2.35466
45290	0.31716	0.25809	0.15286	1.75884	1.39164	1.04590	9.16362	5.38923	2.40593	0.42690	0.36664	0.29159	1.77092	1.33281	0.98955	8.49498	5.04227	2.33423
45460	0.30782	0.24958	0.14812	1.73912	1.37486	1.03147	9.16868	5.38147	2.39961	0.41624	0.35828	0.28350	1.77531	1.33083	0.99201	8.49067	5.04097	2.33682
45620	0.31378	0.25443	0.14902	1.74857	1.38539	1.04143	9.17513	5.39306	2.41071	0.42760	0.37034	0.29712	1.77917	1.34065	1.00101	8.51375	5.06052	2.35405
45790	0.31922	0.25973	0.15062	1.75837	1.39020	1.04598	9.16003	5.39205	2.40803	0.42901	0.37233	0.29834	1.78046	1.34099	1.00011	8.52917	5.07102	2.36211	28.57	6.1	0.00	7.47	0.01268	0.01288	0.01642	0.00779	0.00580	0.00636	0.00466	0.01262	0.01679	0.00677	0.00698	0.00884	0.01486	0.01092	0.01193	0.00216	0.00615	0.00865
45950	0.31947	0.25713	0.15352	1.76607	1.39838	1.05299	9.17967	5.39634	2.41295	0.43526	0.37934	0.30351	1.77942	1.33827	1.00023	8.52466	5.06682	2.35917
46110	0.31840	0.25863	0.15408	1.76530	1.39892	1.05409	9.15934	5.39721	2.40999	0.43317	0.37451	0.29785	1.77544	1.33668	0.99580	8.51337	5.05969	2.35328
46270	0.31782	0.26004	0.15284	1.76194	1.39485	1.05026	9.17927	5.38996	2.40799	0.42936	0.37033	0.29339	1.77519	1.33449	0.99622	8.50446	5.05234	2.34456
46440	0.31061	0.25349	0.14814	1.74673	1.37881	1.03347	9.16176	5.38370	2.40097	0.41638	0.35993	0.28618	1.77232	1.33162	0.99298	8.49591	5.04830	2.34340
46600	0.31612	0.25716	0.15255	1.75294	1.38816	1.04327	9.17080	5.38713	2.40931	0.42862	0.37073	0.29735	1.78282	1.34172	0.99872	8.51769	5.06323	2.35583
46770	0.31794	0.25830	0.15235	1.75975	1.39142	1.04657	9.15957	5.38968	2.40636	0.42751	0.36970	0.29550	1.77560	1.33292	0.99377	8.51037	5.05683	2.35174
46930	0.32021	0.26041	0.15540	1.76499	1.39900	1.05621	9.16446	5.40191	2.41754	0.43798	0.37893	0.30531	1.78268	1.34152	1.00401	8.52749	5.07277	2.36278
47090	0.32219	0.25978	0.15357	1.76773	1.39914	1.05446	9.16752	5.39556	2.41219	0.43635	0.37711	0.30401	1.78084	1.34360	1.00319	8.52952	5.07373	2.36526
47260	0.31802	0.25638	0.15482	1.76731	1.39789	1.05129	9.17022	5.38958	2.40786	0.42888	0.36983	0.29500	1.77206	1.33536	0.99438	8.50816	5.05063	2.34470
47420	0.31217	0.25387	0.14902	1.75021	1.38405	1.04017	9.16073	5.38851	2.40229	0.42279	0.36645	0.29252	1.77219	1.33672	0.99958	8.51119	5.06972	2.36511	28.57	6.0	0.00	7.35	0.01268	0.01288	0.01642	0.00779	0.00580	0.00636	0.00466	0.01262	0.01679	0.00677	0.00698	0.00884	0.01485	0.01092	0.01193	0.00216	0.00615	0.00865
47580	0.32169	0.26097	0.15693	1.77198	1.40328	1.05767	9.17766	5.39405	2.41428	0.43623	0.37747	0.30349	1.78005	1.34094	0.99920	8.52691	5.06695	2.35894
47750	0.31759	0.25824	0.15328	1.76321	1.39577	1.05190	9.16257	5.39511	2.41045	0.43355	0.37775	0.30266	1.77696	1.33938	0.99786	8.51781	5.06280	2.35706
47910	0.31895	0.25879	0.15496	1.76795	1.40126	1.05845	9.18360	5.39740	2.41325	0.43832	0.38060	0.30529	1.78018	1.34031	0.99778	8.52196	5.06479	2.35493
48070	0.31766	0.25376	0.14836	1.75543	1.38781	1.04172	9.16902	5.38540	2.40045	0.42214	0.36394	0.28840	1.76852	1.32837	0.98766	8.48855	5.03978	2.33416
48230	0.30962	0.25374	0.14557	1.74517	1.38163	1.04047	9.15601	5.39323	2.41648	0.42767	0.38036	0.30968	1.78262	1.34456	1.00114	8.53248	5.07455	2.36262
48400	0.32010	0.25974	0.15541	1.76571	1.39740	1.05334	9.17564	5.39136	2.40895	0.43227	0.37403	0.29884	1.77514	1.33635	0.99683	8.51110	5.05942	2.35218
48560	0.31709	0.25476	0.15040	1.75748	1.38908	1.04397	9.15722	5.38499	2.40188	0.42497	0.36752	0.29332	1.77623	1.33565	0.99993	8.51340	5.06145	2.36112
48730	0.32038	0.26234	0.15554	1.77193	1.40233	1.05743	9.17714	5.39039	2.40974	0.43393	0.37600	0.30025	1.77878	1.34065	1.00112	8.52276	5.06613	2.35852
48890	0.31845	0.26070	0.15447	1.76352	1.39614	1.05178	9.17017	5.39211	2.40995	0.43272	0.37510	0.29993	1.77669	1.33557	0.99418	8.51340	5.05717	2.34856
49050	0.31369	0.25406	0.14980	1.75397	1.38648	1.04200	9.15530	5.38563	2.40410	0.42245	0.36544	0.29039	1.77639	1.33490	0.99654	8.50593	5.05343	2.34827	28.57	6.1	0.00	7.44	0.01268	0.01288	0.01642	0.00779	0.00580	0.00636	0.00466	0.01262	0.01679	0.00677	0.00698	0.00884	0.01485	0.01092	0.01193	0.00216	0.00615	0.00865
49220	0.31775	0.25913	0.15449	1.76050	1.39567	1.05356	9.16404	5.40243	2.41334	0.43666	0.38109	0.30498	1.77980	1.33912	0.99821	8.52191	5.06528	2.35677
49380	0.31929	0.25773	0.15298	1.76443	1.39681	1.05459	9.16410	5.39094	2.40883	0.43415	0.37526	0.30044	1.77881	1.33903	1.00006	8.51926	5.06252	2.35454
49540	0.31860	0.25689	0.15288	1.75938	1.38932	1.04353	9.16099	5.38634	2.40499	0.42309	0.36375	0.28825	1.77147	1.33003	0.99158	8.49078	5.04041	2.33402
49710	0.31223	0.25289	0.14724	1.74337	1.37722	1.03518	9.16065	5.38748	2.40299	0.42011	0.36528	0.29169	1.77658	1.33813	1.00523	8.51114	5.06721	2.36961
49870	0.32160	0.26250	0.15739	1.77383	1.40474	1.05724	9.15564	5.39718	2.41352	0.43497	0.37691	0.30316	1.77933	1.34018	0.99784	8.52676	5.06691	2.35836
50030	0.31977	0.25887	0.15413	1.76441	1.39747	1.05483	9.15817	5.39346	2.41260	0.43497	0.37564	0.30253	1.77778	1.33830	0.99734	8.51767	5.06193	2.35095
50200	0.31251	0.25334	0.14721	1.75349	1.38365	1.03689	9.15599	5.37762	2.39686	0.41569	0.35602	0.28084	1.76432	1.32663	0.98665	8.48567	5.03489	2.33171
50360	0.31137	0.25307	0.15034	1.74499	1.38075	1.03966	9.15283	5.39366	2.40512	0.42525	0.36922	0.29624	1.77646	1.33541	0.99966	8.51740	5.06258	2.35627
50520	0.31983	0.26279	0.15682	1.77028	1.40294	1.05787	9.17694	5.39674	2.41494	0.43713	0.37767	0.30369	1.78001	1.34224	1.00193	8.52447	5.06860	2.36074
50690	0.32045	0.25744	0.15470	1.76563	1.39756	1.05324	9.14715	5.39298	2.41112	0.43338	0.37429	0.30157	1.77577	1.33930	0.99583	8.51880	5.06147	2.35363	28.57	6.0	0.00	7.40	0.01268	0.01288	0.01642	0.00779	0.00580	0.00636	0.00466	0.01262	0.01679	0.00677	0.00698	0.00884	0.01485	0.01092	0.01193	0.00216	0.00615	0.00865
50850	0.31643	0.25737	0.15228	1.76021	1.39356	1.04796	9.15232	5.38864	2.40582	0.42591	0.36727	0.29323	1.77397	1.33466	0.99454	8.50689	5.05258	2.34606
51010	0.31305	0.25450	0.14898	1.75550	1.38931	1.04584	9.15893	5.38661	2.40609	0.42695	0.36878	0.29452	1.77254	1.33349	0.99604	8.50998	5.05472	2.34691
51170	0.31267	0.25448	0.14990	1.75493	1.38880	1.04497	9.15589	5.39108	2.40458	0.42532	0.36649	0.29295	1.77122	1.33314	0.99346	8.50866	5.05023	2.34395
51340	0.31593	0.25912	0.15197	1.75971	1.39393	1.05064	9.16480	5.39681	2.41265	0.43218	0.37363	0.29981	1.78007	1.33825	0.99861	8.51880	5.05840	2.35077
51500	0.31656	0.25523	0.14912	1.75753	1.39072	1.04634	9.15571	5.39045	2.40705	0.42763	0.37097	0.29759	1.77415	1.33769	0.99613	8.51616	5.05857	2.34964
51660	0.31726	0.25715	0.15134	1.75855	1.39342	1.04873	9.16147	5.38940	2.40918	0.42939	0.37116	0.29725	1.77643	1.33886	0.99729	8.51766	5.05835	2.35218
51830	0.31732	0.25755	0.15151	1.76033	1.39274	1.04880	9.15186	5.39136	2.40878	0.42948	0.37182	0.29934	1.77684	1.33621	0.99861	8.51960	5.06196	2.35463
51990	0.31637	0.25618	0.15040	1.76097	1.39486	1.04907	9.16705	5.38995	2.40545	0.42969	0.37181	0.29717	1.77738	1.34073	1.00128	8.52030	5.06746	2.35993
52150	0.32073	0.26026	0.15547	1.76848	1.39893	1.05326	9.16072	5.39100	2.40927	0.43363	0.37496	0.30171	1.77687	1.33758	0.99711	8.51810	5.06473	2.35499
52320	0.31785	0.25603	0.15061	1.75884	1.39075	1.04860	9.15757	5.39091	2.40539	0.42899	0.37099	0.29696	1.77726	1.34038	1.00220	8.52021	5.06566	2.35950	28.57	6.1	0.00	7.42	0.01267	0.01288	0.01642	0.00778	0.00580	0.00636	0.00466	0.01262	0.01679	0.00676	0.00698	0.00884	0.01485	0.01092	0.01193	0.00216	0.00615	0.00865
52480	0.32007	0.26039	0.15515	1.76497	1.39838	1.05342	9.17374	5.39473	2.41116	0.43232	0.37399	0.30020	1.77735	1.33936	0.99811	8.51817	5.06294	2.35460
52640	0.31969	0.25968	0.15534	1.76460	1.39785	1.05392	9.16286	5.39563	2.41253	0.43288	0.37483	0.30101	1.77849	1.33874	0.99868	8.51685	5.06333	2.35626
52810	0.31739	0.25647	0.15143	1.76391	1.39562	1.05223	9.15998	5.38993	2.40721	0.42962	0.37147	0.29670	1.77956	1.33945	0.99944	8.51941	5.06499	2.35788
52970	0.32066	0.26072	0.15575	1.76677	1.39949	1.05525	9.16539	5.39396	2.41321	0.43568	0.37599	0.30118	1.77805	1.33926	1.00135	8.51968	5.06385	2.35542
53130	0.31664	0.25795	0.15165	1.76238	1.39527	1.05167	9.16597	5.39360	2.40998	0.43345	0.37431	0.30019	1.77758	1.33968	0.99935	8.51791	5.06339	2.35637
53300	0.31826	0.25898	0.15328	1.76292	1.39521	1.05222	9.15774	5.39235	2.41007	0.43228	0.37455	0.30075	1.77685	1.33734	0.99468	8.52082	5.06118	2.35396
53460	0.31795	0.25694	0.15084	1.76093	1.39399	1.05058	9.15504	5.39226	2.40831	0.43130	0.37233	0.29906	1.77732	1.33433	0.99686	8.51464	5.05926	2.35287
53620	0.31605	0.25856	0.15207	1.76118	1.39686	1.05356	9.17236	5.39408	2.41220	0.43413	0.37588	0.30199	1.77664	1.33856	0.99792	8.52224	5.06486	2.35719
53790	0.31719	0.25515	0.15049	1.76210	1.39585	1.05191	9.17547	5.39135	2.40868	0.43149	0.37290	0.29931	1.77567	1.33511	0.99446	8.51773	5.05906	2.35321
53950	0.31425	0.25656	0.15119	1.75948	1.39641	1.05243	9.16734	5.39658	2.41103	0.43317	0.37484	0.30135	1.77756	1.33690	0.99874	8.52087	5.06343	2.35627	28.51	6.1	0.00	7.51	0.01267	0.01287	0.01642	0.00778	0.00580	0.00636	0.00466	0.01262	0.01679	0.00676	0.00698	0.00884	0.01485	0.01092	0.01193	0.00216	0.00615	0.00865
54110	0.31723	0.25630	0.15175	1.76288	1.39557	1.05148	9.15422	5.39114	2.40877	0.43204	0.37282	0.29935	1.77563	1.33656	0.99493	8.51645	5.05988	2.35377
54280	0.31702	0.25749	0.15442	1.76342	1.39609	1.05304	9.17149	5.39443	2.41204	0.43409	0.37593	0.30130	1.77872	1.33892	0.99768	8.51937	5.06399	2.35592
54440	0.31727	0.25557	0.15051	1.76181	1.39428	1.04982	9.17454	5.38932	2.40924	0.43058	0.37251	0.29878	1.77641	1.33545	0.99502	8.51804	5.06010	2.35331
54600	0.31686	0.25701	0.15404	1.76290	1.39643	1.05184	9.15502	5.38907	2.41159	0.43270	0.37398	0.30055	1.77709	1.33967	1.00076	8.51504	5.06374	2.35663
54770	0.31674	0.25609	0.15151	1.76136	1.39512	1.05056	9.16780	5.39077	2.40888	0.43129	0.37336	0.29859	1.77597	1.33342	0.99623	8.51283	5.06172	2.35339
54930	0.31672	0.25703	0.15160	1.76254	1.39544	1.05170	9.17465	5.38749	2.40907	0.43129	0.37294	0.29952	1.77785	1.33722	0.99659	8.51707	5.06293	2.35616
55090	0.31544	0.25804	0.15121	1.76267	1.39592	1.05085	9.16262	5.39156	2.40833	0.43182	0.37317	0.29859	1.77645	1.33447	0.99709	8.51310	5.06014	2.35314
55260	0.31615	0.25618	0.15250	1.76335	1.39707	1.05222	9.15859	5.39150	2.40977	0.43342	0.37523	0.30108	1.77754	1.33885	0.99781	8.51592	5.06224	2.35461
55420	0.31855	0.25872	0.15228	1.76101	1.39392	1.04919	9.14858	5.39217	2.40678	0.42993	0.37265	0.29946	1.77677	1.33606	0.99650	8.51495	5.06166	2.35393
55580	0.31751	0.25875	0.15145	1.76144	1.39423	1.05155	9.16250	5.39432	2.41040	0.43203	0.37349	0.29910	1.77838	1.33656	0.99662	8.51773	5.06169	2.35490	28.63	6.1	0.00	7.38	0.01267	0.01287	0.01642	0.00778	0.00580	0.00636	0.00466	0.01262	0.01679	0.00676	0.00698	0.00884	0.01485	0.01092	0.01193	0.00216	0.00615	0.00865
55750	0.31735	0.25818	0.15292	1.76134	1.39454	1.05088	9.16820	5.38775	2.40995	0.43122	0.37330	0.29866	1.77694	1.33830	0.99619	8.51641	5.06044	2.35227
55910	0.31721	0.25887	0.15398	1.76230	1.39582	1.05218	9.16751	5.39156	2.41029	0.43255	0.37436	0.30021	1.77920	1.34043	1.00064	8.51614	5.06353	2.35585
56070	0.31734	0.25996	0.15310	1.76122	1.39448	1.05111	9.15473	5.39131	2.40779	0.43213	0.37389	0.29887	1.77639	1.33522	0.99768	8.50582	5.05955	2.35225
56240	0.31724	0.26088	0.15540	1.76167	1.39551	1.05231	9.16043	5.39362	2.40939	0.43462	0.37465	0.30098	1.77889	1.34009	1.00024	8.51985	5.06431	2.35513
56400	0.31838	0.25637	0.15147	1.76047	1.39244	1.04957	9.15801	5.39062	2.40757	0.43044	0.37158	0.29736	1.77654	1.33716	0.99561	8.51411	5.05897	2.35159
56560	0.31709	0.25930	0.15337	1.76224	1.39488	1.05256	9.16129	5.38953	2.41106	0.43369	0.37544	0.30056	1.77797	1.33806	0.99744	8.51499	5.06278	2.35510
56730	0.31667	0.25797	0.15050	1.76068	1.39233	1.04859	9.17142	5.38792	2.40869	0.43016	0.37241	0.29776	1.77983	1.33820	0.99988	8.52127	5.06420	2.35567
56890	0.31712	0.25990	0.15283	1.76256	1.39545	1.05223	9.16175	5.39271	2.41264	0.43225	0.37534	0.30133	1.77762	1.34134	0.99977	8.51358	5.06379	2.35562
57050	0.31786	0.25343	0.15036	1.76076	1.39285	1.04969	9.15899	5.38933	2.40692	0.43013	0.37052	0.29718	1.77577	1.33313	0.99715	8.51526	5.05739	2.35033
57220	0.31329	0.25575	0.15150	1.75702	1.39360	1.05109	9.16011	5.39647	2.41031	0.43315	0.37398	0.29972	1.77777	1.34149	0.99863	8.52439	5.06407	2.35649	28.63	6.1	0.00	7.42	0.01267	0.01287	0.01642	0.00778	0.00580	0.00635	0.00466	0.01262	0.01679	0.00676	0.00698	0.00884	0.01485	0.01092	0.01193	0.00216	0.00614	0.00865
57380	0.31795	0.25331	0.15049	1.76074	1.39302	1.04927	9.14981	5.38911	2.40701	0.43011	0.37057	0.29653	1.77745	1.33616	0.99605	8.51335	5.05944	2.35242
57540	0.31515	0.25602	0.15003	1.75760	1.39305	1.05107	9.17485	5.39175	2.41107	0.43118	0.37307	0.29884	1.77948	1.34037	0.99887	8.51379	5.06307	2.35569
57710	0.31541	0.25733	0.15035	1.75965	1.39357	1.04938	9.16379	5.38983	2.40753	0.42958	0.37143	0.29752	1.77371	1.33717	0.99592	8.52050	5.05861	2.35166
57870	0.31336	0.25783	0.15132	1.75644	1.39405	1.05049	9.17030	5.39529	2.41087	0.43186	0.37437	0.29915	1.77907	1.34156	0.99918	8.51759	5.06201	2.35398
58030	0.31763	0.25781	0.15124	1.75965	1.39316	1.05046	9.16339	5.39168	2.40606	0.43060	0.37105	0.29691	1.77400	1.33677	0.99759	8.51838	5.05974	2.35215
58200	0.31718	0.25972	0.15160	1.76146	1.39483	1.05135	9.17122	5.39413	2.41115	0.43255	0.37385	0.29897	1.77778	1.33851	0.99783	8.52077	5.06214	2.35402
58360	0.31647	0.25530	0.15175	1.75930	1.39185	1.04829	9.15355	5.38865	2.40805	0.42954	0.37150	0.29745	1.77456	1.33834	0.99456	8.51247	5.06052	2.35200
58520	0.31688	0.25697	0.15199	1.76134	1.39554	1.05171	9.16345	5.39246	2.41091	0.43234	0.37222	0.29918	1.77877	1.33942	1.00098	8.51803	5.06404	2.35583
58690	0.31707	0.25832	0.15212	1.76115	1.39344	1.04985	9.17203	5.39101	2.40879	0.42884	0.37053	0.29709	1.77668	1.33541	0.99853	8.51600	5.05965	2.35187
58850	0.31742	0.25891	0.15146	1.76050	1.39434	1.05046	9.17033	5.39182	2.40725	0.43145	0.37194	0.29752	1.77629	1.33949	0.99963	8.51599	5.06108	2.35309	28.63	6.1	0.00	7.50	0.01267	0.01287	0.01642	0.00778	0.00580	0.00635	0.00466	0.01262	0.01679	0.00676	0.00698	0.00884	0.01485	0.01092	0.01193	0.00216	0.00614	0.00865
59010	0.31639	0.25698	0.14979	1.75971	1.39238	1.04958	9.16630	5.39664	2.40839	0.43127	0.37149	0.29748	1.77525	1.33757	0.99735	8.51157	5.05849	2.35096
59180	0.31640	0.25603	0.15201	1.76007	1.39410	1.04997	9.17166	5.38958	2.41142	0.43169	0.37283	0.29878	1.77854	1.33968	0.99967	8.52014	5.06193	2.35387
59340	0.31784	0.25606	0.15013	1.76001	1.39310	1.04852	9.16855	5.38882	2.40669	0.42954	0.37142	0.29780	1.77548	1.33434	0.99578	8.51007	5.05948	2.35177
59500	0.31843	0.25792	0.15089	1.76114	1.39441	1.04963	9.16549	5.38731	2.40947	0.43018	0.37011	0.29696	1.77612	1.33638	0.99588	8.51564	5.06013	2.35266
59670	0.31691	0.25636	0.15126	1.76079	1.39384	1.04895	9.16803	5.39062	2.40883	0.43005	0.37093	0.29834	1.77749	1.33678	0.99739	8.51502	5.05792	2.35203
59830	0.31618	0.25612	0.15263	1.76091	1.39468	1.05084	9.15283	5.39001	2.40991	0.43132	0.37401	0.29901	1.77774	1.33978	1.00038	8.51572	5.06061	2.35345
59990	0.31639	0.25731	0.14963	1.76016	1.39216	1.04811	9.17229	5.38449	2.40824	0.43013	0.37081	0.29750	1.77736	1.33648	0.99776	8.51343	5.05888	2.35104
60160	0.31585	0.25731	0.15339	1.76222	1.39516	1.05108	9.16095	5.39331	2.41213	0.43298	0.37359	0.30045	1.77837	1.34057	0.99960	8.51572	5.06264	2.35594
60320	0.31801	0.25750	0.15216	1.76074	1.39246	1.04916	9.16411	5.39092	2.40813	0.42868	0.36950	0.29662	1.77495	1.33630	0.99486	8.51466	5.05836	2.35205
60480	0.32067	0.25826	0.15352	1.76099	1.39420	1.05150	9.15535	5.39129	2.40938	0.43233	0.37247	0.29881	1.77927	1.33976	0.99901	8.51490	5.06233	2.35381	28.63	6.2	0.00	7.44	0.01267	0.01287	0.01642	0.00778	0.00580	0.00635	0.00466	0.01262	0.01678	0.00676	0.00698	0.00884	0.01485	0.01092	0.01193	0.00216	0.00614	0.00865
60650	0.31836	0.25529	0.15056	1.75985	1.39155	1.04807	9.14753	5.39066	2.40571	0.42970	0.36996	0.29604	1.77746	1.33477	0.99801	8.51914	5.06300	2.35492
60810	0.31870	0.25911	0.15217	1.76278	1.39543	1.05134	9.16335	5.38974	2.41245	0.43301	0.37316	0.30002	1.77991	1.33921	0.99799	8.52108	5.06304	2.35417
60970	0.31726	0.25684	0.15035	1.75957	1.39086	1.04823	9.17205	5.38860	2.40668	0.42972	0.36976	0.29666	1.77635	1.33531	0.99649	8.51710	5.06239	2.35424
61140	0.31549	0.25769	0.15123	1.76045	1.39201	1.04941	9.15322	5.38979	2.40822	0.43001	0.36996	0.29675	1.77512	1.33756	0.99634	8.50969	5.05913	2.35152
61300	0.31477	0.25516	0.15038	1.75887	1.39133	1.04875	9.15386	5.39048	2.40718	0.42962	0.37044	0.29619	1.77428	1.33476	0.99447	8.51596	5.05696	2.34925
61460	0.31311	0.25750	0.15168	1.75729	1.39238	1.04888	9.15702	5.39002	2.41101	0.43206	0.37243	0.29828	1.77736	1.34010	0.99899	8.51834	5.06235	2.35308
61630	0.31796	0.25721	0.15088	1.75958	1.39156	1.04744	9.15915	5.38998	2.40673	0.43050	0.37073	0.29723	1.77586	1.33456	0.99523	8.51622	5.05876	2.35129
61790	0.31343	0.25674	0.15263	1.75837	1.39215	1.04910	9.15460	5.38882	2.40934	0.43152	0.37282	0.29840	1.77652	1.33945	1.00040	8.52126	5.06138	2.35398
61950	0.31718	0.25809	0.15266	1.75962	1.39190	1.04853	9.16577	5.39076	2.40529	0.43036	0.37124	0.29708	1.77433	1.33350	0.99652	8.51702	5.05781	2.35078
62120	0.31666	0.25772	0.15368	1.76116	1.39493	1.05188	9.16985	5.39277	2.41075	0.43279	0.37326	0.29899	1.77947	1.33884	0.99908	8.51984	5.06129	2.35356	28.57	6.1	0.00	7.35	0.01267	0.01287	0.01642	0.00778	0.00580	0.00635	0.00466	0.01262	0.01678	0.00676	0.00698	0.00884	0.01485	0.01092	0.01193	0.00216	0.00614	0.00864
62280	0.31503	0.25681	0.15004	1.75938	1.39326	1.04994	9.15724	5.38675	2.40588	0.43061	0.37158	0.29699	1.77526	1.33660	0.99675	8.51649	5.05785	2.34979
62440	0.31550	0.25811	0.15276	1.76014	1.39337	1.05130	9.16858	5.39266	2.40928	0.43258	0.37342	0.29961	1.77670	1.33822	1.00026	8.51728	5.06047	2.35436
62610	0.31566	0.25582	0.14940	1.75990	1.39212	1.04914	9.15839	5.38901	2.40878	0.42987	0.37163	0.29781	1.77669	1.33533	0.99746	8.51428	5.05880	2.35109
62770	0.31743	0.25539	0.15180	1.76073	1.39419	1.05180	9.15241	5.39155	2.41003	0.43228	0.37318	0.29865	1.77889	1.33958	0.99818	8.51816	5.06044	2.35271
62930	0.31736	0.25773	0.15010	1.75960	1.39333	1.04986	9.15879	5.39122	2.40844	0.42977	0.37080	0.29744	1.77596	1.33536	0.99924	8.51737	5.05793	2.35060
63100	0.31689	0.25641	0.15119	1.76066	1.39449	1.05083	9.16478	5.39212	2.41136	0.43273	0.37359	0.29903	1.77752	1.33836	0.99778	8.51790	5.06057	2.35286
63260	0.31552	0.25726	0.15227	1.75868	1.39195	1.04882	9.14919	5.39096	2.40968	0.42978	0.37052	0.29670	1.77445	1.33686	0.99947	8.51516	5.05694	2.35073
63420	0.31433	0.25400	0.15099	1.75622	1.38873	1.04560	9.16472	5.38742	2.40681	0.42759	0.36855	0.29502	1.77700	1.34015	0.99992	8.52152	5.06335	2.35578
63590	0.31789	0.25851	0.15169	1.76081	1.39355	1.04974	9.16305	5.39155	2.40771	0.43020	0.37065	0.29680	1.77549	1.33995	0.99601	8.51834	5.05776	2.35094
63750	0.31539	0.25583	0.14981	1.75799	1.38949	1.04627	9.16313	5.38921	2.40594	0.42693	0.36850	0.29401	1.77985	1.33853	1.00241	8.51864	5.06287	2.35651	28.63	6.1	0.00	7.48	0.01267	0.01287	0.01642	0.00778	0.00580	0.00635	0.00466	0.01262	0.01678	0.00676	0.00698	0.00884	0.01485	0.01092	0.01193	0.00216	0.00614	0.00864
63910	0.31955	0.26043	0.15431	1.76228	1.39402	1.05033	9.17148	5.39121	2.41117	0.43049	0.37320	0.29735	1.77920	1.33799	0.99704	8.51555	5.05934	2.35291
64080	0.31827	0.26011	0.15480	1.76138	1.39653	1.05124	9.17967	5.39279	2.41277	0.43138	0.37286	0.29908	1.77810	1.34040	1.00040	8.51290	5.06155	2.35449
64240	0.31891	0.25537	0.15175	1.76009	1.39270	1.04912	9.16198	5.38802	2.40890	0.42829	0.37155	0.29615	1.77655	1.33716	0.99394	8.51343	5.05741	2.35067
64400	0.31597	0.25812	0.15356	1.75952	1.39405	1.05096	9.17281	5.39551	2.41050	0.43061	0.37296	0.29829	1.77676	1.33744	0.99857	8.51864	5.06066	2.35345
64570	0.31696	0.25357	0.15119	1.75946	1.39152	1.04794	9.15761	5.38936	2.40557	0.42824	0.37023	0.29580	1.77817	1.33524	0.99698	8.51661	5.05767	2.35194
64730	0.31555	0.25750	0.15026	1.75921	1.39210	1.04849	9.18729	5.38988	2.40945	0.42951	0.37202	0.29700	1.77785	1.33384	0.99798	8.51254	5.05776	2.35120
64890	0.31481	0.25469	0.15062	1.75805	1.39147	1.04745	9.15720	5.38666	2.40656	0.42767	0.36895	0.29585	1.77745	1.33502	0.99564	8.51122	5.05408	2.34873
65060	0.31315	0.25446	0.15273	1.75606	1.39226	1.05022	9.17961	5.39070	2.41038	0.43073	0.37351	0.29826	1.77632	1.33668	0.99815	8.51307	5.06168	2.35355
65220	0.31526	0.25760	0.15117	1.75951	1.39193	1.04847	9.15519	5.38634	2.40646	0.42867	0.37078	0.29595	1.77616	1.33391	0.99574	8.51422	5.05681	2.35017
65380	0.31462	0.25557	0.15266	1.75701	1.39347	1.05009	9.16300	5.39219	2.41154	0.43081	0.37236	0.29763	1.77722	1.34011	0.99901	8.51815	5.06027	2.35340	28.63	6.2	0.00	7.38	0.01267	0.01287	0.01642	0.00778	0.00580	0.00635	0.00466	0.01262	0.01678	0.00676	0.00698	0.00884	0.01485	0.01092	0.01193	0.00216	0.00614	0.00864
65550	0.31665	0.25676	0.15122	1.76095	1.39381	1.04965	9.17262	5.39164	2.40711	0.42907	0.37069	0.29560	1.77514	1.33418	0.99582	8.51268	5.05547	2.34881
65710	0.31287	0.25712	0.15492	1.75698	1.39327	1.05211	9.18687	5.39586	2.41377	0.43195	0.37452	0.29981	1.78056	1.33948	1.00027	8.51877	5.06237	2.35391
65870	0.31873	0.25924	0.15220	1.76011	1.39226	1.05005	9.16560	5.38815	2.40891	0.42956	0.37029	0.29634	1.77458	1.33673	0.99679	8.51497	5.05705	2.35095
66040	0.31805	0.26128	0.15281	1.76137	1.39556	1.05190	9.17090	5.39664	2.41165	0.43203	0.37277	0.29881	1.77670	1.33771	0.99661	8.51877	5.05981	2.35339
66200	0.31581	0.25521	0.15030	1.75989	1.39337	1.04963	9.15886	5.39235	2.40792	0.42948	0.37046	0.29652	1.77340	1.33544	0.99639	8.51630	5.05707	2.35012
66360	0.31355	0.25449	0.15010	1.75522	1.38818	1.04464	9.15627	5.38655	2.40356	0.42531	0.36613	0.29277	1.77709	1.33842	0.99958	8.51232	5.06272	2.35604
66520	0.31657	0.25674	0.15065	1.76072	1.39249	1.04836	9.16980	5.39030	2.40663	0.42894	0.37122	0.29585	1.77426	1.33522	0.99609	8.51232	5.05711	2.35020
66690	0.31360	0.25592	0.15066	1.75662	1.39059	1.04707	9.16312	5.38544	2.40466	0.42697	0.36850	0.29431	1.77703	1.33770	0.99957	8.51568	5.06226	2.35520
66850	0.31985	0.25871	0.15116	1.76064	1.39337	1.04945	9.15777	5.39183	2.40666	0.42979	0.37097	0.29597	1.77764	1.33639	0.99856	8.51382	5.05832	2.35100
67020	0.31307	0.25615	0.14904	1.75702	1.39041	1.04606	9.17708	5.38550	2.40399	0.42789	0.37103	0.29413	1.77915	1.34169	1.00165	8.51651	5.06419	2.35691	28.57	6.1	0.00	7.44	0.01267	0.01287	0.01641	0.00778	0.00580	0.00635	0.00466	0.01262	0.01678	0.00676	0.00698	0.00883	0.01485	0.01092	0.01193	0.00216	0.00614	0.00864
67180	0.32040	0.25547	0.15314	1.76158	1.39432	1.04991	9.15191	5.39468	2.40846	0.43041	0.37207	0.29612	1.77961	1.33774	0.99835	8.51165	5.05774	2.35146
67340	0.31687	0.25765	0.15272	1.75903	1.39191	1.04899	9.16043	5.39277	2.40840	0.43035	0.37265	0.29751	1.77782	1.33605	0.99592	8.51085	5.06029	2.35172
67510	0.31826	0.25590	0.15080	1.75875	1.39157	1.04823	9.15663	5.38910	2.40828	0.42968	0.37162	0.29632	1.77592	1.33750	0.99650	8.51253	5.05798	2.35062
67670	0.31729	0.25791	0.15453	1.76080	1.39471	1.05021	9.15548	5.39456	2.41095	0.43162	0.37320	0.29776	1.77941	1.33929	1.00166	8.51474	5.06027	2.35404
67830	0.31837	0.25706	0.15216	1.75886	1.39159	1.04803	9.16647	5.38951	2.40930	0.43014	0.37158	0.29643	1.77472	1.33664	0.99603	8.51209	5.05804	2.35094
68000	0.31831	0.25889	0.15384	1.76202	1.39675	1.05160	9.16884	5.39798	2.41099	0.43322	0.37433	0.30006	1.78279	1.34156	0.99843	8.51933	5.06339	2.35563
68160	0.31805	0.25623	0.15193	1.75993	1.39268	1.04914	9.15836	5.39188	2.40777	0.43059	0.37151	0.29606	1.77609	1.33949	0.99905	8.51377	5.05917	2.35203
68320	0.31909	0.25648	0.15311	1.76191	1.39589	1.05067	9.17120	5.39690	2.41036	0.43216	0.37353	0.29900	1.77795	1.33815	0.99727	8.51677	5.06194	2.35363
68490	0.31647	0.25592	0.14947	1.75890	1.39088	1.04754	9.15565	5.39181	2.40585	0.42985	0.37114	0.29495	1.77607	1.33397	0.99490	8.51315	5.05737	2.35149
68650	0.31185	0.25372	0.14716	1.75474	1.38709	1.04319	9.15330	5.38750	2.40421	0.42659	0.36722	0.29333	1.77360	1.33665	0.99705	8.51122	5.05888	2.35057	28.63	6.1	0.00	7.59	0.01267	0.01287	0.01642	0.00778	0.00579	0.00635	0.00466	0.01262	0.01678	0.00676	0.00698	0.00883	0.01485	0.01092	0.01193	0.00216	0.00614	0.00864
68810	0.31697	0.25770	0.15097	1.75778	1.39029	1.04717	9.15607	5.38873	2.40692	0.42925	0.37075	0.29558	1.77500	1.33465	0.99547	8.51246	5.05665	2.34992
68980	0.31573	0.25703	0.15315	1.75838	1.39312	1.05122	9.16793	5.39608	2.41142	0.43323	0.37429	0.29886	1.77975	1.33726	0.99977	8.51484	5.06115	2.35309
69140	0.31792	0.25650	0.15197	1.75969	1.39095	1.04797	9.15935	5.38905	2.40651	0.42991	0.37108	0.29521	1.77506	1.33572	0.99398	8.51378	5.05570	2.34886
69300	0.31575	0.25625	0.15501	1.75697	1.39369	1.05071	9.15405	5.39431	2.41120	0.43503	0.37611	0.29998	1.78057	1.34187	1.00230	8.51970	5.06358	2.35465
69470	0.31988	0.25799	0.15189	1.75957	1.39198	1.04892	9.15929	5.39001	2.40842	0.43113	0.37222	0.29797	1.77732	1.33967	0.99993	8.51590	5.06373	2.35362
69630	0.31901	0.25867	0.15310	1.75903	1.39237	1.04827	9.17213	5.39066	2.40909	0.43138	0.37112	0.29691	1.77625	1.33693	0.99719	8.51369	5.05823	2.35105
69790	0.31702	0.25597	0.15178	1.75672	1.39074	1.04659	9.15894	5.38574	2.40418	0.42979	0.36972	0.29524	1.77459	1.33525	0.99470	8.50839	5.05642	2.34834
69960	0.31930	0.25915	0.15398	1.76130	1.39559	1.05317	9.17455	5.39179	2.41375	0.43462	0.37500	0.29968	1.78293	1.34157	0.99925	8.51687	5.06165	2.35467
70120	0.32094	0.25783	0.15374	1.76047	1.39264	1.04953	9.16775	5.38914	2.41014	0.43193	0.37258	0.29753	1.77442	1.33844	0.99722	8.51263	5.06044	2.35225
70280	0.31897	0.25953	0.15443	1.76112	1.39435	1.05045	9.16941	5.39154	2.41180	0.43333	0.37466	0.29983	1.77839	1.33977	1.00107	8.51516	5.06206	2.35539	28.57	6.2	0.00	7.44	0.01267	0.01287	0.01642	0.00778	0.00579	0.00635	0.00466	0.01262	0.01678	0.00676	0.00698	0.00883	0.01485	0.01092	0.01193	0.00216	0.00614	0.00864
70440	0.31944	0.25734	0.15153	1.76019	1.39159	1.04778	9.16140	5.38619	2.40602	0.42934	0.37144	0.29577	1.77494	1.33344	0.99545	8.51057	5.05650	2.34946
70610	0.31457	0.25426	0.14730	1.75536	1.38832	1.04526	9.15588	5.38771	2.40391	0.42771	0.36947	0.29379	1.77727	1.33959	0.99853	8.51189	5.06128	2.35430
70770	0.31800	0.25833	0.15289	1.76068	1.39235	1.04943	9.15726	5.39032	2.40991	0.43138	0.37321	0.29706	1.77772	1.33976	0.99845	8.51375	5.05922	2.35141
70930	0.31711	0.25485	0.14968	1.75753	1.38944	1.04620	9.15933	5.38426	2.40447	0.42782	0.37052	0.29448	1.77957	1.33880	0.99956	8.51383	5.06050	2.35442
71100	0.31828	0.25828	0.15250	1.76046	1.39334	1.04962	9.17488	5.39468	2.40880	0.43211	0.37333	0.29782	1.77807	1.33666	0.99672	8.51277	5.05992	2.35252
71260	0.31391	0.25505	0.15087	1.75721	1.38898	1.04593	9.16653	5.38389	2.40420	0.42811	0.36997	0.29497	1.77758	1.33906	0.99823	8.51542	5.06201	2.35487
71430	0.31971	0.25842	0.15341	1.76282	1.39446	1.05006	9.16860	5.39289	2.40638	0.43159	0.37193	0.29704	1.77626	1.33724	0.99969	8.51172	5.05974	2.35244
71590	0.31822	0.25685	0.15370	1.76121	1.39409	1.05092	9.16232	5.39350	2.41123	0.43395	0.37603	0.30004	1.77970	1.34071	0.99724	8.51269	5.05816	2.35016
71750	0.31672	0.25716	0.15171	1.75606	1.38887	1.04580	9.16589	5.38746	2.40125	0.42824	0.37047	0.29532	1.77369	1.33732	0.99669	8.50810	5.06115	2.35278
71920	0.32066	0.26217	0.15516	1.77013	1.40301	1.06112	9.17758	5.40074	2.41698	0.44167	0.38235	0.30792	1.78308	1.34101	1.00051	8.52382	5.07013	2.35999	28.63	6.2	0.00	6.56	0.01268	0.01288	0.01642	0.00779	0.00580	0.00636	0.00466	0.01262	0.01679	0.00677	0.00698	0.00884	0.01486	0.01092	0.01193	0.00216	0.00615	0.00865
72080	0.31910	0.25729	0.15309	1.76419	1.39587	1.05257	9.18277	5.38827	2.41090	0.43058	0.37023	0.29470	1.77147	1.33410	0.99146	8.50061	5.04288	2.33432
72240	0.30639	0.24565	0.14154	1.73500	1.36588	1.02104	9.13570	5.36647	2.38907	0.39971	0.34162	0.26463	1.75485	1.31748	0.97486	8.44683	5.00063	2.29699
72400	0.29526	0.23453	0.13162	1.70353	1.33551	0.99298	9.14380	5.35794	2.37640	0.37838	0.32288	0.24616	1.74818	1.30496	0.96713	8.42616	4.97914	2.27905
