WetView ver 7.1	07-17-2018	20:39:52
AC9 Absorption and Attenuation Meter
00000266		; Serial number
2	; structure version number
Reserved
0.000000	0.000000		; Depth calibration
19200			; Baud rate
0.100000			; Path length (meters)
31			; number of temperature calibration bins
				12.59339	13.44920	14.48425	15.49668	16.50852	17.49564	18.50545	19.52458	20.50176	21.48889	22.47318	23.48707	24.50962	25.49370	26.49784	27.51372	28.50746	29.47237	30.47938	31.50214	32.50470	33.49235	34.50337	35.50914	36.50618	37.52058	38.51018	39.51308	40.49994	41.49866	42.47204	; temperature bins
a650	Blue	20.34952		-0.00383	-0.00415	-0.00430	-0.00391	-0.00363	-0.00317	-0.00269	-0.00237	-0.00179	-0.00130	-0.00099	-0.00071	-0.00015	0.00000	0.00004	-0.00001	0.00015	0.00036	0.00058	0.00101	0.00161	0.00132	0.00160	0.00169	0.00242	0.00273	0.00336	0.00365	0.00427	0.00566	0.00670		; offset and temperature correction info
a676	Green	20.51193		-0.00398	-0.00384	-0.00360	-0.00306	-0.00302	-0.00255	-0.00235	-0.00212	-0.00163	-0.00136	-0.00118	-0.00089	-0.00029	0.00000	0.00068	0.00082	0.00099	0.00137	0.00145	0.00212	0.00260	0.00252	0.00321	0.00354	0.00457	0.00535	0.00617	0.00648	0.00742	0.00887	0.01002		; offset and temperature correction info
a715	Brown	20.23230		-0.00421	-0.00394	-0.00391	-0.00291	-0.00264	-0.00192	-0.00204	-0.00179	-0.00188	-0.00239	-0.00180	-0.00187	-0.00099	0.00000	0.00084	0.00162	0.00188	0.00224	0.00321	0.00381	0.00466	0.00528	0.00588	0.00696	0.00859	0.01041	0.01148	0.01282	0.01333	0.01456	0.01617		; offset and temperature correction info
c510	Red	20.40042		-0.00261	-0.00247	-0.00258	-0.00225	-0.00203	-0.00197	-0.00199	-0.00203	-0.00154	-0.00103	-0.00069	-0.00019	-0.00007	0.00000	0.00011	-0.00021	-0.00042	-0.00056	-0.00040	0.00011	0.00036	0.00050	0.00077	0.00079	0.00050	0.00042	0.00043	0.00092	0.00147	0.00200	0.00232		; offset and temperature correction info
c532	Magenta	20.40760		-0.00248	-0.00265	-0.00278	-0.00279	-0.00296	-0.00292	-0.00238	-0.00206	-0.00129	-0.00096	-0.00092	-0.00052	-0.00009	0.00000	0.00007	-0.00049	-0.00136	-0.00107	-0.00079	-0.00065	-0.00074	-0.00105	-0.00152	-0.00192	-0.00236	-0.00269	-0.00252	-0.00233	-0.00172	-0.00128	-0.00067		; offset and temperature correction info
c555	Black	20.50654		-0.00053	-0.00063	-0.00106	-0.00094	-0.00068	-0.00055	-0.00053	-0.00039	-0.00028	-0.00025	-0.00011	-0.00035	-0.00007	0.00000	-0.00037	-0.00055	-0.00036	-0.00014	0.00019	0.00044	0.00032	0.00040	0.00050	0.00028	0.00014	0.00013	0.00030	0.00073	0.00117	0.00176	0.00241		; offset and temperature correction info
a412	LtBlue	17.15231		-0.01972	-0.01823	-0.01612	-0.01381	-0.01272	-0.01080	-0.00959	-0.00866	-0.00710	-0.00532	-0.00354	-0.00148	-0.00028	0.00000	0.00176	0.00297	0.00394	0.00440	0.00453	0.00487	0.00804	0.00856	0.01065	0.01248	0.01388	0.01439	0.01659	0.01881	0.02256	0.02450	0.02719		; offset and temperature correction info
a440	LtGreen	18.00171		-0.00729	-0.00642	-0.00581	-0.00502	-0.00426	-0.00349	-0.00244	-0.00218	-0.00179	-0.00101	-0.00046	-0.00006	0.00036	0.00000	0.00040	0.00045	0.00030	-0.00015	-0.00024	-0.00035	0.00012	-0.00013	-0.00033	-0.00089	-0.00142	-0.00189	-0.00231	-0.00205	-0.00140	-0.00140	-0.00146		; offset and temperature correction info
a488	Yellow	18.86491		-0.00113	-0.00102	-0.00106	-0.00064	-0.00027	-0.00020	-0.00030	-0.00037	-0.00047	-0.00059	-0.00052	-0.00012	0.00008	0.00000	0.00025	0.00012	-0.00013	-0.00043	-0.00065	-0.00076	-0.00025	0.00010	0.00090	0.00111	0.00113	0.00104	0.00073	0.00068	0.00120	0.00186	0.00258		; offset and temperature correction info
c650	Blue	20.46075		-0.00145	-0.00097	-0.00092	-0.00139	-0.00185	-0.00196	-0.00237	-0.00266	-0.00238	-0.00163	-0.00083	-0.00041	-0.00010	0.00000	0.00005	-0.00001	0.00015	0.00034	0.00029	0.00065	0.00101	0.00164	0.00126	0.00156	0.00175	0.00270	0.00287	0.00371	0.00407	0.00473	0.00534		; offset and temperature correction info
c676	Green	20.10118		-0.00170	-0.00144	-0.00149	-0.00177	-0.00188	-0.00194	-0.00198	-0.00196	-0.00177	-0.00156	-0.00140	-0.00091	-0.00033	0.00000	0.00050	0.00092	0.00110	0.00141	0.00167	0.00199	0.00216	0.00265	0.00269	0.00289	0.00315	0.00374	0.00367	0.00408	0.00486	0.00561	0.00646		; offset and temperature correction info
c715	Brown	19.91219		-0.01201	-0.01097	-0.00859	-0.00680	-0.00651	-0.00592	-0.00535	-0.00440	-0.00387	-0.00303	-0.00222	-0.00153	-0.00028	0.00000	0.00093	0.00149	0.00247	0.00322	0.00330	0.00427	0.00373	0.00464	0.00536	0.00551	0.00643	0.00733	0.00779	0.00884	0.00899	0.01021	0.01120		; offset and temperature correction info
a510	Red	19.21192		0.00201	0.00193	0.00158	0.00098	0.00089	0.00049	0.00011	-0.00016	-0.00016	-0.00005	0.00028	0.00025	0.00006	0.00000	0.00035	-0.00022	-0.00023	-0.00080	-0.00144	-0.00154	-0.00153	-0.00204	-0.00220	-0.00219	-0.00190	-0.00128	-0.00069	-0.00018	0.00068	0.00152	0.00241		; offset and temperature correction info
a532	Magenta	19.41084		-0.00097	-0.00072	-0.00060	-0.00081	-0.00062	-0.00071	-0.00040	0.00020	0.00028	0.00043	0.00000	-0.00035	0.00007	0.00000	-0.00011	-0.00059	-0.00080	-0.00098	-0.00137	-0.00162	-0.00163	-0.00130	-0.00073	-0.00018	0.00090	0.00185	0.00175	0.00247	0.00291	0.00327	0.00349		; offset and temperature correction info
a555	Black	19.69776		0.00171	0.00183	0.00183	0.00186	0.00191	0.00170	0.00115	0.00131	0.00097	0.00073	0.00060	0.00013	0.00015	0.00000	0.00014	-0.00029	-0.00066	-0.00082	-0.00116	-0.00139	-0.00134	-0.00167	-0.00119	-0.00093	-0.00048	0.00053	0.00111	0.00095	0.00178	0.00206	0.00273		; offset and temperature correction info
c412	LtBlue	19.91180		-0.02051	-0.01853	-0.01589	-0.01311	-0.01059	-0.00877	-0.00705	-0.00581	-0.00413	-0.00231	-0.00098	-0.00066	-0.00011	0.00000	-0.00013	-0.00085	-0.00170	-0.00170	-0.00302	-0.00330	-0.00429	-0.00551	-0.00626	-0.00775	-0.00978	-0.01181	-0.01113	-0.01108	-0.01116	-0.01192	-0.01291		; offset and temperature correction info
c440	LtGreen	20.06241		-0.01064	-0.00992	-0.00892	-0.00766	-0.00639	-0.00531	-0.00478	-0.00384	-0.00287	-0.00187	-0.00102	-0.00063	-0.00023	0.00000	-0.00007	-0.00053	-0.00090	-0.00119	-0.00169	-0.00197	-0.00226	-0.00257	-0.00260	-0.00289	-0.00394	-0.00470	-0.00481	-0.00493	-0.00520	-0.00580	-0.00620		; offset and temperature correction info
c488	Yellow	20.35984		-0.01125	-0.01082	-0.00966	-0.00833	-0.00726	-0.00661	-0.00579	-0.00500	-0.00389	-0.00278	-0.00167	-0.00113	-0.00041	0.00000	0.00055	0.00121	0.00187	0.00226	0.00222	0.00251	0.00281	0.00359	0.00414	0.00427	0.00401	0.00404	0.00486	0.00563	0.00638	0.00684	0.00718		; offset and temperature correction info
0.003500	0.004000	0.015000	0.020000	0.015000	0.020000	2500.000000	2000.000000	1000.000000	; maxANoise	maxCNoise	maxADifference	maxCDifference	minACounts	minCCounts	minRCounts	maxTempSdev	maxDepthSdev
0			; auxilliary capabilities
1			; acquisition binsize
0	0.19696	0.17180	0.09796	1.08432	0.94030	0.74554	4.61044	2.69883	1.26744	0.41765	0.38742	0.33728	0.95071	0.73937	0.55904	4.12314	2.54021	1.37031	27.35	6.0	0.00	7.40	0.01276	0.01295	0.01657	0.00796	0.00593	0.00649	0.00471	0.01273	0.01692	0.00689	0.00710	0.00902	0.01496	0.01100	0.01202	0.00222	0.00631	0.00886
160	0.19583	0.17044	0.09849	1.08359	0.94099	0.74662	4.63005	2.70091	1.27163	0.41898	0.38861	0.33882	0.95272	0.74170	0.55917	4.12475	2.54445	1.37310
330	0.19577	0.16971	0.09698	1.08330	0.93911	0.74476	4.61500	2.70154	1.26933	0.41720	0.38756	0.33743	0.95148	0.73794	0.55729	4.12016	2.54062	1.36997
490	0.19306	0.16943	0.09383	1.08020	0.93795	0.74292	4.61558	2.69299	1.26549	0.41457	0.38569	0.33585	0.95355	0.74256	0.56376	4.12895	2.54686	1.37741
650	0.19823	0.17263	0.09836	1.08692	0.94283	0.74816	4.62549	2.70242	1.27185	0.41937	0.38946	0.33973	0.95511	0.74045	0.56064	4.12591	2.54463	1.37368
820	0.19615	0.17371	0.09968	1.08585	0.94300	0.74820	4.61478	2.70415	1.27100	0.41964	0.38983	0.34034	0.95425	0.74092	0.56109	4.12458	2.54535	1.37438
980	0.19577	0.17148	0.09661	1.08437	0.94034	0.74689	4.61959	2.70072	1.26846	0.41775	0.38804	0.33857	0.95281	0.73695	0.55748	4.12204	2.54134	1.37206
1140	0.19585	0.17207	0.09842	1.08533	0.94166	0.74850	4.62549	2.70025	1.26985	0.41997	0.39012	0.33985	0.95551	0.73918	0.56024	4.12524	2.54408	1.37432
1310	0.19576	0.17178	0.09765	1.08423	0.94019	0.74620	4.61626	2.69868	1.26777	0.41863	0.38934	0.33867	0.95085	0.73642	0.55754	4.12187	2.54061	1.37071
1470	0.19566	0.17369	0.09818	1.08549	0.94240	0.74794	4.61684	2.70221	1.26982	0.42063	0.38983	0.33988	0.95198	0.74439	0.56035	4.12563	2.54383	1.37445
1630	0.19368	0.17057	0.09896	1.08299	0.93955	0.74604	4.61308	2.69927	1.26753	0.41844	0.38628	0.33772	0.95100	0.73724	0.55381	4.12257	2.54033	1.37072	27.35	6.0	0.00	7.29	0.01275	0.01295	0.01657	0.00796	0.00593	0.00649	0.00471	0.01273	0.01692	0.00689	0.00710	0.00902	0.01496	0.01100	0.01202	0.00222	0.00631	0.00886
1800	0.19576	0.17209	0.10015	1.08527	0.94229	0.74916	4.62288	2.69882	1.27075	0.42115	0.38888	0.34022	0.95249	0.74157	0.55817	4.12528	2.54475	1.37423
1960	0.19457	0.16899	0.09693	1.08452	0.94103	0.74671	4.61120	2.69946	1.26873	0.41856	0.38758	0.33805	0.94991	0.73739	0.55652	4.12163	2.54075	1.37186
2120	0.19692	0.17273	0.09948	1.08689	0.94356	0.75056	4.61898	2.70257	1.27260	0.42188	0.39019	0.34059	0.95526	0.74004	0.56351	4.12633	2.54493	1.37471
2290	0.19439	0.17046	0.09861	1.08592	0.94166	0.74786	4.61966	2.69746	1.26807	0.41951	0.38860	0.33782	0.95433	0.74265	0.56180	4.12589	2.54612	1.37757
2450	0.19801	0.17313	0.10034	1.08876	0.94547	0.75157	4.61818	2.70586	1.27397	0.42342	0.39212	0.34131	0.95414	0.74128	0.56158	4.12810	2.54679	1.37638
2610	0.19468	0.17285	0.09962	1.08627	0.94281	0.74803	4.62013	2.70171	1.26951	0.41966	0.38896	0.33908	0.95316	0.73978	0.56111	4.12555	2.54473	1.37524
2770	0.19523	0.17061	0.09847	1.08631	0.94283	0.74877	4.62404	2.70088	1.26958	0.41932	0.38867	0.33829	0.95165	0.73786	0.55817	4.12539	2.54257	1.37269
2940	0.19299	0.16823	0.09629	1.08273	0.94052	0.74604	4.62227	2.69549	1.26772	0.41817	0.38748	0.33824	0.94965	0.73576	0.55653	4.12107	2.53972	1.37101
3100	0.19182	0.16943	0.09439	1.08169	0.93928	0.74449	4.61955	2.69343	1.26428	0.41695	0.38605	0.33549	0.95200	0.74131	0.56167	4.12605	2.54652	1.37691
3270	0.19495	0.17122	0.09855	1.08785	0.94330	0.74962	4.61722	2.69976	1.26926	0.42134	0.39036	0.33935	0.95394	0.73958	0.55872	4.12524	2.54342	1.37498	27.35	6.1	0.00	7.30	0.01275	0.01295	0.01657	0.00796	0.00593	0.00649	0.00471	0.01272	0.01692	0.00689	0.00710	0.00901	0.01496	0.01100	0.01202	0.00222	0.00631	0.00886
3430	0.19515	0.17044	0.09697	1.08488	0.94152	0.74785	4.62019	2.69552	1.26965	0.41902	0.38816	0.33867	0.94979	0.73897	0.55842	4.12452	2.54273	1.37282
3590	0.19700	0.17066	0.09768	1.08439	0.94049	0.74672	4.61183	2.69992	1.26689	0.41950	0.38802	0.33737	0.94989	0.73665	0.55558	4.12309	2.54015	1.37136
3760	0.19495	0.17095	0.09638	1.08539	0.94224	0.74899	4.61494	2.69632	1.26947	0.42078	0.38878	0.33962	0.95190	0.73733	0.55821	4.12867	2.54306	1.37408
3920	0.19470	0.17060	0.09627	1.08504	0.94093	0.74880	4.61505	2.69512	1.26824	0.42035	0.38798	0.33891	0.95111	0.73646	0.55616	4.12497	2.54088	1.37228
4080	0.19376	0.17311	0.09958	1.08613	0.94241	0.74948	4.61914	2.69665	1.26966	0.42143	0.38904	0.34004	0.95129	0.74111	0.56035	4.12458	2.54345	1.37523
4250	0.19398	0.16833	0.09737	1.08494	0.94252	0.74868	4.61158	2.69976	1.26880	0.41920	0.38821	0.33889	0.95035	0.73912	0.55765	4.12358	2.54193	1.37322
4410	0.19586	0.17292	0.09872	1.08744	0.94521	0.75184	4.61321	2.70265	1.27244	0.42404	0.39157	0.34173	0.95381	0.74123	0.56096	4.13056	2.54536	1.37741
4570	0.19747	0.17024	0.09899	1.08612	0.94271	0.74848	4.60291	2.69974	1.26798	0.42022	0.38895	0.33910	0.95394	0.74213	0.55995	4.12856	2.54421	1.37628
4740	0.19449	0.17136	0.09845	1.08572	0.94126	0.74765	4.60847	2.69730	1.26722	0.41995	0.38840	0.33925	0.95162	0.74036	0.55706	4.12447	2.54306	1.37288
4900	0.19349	0.16790	0.09615	1.08277	0.93885	0.74478	4.62107	2.69272	1.26579	0.41846	0.38734	0.33770	0.95101	0.73900	0.55802	4.12534	2.54348	1.37421	27.29	6.1	0.00	7.29	0.01275	0.01295	0.01657	0.00796	0.00593	0.00649	0.00471	0.01272	0.01692	0.00689	0.00710	0.00901	0.01496	0.01100	0.01202	0.00222	0.00631	0.00886
5070	0.19437	0.17137	0.09856	1.08579	0.94195	0.74766	4.61706	2.69729	1.26735	0.42123	0.38926	0.33988	0.95109	0.73912	0.55804	4.12716	2.54258	1.37481
5230	0.19424	0.17180	0.09625	1.08448	0.93972	0.74628	4.60495	2.69439	1.26367	0.41800	0.38618	0.33655	0.95112	0.74102	0.56118	4.12528	2.54542	1.37705
5390	0.19541	0.17243	0.09786	1.08668	0.94240	0.74834	4.62107	2.69693	1.26860	0.42038	0.38922	0.34035	0.95141	0.73884	0.55786	4.12451	2.54262	1.37337
5560	0.19775	0.17427	0.10001	1.08695	0.94367	0.75024	4.61669	2.69804	1.27022	0.42256	0.39226	0.34019	0.95329	0.74002	0.55687	4.12644	2.54524	1.37497
5720	0.19549	0.17114	0.09666	1.08556	0.94063	0.74686	4.61040	2.69655	1.26701	0.42032	0.38850	0.33947	0.95258	0.74087	0.55783	4.12418	2.54370	1.37490
5890	0.19519	0.16902	0.09954	1.08570	0.94163	0.74836	4.62777	2.69934	1.26779	0.42017	0.38905	0.33963	0.95043	0.73749	0.55927	4.12678	2.54267	1.37487
6050	0.19450	0.17099	0.09678	1.08603	0.94174	0.74809	4.62914	2.69458	1.26732	0.42110	0.39110	0.34124	0.95360	0.73997	0.56031	4.12661	2.54316	1.37510
6210	0.19476	0.17106	0.09698	1.08518	0.94057	0.74724	4.62169	2.69681	1.26622	0.42029	0.38867	0.33941	0.95305	0.73975	0.55934	4.12711	2.54563	1.37658
6380	0.19863	0.17508	0.10030	1.08786	0.94387	0.74990	4.61304	2.69989	1.26902	0.42260	0.39094	0.34169	0.95418	0.74022	0.55887	4.12667	2.54411	1.37449
6540	0.19513	0.17002	0.09896	1.08381	0.93659	0.74563	4.61775	2.69266	1.26592	0.41955	0.38830	0.33807	0.95304	0.74197	0.55933	4.12270	2.54484	1.37685	27.35	6.1	0.00	7.32	0.01275	0.01295	0.01657	0.00796	0.00593	0.00649	0.00471	0.01272	0.01692	0.00689	0.00710	0.00901	0.01496	0.01100	0.01202	0.00222	0.00631	0.00886
6710	0.19765	0.17322	0.09972	1.08789	0.94202	0.75099	4.62857	2.69816	1.27060	0.42143	0.39070	0.34172	0.95147	0.73969	0.55726	4.12270	2.54231	1.37420
6870	0.19620	0.17185	0.10033	1.08501	0.94142	0.74964	4.62382	2.69784	1.27063	0.42163	0.39063	0.34156	0.95260	0.74097	0.56056	4.12480	2.54276	1.37431
7030	0.19484	0.16886	0.09797	1.08422	0.93942	0.74683	4.62039	2.69717	1.26642	0.41974	0.38907	0.33921	0.94755	0.73835	0.55644	4.11921	2.53968	1.37038
7200	0.19648	0.17184	0.09841	1.08661	0.94183	0.74919	4.61995	2.69763	1.27175	0.42328	0.39141	0.34240	0.95492	0.74012	0.56179	4.12524	2.54400	1.37537
7360	0.19524	0.16874	0.09736	1.08469	0.93922	0.74705	4.60787	2.69474	1.26448	0.42020	0.39019	0.34043	0.94939	0.73722	0.55786	4.12142	2.54014	1.37141
7520	0.19683	0.16965	0.09832	1.08569	0.94127	0.75020	4.62075	2.69842	1.27080	0.42254	0.39102	0.34175	0.95231	0.74088	0.55865	4.12303	2.54340	1.37419
7690	0.19524	0.16976	0.09835	1.08511	0.93962	0.74882	4.62209	2.69796	1.26874	0.42044	0.39061	0.34040	0.95170	0.74027	0.55669	4.12236	2.54048	1.37199
7850	0.19683	0.17034	0.10069	1.08664	0.94252	0.75072	4.61894	2.69882	1.26928	0.42201	0.39178	0.34291	0.95346	0.74041	0.55868	4.12508	2.54379	1.37496
8010	0.19726	0.16901	0.09806	1.08496	0.93975	0.74773	4.61163	2.69718	1.26610	0.41990	0.38948	0.34043	0.94971	0.73775	0.55552	4.12181	2.53948	1.37200
8180	0.19628	0.17194	0.10037	1.08784	0.94290	0.75072	4.61128	2.70031	1.27138	0.42261	0.39276	0.34225	0.95176	0.74160	0.56074	4.12743	2.54620	1.37651	27.41	6.1	0.00	7.29	0.01275	0.01295	0.01657	0.00796	0.00593	0.00649	0.00471	0.01272	0.01692	0.00689	0.00710	0.00901	0.01496	0.01100	0.01201	0.00222	0.00631	0.00886
8340	0.19600	0.17162	0.09770	1.08600	0.93998	0.74717	4.61713	2.69615	1.26884	0.42070	0.38989	0.33982	0.94881	0.73745	0.55627	4.12395	2.54125	1.37210
8500	0.19605	0.17189	0.09871	1.08693	0.94261	0.75008	4.61948	2.69863	1.27166	0.42287	0.39228	0.34275	0.95219	0.74001	0.56001	4.12367	2.54451	1.37553
8670	0.19259	0.16918	0.09672	1.08542	0.94059	0.74775	4.60940	2.69563	1.26701	0.41942	0.38914	0.33995	0.94797	0.73436	0.55487	4.12301	2.54012	1.37187
8830	0.19331	0.16779	0.09824	1.08519	0.94034	0.74864	4.62090	2.69744	1.26890	0.42093	0.39160	0.34131	0.95201	0.73977	0.55773	4.12566	2.54291	1.37409
8990	0.19436	0.16929	0.09641	1.08492	0.93930	0.74807	4.61670	2.69570	1.26770	0.41956	0.38957	0.33955	0.94956	0.73853	0.55565	4.12356	2.54133	1.37266
9160	0.19270	0.16616	0.09500	1.08248	0.93684	0.74494	4.60708	2.69480	1.26295	0.41777	0.38844	0.33795	0.95167	0.73968	0.56158	4.12599	2.54597	1.37801
9320	0.19762	0.17001	0.09722	1.08708	0.94182	0.74896	4.61702	2.69589	1.26822	0.42159	0.39078	0.34113	0.95293	0.73846	0.55801	4.12754	2.54186	1.37396
9480	0.19253	0.17006	0.09909	1.08713	0.94166	0.74950	4.61724	2.69640	1.27013	0.42214	0.39102	0.34131	0.95033	0.73838	0.55813	4.12677	2.54327	1.37415
9650	0.19497	0.16821	0.09709	1.08470	0.93996	0.74843	4.61124	2.69710	1.26508	0.42065	0.38983	0.34023	0.95335	0.74258	0.55990	4.12993	2.54815	1.37852
9810	0.19727	0.17289	0.10065	1.08920	0.94460	0.75235	4.62315	2.69711	1.27198	0.42377	0.39318	0.34417	0.95395	0.74187	0.55820	4.13122	2.54647	1.37671	27.35	6.2	0.00	7.32	0.01275	0.01295	0.01657	0.00796	0.00593	0.00649	0.00471	0.01272	0.01692	0.00689	0.00710	0.00901	0.01496	0.01100	0.01201	0.00222	0.00631	0.00886
9970	0.19592	0.17001	0.09948	1.08648	0.94144	0.74985	4.60938	2.69974	1.26819	0.42175	0.38996	0.34188	0.95049	0.73753	0.55591	4.12723	2.54267	1.37317
10140	0.19422	0.16814	0.09619	1.08392	0.93908	0.74734	4.61256	2.69475	1.26664	0.41959	0.38923	0.34035	0.95003	0.73460	0.55683	4.12552	2.54138	1.37283
10300	0.19478	0.16664	0.09450	1.08288	0.93768	0.74628	4.61097	2.69356	1.26603	0.41868	0.38730	0.33865	0.95181	0.73683	0.55953	4.12756	2.54501	1.37578
10460	0.19659	0.17211	0.09818	1.08744	0.94209	0.74945	4.61270	2.69838	1.26812	0.42169	0.38996	0.34126	0.94904	0.73937	0.55684	4.12751	2.54288	1.37431
10630	0.19688	0.16833	0.09617	1.08409	0.93867	0.74665	4.61943	2.69357	1.26388	0.41981	0.38893	0.33926	0.95266	0.74036	0.56172	4.13144	2.54611	1.37767
10790	0.19757	0.17126	0.10095	1.08899	0.94218	0.75077	4.61393	2.69816	1.26903	0.42271	0.39240	0.34232	0.95134	0.73901	0.55861	4.12529	2.54395	1.37572
10950	0.19806	0.16967	0.09868	1.08663	0.94146	0.74912	4.60865	2.69893	1.26908	0.42254	0.39175	0.34233	0.95022	0.73815	0.55594	4.12734	2.54336	1.37361
11120	0.19329	0.16746	0.09610	1.08494	0.94017	0.74735	4.61755	2.69379	1.26818	0.42051	0.39004	0.34054	0.94683	0.73598	0.55580	4.11949	2.54269	1.37287
11280	0.19474	0.16732	0.09519	1.08244	0.93740	0.74538	4.60905	2.69448	1.26297	0.41881	0.38724	0.33841	0.95119	0.73936	0.55908	4.12884	2.54514	1.37736
11450	0.19777	0.17052	0.09666	1.08693	0.94151	0.74890	4.62283	2.69682	1.26712	0.42051	0.39017	0.34097	0.94992	0.73892	0.55510	4.12405	2.54147	1.37278	27.41	6.1	0.00	7.38	0.01275	0.01295	0.01656	0.00796	0.00593	0.00649	0.00471	0.01272	0.01692	0.00689	0.00709	0.00901	0.01496	0.01100	0.01201	0.00222	0.00631	0.00886
11610	0.19435	0.17039	0.09624	1.08520	0.94089	0.74870	4.60995	2.69810	1.26860	0.42163	0.39057	0.34182	0.95153	0.73776	0.55893	4.12654	2.54154	1.37317
11770	0.19418	0.17095	0.09800	1.08513	0.94116	0.74908	4.60779	2.69774	1.26764	0.42187	0.38998	0.34095	0.95122	0.73709	0.55516	4.12748	2.54136	1.37282
11940	0.19719	0.17081	0.09865	1.08843	0.94415	0.75223	4.60284	2.70062	1.27033	0.42469	0.39422	0.34377	0.95149	0.74019	0.55885	4.13014	2.54619	1.37754
12100	0.19506	0.16992	0.09624	1.08723	0.94222	0.74959	4.60583	2.69563	1.26842	0.42154	0.39148	0.34145	0.94967	0.73772	0.55709	4.12720	2.54446	1.37603
12260	0.19508	0.16940	0.09624	1.08505	0.94060	0.74781	4.61682	2.69316	1.26705	0.42017	0.38932	0.34054	0.94877	0.73708	0.55723	4.12482	2.54108	1.37300
12430	0.19332	0.16871	0.09579	1.08388	0.94008	0.74810	4.60840	2.69354	1.26701	0.42065	0.39016	0.34072	0.94811	0.73592	0.55267	4.12267	2.53902	1.37139
12590	0.19427	0.17058	0.09791	1.08762	0.94475	0.75261	4.61140	2.70060	1.27116	0.42443	0.39373	0.34435	0.95404	0.74077	0.55793	4.13080	2.54667	1.37818
12750	0.19539	0.16802	0.09839	1.08654	0.94205	0.74944	4.61777	2.69665	1.26755	0.42171	0.39095	0.34137	0.95242	0.73920	0.55765	4.12792	2.54349	1.37601
12920	0.19403	0.16979	0.09687	1.08466	0.94047	0.74819	4.61368	2.69278	1.26700	0.42089	0.38953	0.34057	0.94794	0.73589	0.55575	4.12250	2.54103	1.37376
13080	0.19412	0.16818	0.09629	1.08496	0.94024	0.74852	4.60571	2.69957	1.26676	0.42165	0.39087	0.34071	0.94808	0.73565	0.55481	4.12347	2.54095	1.37286	27.41	6.0	0.00	7.33	0.01275	0.01295	0.01656	0.00796	0.00593	0.00649	0.00471	0.01272	0.01692	0.00689	0.00709	0.00901	0.01496	0.01100	0.01201	0.00222	0.00631	0.00886
13240	0.19566	0.17058	0.09881	1.08699	0.94350	0.75081	4.61207	2.70082	1.26896	0.42356	0.39331	0.34371	0.95301	0.74007	0.55820	4.12779	2.54439	1.37628
13410	0.19438	0.17133	0.09496	1.08578	0.94028	0.74805	4.60867	2.69504	1.26750	0.42052	0.38992	0.34013	0.94841	0.74201	0.56033	4.12763	2.54614	1.37837
13570	0.19727	0.17200	0.09798	1.08909	0.94432	0.75173	4.61634	2.70156	1.26943	0.42472	0.39298	0.34401	0.95117	0.74023	0.55886	4.12962	2.54567	1.37689
13730	0.19526	0.16761	0.09600	1.08627	0.94017	0.74870	4.61370	2.69266	1.26744	0.42130	0.38915	0.34129	0.95189	0.73789	0.55947	4.12508	2.54362	1.37566
13900	0.19489	0.16756	0.09582	1.08681	0.94127	0.74881	4.60495	2.69349	1.26674	0.42159	0.38972	0.34158	0.94873	0.73680	0.55607	4.12513	2.54152	1.37240
14060	0.19240	0.16919	0.09452	1.08392	0.93929	0.74763	4.60686	2.69425	1.26492	0.42094	0.38938	0.34059	0.94612	0.73450	0.55631	4.12508	2.54031	1.37137
14220	0.19276	0.16890	0.09747	1.08337	0.94043	0.74940	4.61445	2.69461	1.26915	0.42307	0.39213	0.34232	0.95140	0.73862	0.55915	4.12508	2.54308	1.37455
14390	0.19469	0.16726	0.09645	1.08456	0.94046	0.74773	4.60621	2.69159	1.26870	0.42171	0.39117	0.34182	0.94783	0.73711	0.55557	4.12259	2.54182	1.37350
14550	0.19374	0.16828	0.09716	1.08471	0.94126	0.75033	4.60563	2.69604	1.26789	0.42327	0.39216	0.34294	0.95191	0.73691	0.55654	4.12757	2.54467	1.37527
14710	0.19484	0.16927	0.09651	1.08578	0.94093	0.74903	4.62299	2.69452	1.26499	0.42144	0.39042	0.34122	0.94989	0.73746	0.55505	4.12502	2.54085	1.37323	27.35	6.0	0.00	7.33	0.01275	0.01295	0.01656	0.00796	0.00593	0.00649	0.00471	0.01272	0.01691	0.00689	0.00709	0.00901	0.01496	0.01100	0.01201	0.00222	0.00631	0.00885
14880	0.19625	0.17108	0.09956	1.08756	0.94391	0.75213	4.62220	2.69865	1.26905	0.42573	0.39377	0.34464	0.95280	0.74099	0.55966	4.12856	2.54499	1.37712
15040	0.19790	0.16772	0.09707	1.08592	0.94209	0.74854	4.61724	2.69346	1.26667	0.42143	0.39029	0.34162	0.94955	0.73625	0.55951	4.12723	2.54407	1.37614
15200	0.19471	0.16681	0.09651	1.08604	0.94101	0.74853	4.60838	2.69443	1.26398	0.42146	0.38964	0.34199	0.94916	0.73635	0.55500	4.12530	2.54199	1.37351
15370	0.19189	0.16726	0.09502	1.08350	0.93902	0.74654	4.61268	2.69090	1.26460	0.41976	0.38933	0.33907	0.95322	0.73995	0.55961	4.12690	2.54452	1.37729
15530	0.19562	0.16978	0.09765	1.08660	0.94261	0.74933	4.61055	2.69598	1.26628	0.42250	0.39063	0.34216	0.95195	0.73727	0.55689	4.12580	2.54255	1.37448
15700	0.19598	0.17132	0.09718	1.08671	0.94338	0.75034	4.61102	2.69633	1.26801	0.42382	0.39192	0.34306	0.94902	0.73679	0.55823	4.12375	2.54327	1.37569
15860	0.19653	0.16902	0.09687	1.08651	0.94226	0.74912	4.61152	2.69734	1.26509	0.42257	0.39079	0.34204	0.94887	0.73537	0.55605	4.12342	2.54167	1.37350
16020	0.19816	0.17236	0.09816	1.08760	0.94493	0.75215	4.62332	2.69964	1.27067	0.42480	0.39355	0.34434	0.95207	0.73939	0.56024	4.12585	2.54601	1.37747
16190	0.19505	0.17047	0.09708	1.08693	0.94126	0.74945	4.60661	2.69468	1.26682	0.42234	0.39008	0.34180	0.95077	0.73799	0.55929	4.12696	2.54396	1.37715
16350	0.19528	0.17078	0.09595	1.08606	0.94222	0.74949	4.60733	2.69291	1.26495	0.42249	0.39077	0.34198	0.94862	0.73469	0.55675	4.12316	2.54132	1.37426	27.41	6.2	0.00	7.26	0.01275	0.01295	0.01656	0.00796	0.00593	0.00649	0.00471	0.01272	0.01692	0.00689	0.00709	0.00901	0.01496	0.01100	0.01201	0.00222	0.00631	0.00885
16520	0.19149	0.16688	0.09469	1.08449	0.93905	0.74646	4.61221	2.69146	1.26468	0.41971	0.38835	0.33968	0.95095	0.73908	0.55756	4.12648	2.54409	1.37733
16680	0.19610	0.16984	0.09861	1.08746	0.94267	0.74984	4.61185	2.69495	1.26616	0.42285	0.39130	0.34193	0.95189	0.73755	0.55499	4.12371	2.54199	1.37421
16840	0.19647	0.17004	0.09680	1.08713	0.94327	0.75175	4.60827	2.69890	1.26844	0.42491	0.39294	0.34359	0.95245	0.73966	0.55856	4.12565	2.54421	1.37646
17010	0.19484	0.16846	0.09635	1.08511	0.94138	0.74959	4.61341	2.69186	1.26490	0.42180	0.39056	0.34112	0.95381	0.74198	0.56004	4.12980	2.54752	1.38044
17170	0.19673	0.17082	0.10066	1.09096	0.94570	0.75478	4.61561	2.70178	1.27232	0.42536	0.39369	0.34593	0.95281	0.74307	0.55896	4.12831	2.54704	1.37867
17330	0.19489	0.16972	0.09652	1.08876	0.94327	0.75181	4.61572	2.69781	1.26752	0.42447	0.39173	0.34325	0.94938	0.73814	0.55546	4.12847	2.54316	1.37618
17500	0.19515	0.16633	0.09679	1.08528	0.94189	0.74945	4.60444	2.69105	1.26566	0.42172	0.39103	0.34197	0.94708	0.73467	0.55332	4.12432	2.54090	1.37390
17660	0.19330	0.16702	0.09457	1.08376	0.94064	0.74775	4.60596	2.69180	1.26439	0.42065	0.39009	0.34154	0.95007	0.73756	0.55796	4.12548	2.54521	1.37766
17820	0.19552	0.17168	0.09702	1.08791	0.94347	0.75112	4.60686	2.69737	1.26743	0.42366	0.39224	0.34304	0.94815	0.73520	0.55473	4.12842	2.54273	1.37518
17990	0.19249	0.16808	0.09648	1.08442	0.94116	0.74763	4.61704	2.69398	1.26360	0.42194	0.39004	0.34052	0.95080	0.73938	0.55791	4.12617	2.54520	1.37770	27.41	6.1	0.00	6.57	0.01275	0.01295	0.01656	0.00796	0.00593	0.00649	0.00471	0.01272	0.01692	0.00689	0.00709	0.00901	0.01496	0.01100	0.01201	0.00222	0.00631	0.00885
18150	0.19644	0.17071	0.09766	1.08788	0.94402	0.75171	4.60855	2.69626	1.26811	0.42378	0.39276	0.34346	0.94733	0.73706	0.55762	4.12495	2.54353	1.37546
18310	0.19198	0.16535	0.09476	1.08370	0.93997	0.74808	4.61086	2.69099	1.26269	0.42140	0.39021	0.33950	0.94840	0.73673	0.55826	4.12756	2.54625	1.37794
18480	0.19635	0.16947	0.09731	1.08683	0.94341	0.75087	4.60865	2.69768	1.26723	0.42435	0.39234	0.34228	0.94791	0.73946	0.55818	4.12540	2.54373	1.37446
18640	0.19260	0.16710	0.09266	1.08295	0.93962	0.74706	4.60529	2.69230	1.26173	0.42143	0.39017	0.33899	0.95149	0.73955	0.55952	4.12612	2.54589	1.37926
18810	0.19668	0.17151	0.09847	1.08804	0.94373	0.75052	4.61303	2.69825	1.26564	0.42464	0.39387	0.34398	0.95169	0.73955	0.55601	4.12562	2.54284	1.37483
18970	0.19554	0.17113	0.09841	1.08728	0.94474	0.75278	4.61046	2.70010	1.26801	0.42680	0.39493	0.34548	0.95108	0.74051	0.56203	4.12734	2.54569	1.37690
19130	0.19556	0.16759	0.09716	1.08602	0.94199	0.74888	4.61274	2.69454	1.26573	0.42218	0.39141	0.34204	0.94773	0.73557	0.55543	4.12412	2.54179	1.37291
19300	0.19533	0.17245	0.10011	1.08804	0.94633	0.75394	4.62211	2.70374	1.27097	0.42718	0.39569	0.34627	0.95346	0.74297	0.55778	4.12811	2.54691	1.37889
19460	0.19586	0.17018	0.09633	1.08755	0.94403	0.75064	4.60782	2.69622	1.26640	0.42394	0.39242	0.34351	0.94730	0.73941	0.55512	4.12473	2.54315	1.37519
19620	0.19505	0.17129	0.09852	1.08766	0.94481	0.75232	4.62164	2.69827	1.26891	0.42598	0.39483	0.34483	0.94883	0.74194	0.55656	4.12677	2.54561	1.37707	27.41	6.1	0.00	7.30	0.01275	0.01295	0.01656	0.00796	0.00593	0.00649	0.00471	0.01272	0.01691	0.00689	0.00709	0.00901	0.01496	0.01100	0.01201	0.00222	0.00631	0.00885
19790	0.19373	0.16912	0.09655	1.08591	0.94138	0.74914	4.61990	2.69383	1.26582	0.42252	0.39167	0.34196	0.94747	0.73579	0.55410	4.12218	2.54104	1.37218
19950	0.19377	0.16968	0.09703	1.08635	0.94333	0.75110	4.62135	2.69645	1.26672	0.42486	0.39508	0.34397	0.95006	0.73862	0.55631	4.12489	2.54345	1.37617
20110	0.19336	0.16885	0.09668	1.08541	0.94162	0.74862	4.61755	2.69359	1.26438	0.42332	0.39239	0.34293	0.94808	0.73480	0.55417	4.12611	2.54101	1.37228
20280	0.19341	0.16609	0.09449	1.08230	0.93947	0.74719	4.61230	2.69241	1.26274	0.42112	0.38968	0.34059	0.95117	0.73737	0.55769	4.12877	2.54668	1.37824
20440	0.19630	0.17114	0.09844	1.08731	0.94301	0.75105	4.61429	2.69527	1.26586	0.42329	0.39332	0.34354	0.94867	0.73799	0.55437	4.12340	2.54309	1.37537
20600	0.19371	0.16660	0.09289	1.08327	0.93955	0.74685	4.59868	2.69078	1.26234	0.42116	0.39101	0.34113	0.94892	0.73810	0.55776	4.12639	2.54382	1.37645
20770	0.19430	0.16878	0.09660	1.08671	0.94195	0.75009	4.61755	2.69683	1.26657	0.42479	0.39404	0.34372	0.95348	0.74060	0.56034	4.13037	2.54812	1.38012
20930	0.19711	0.17299	0.10003	1.09072	0.94780	0.75403	4.60569	2.69977	1.27271	0.42670	0.39586	0.34641	0.95411	0.74360	0.55993	4.13181	2.54699	1.37890
21090	0.19607	0.17032	0.09971	1.08887	0.94551	0.75281	4.60865	2.69933	1.26883	0.42556	0.39474	0.34527	0.94906	0.73888	0.55970	4.12910	2.54553	1.37638
21260	0.19321	0.16858	0.09597	1.08622	0.94382	0.74954	4.60847	2.69186	1.26528	0.42252	0.39120	0.34278	0.94593	0.73421	0.55457	4.12065	2.54155	1.37333	27.41	6.3	0.00	7.70	0.01275	0.01295	0.01656	0.00796	0.00593	0.00649	0.00471	0.01272	0.01691	0.00689	0.00709	0.00901	0.01496	0.01100	0.01201	0.00222	0.00631	0.00885
21420	0.19199	0.16669	0.09362	1.08414	0.94093	0.74823	4.61238	2.69129	1.26381	0.42210	0.38972	0.34085	0.95023	0.73971	0.56081	4.12834	2.54665	1.37873
21580	0.19634	0.17244	0.09731	1.08970	0.94586	0.75275	4.61889	2.69694	1.26966	0.42669	0.39439	0.34536	0.95036	0.74047	0.55794	4.12840	2.54462	1.37678
21750	0.19286	0.16939	0.09614	1.08608	0.94285	0.75077	4.61368	2.69483	1.26681	0.42277	0.39176	0.34246	0.95035	0.74048	0.55919	4.12629	2.54621	1.37770
21910	0.19557	0.17071	0.09790	1.08887	0.94518	0.75270	4.62710	2.69774	1.26954	0.42546	0.39413	0.34447	0.94873	0.73812	0.55772	4.12690	2.54357	1.37570
22070	0.19133	0.16900	0.09534	1.08622	0.94163	0.74953	4.62265	2.69372	1.26383	0.42230	0.39153	0.34147	0.94818	0.73808	0.55544	4.12507	2.54352	1.37627
22240	0.19339	0.16891	0.09791	1.08683	0.94280	0.75019	4.61672	2.69559	1.26704	0.42384	0.39208	0.34231	0.95029	0.73750	0.55528	4.12319	2.54193	1.37423
22400	0.19251	0.16675	0.09545	1.08500	0.94163	0.74908	4.61813	2.69525	1.26474	0.42308	0.39055	0.34151	0.95230	0.73467	0.55869	4.12568	2.54462	1.37686
22560	0.19567	0.16934	0.09757	1.08732	0.94363	0.75137	4.62399	2.69205	1.26649	0.42489	0.39311	0.34276	0.95078	0.73744	0.55489	4.12358	2.54211	1.37428
22730	0.19363	0.16870	0.09629	1.08555	0.94107	0.74838	4.61968	2.69371	1.26408	0.42233	0.39132	0.34094	0.95230	0.74137	0.56020	4.12906	2.54606	1.37943
22890	0.19874	0.17007	0.09823	1.08958	0.94412	0.75246	4.61581	2.69528	1.26720	0.42486	0.39333	0.34447	0.95023	0.73869	0.55776	4.12742	2.54322	1.37566	27.41	6.0	0.00	7.34	0.01275	0.01295	0.01656	0.00796	0.00593	0.00649	0.00471	0.01272	0.01691	0.00689	0.00709	0.00901	0.01496	0.01100	0.01201	0.00222	0.00631	0.00885
23060	0.19653	0.17174	0.09933	1.08940	0.94634	0.75376	4.62167	2.70094	1.26987	0.42684	0.39462	0.34632	0.95349	0.73785	0.55803	4.12803	2.54570	1.37789
23220	0.19498	0.16944	0.09900	1.08816	0.94380	0.75020	4.60457	2.69557	1.26899	0.42483	0.39113	0.34301	0.94985	0.73682	0.55562	4.12415	2.54180	1.37353
23380	0.19708	0.17068	0.09965	1.08978	0.94633	0.75406	4.61748	2.69869	1.27190	0.42772	0.39463	0.34566	0.95406	0.74203	0.55880	4.12874	2.54621	1.37867
23550	0.19496	0.16921	0.09829	1.08891	0.94333	0.75124	4.61480	2.69306	1.26920	0.42399	0.39026	0.34274	0.94972	0.73512	0.55812	4.12337	2.54337	1.37479
23710	0.19595	0.17082	0.09854	1.08988	0.94416	0.75357	4.62323	2.69948	1.27118	0.42701	0.39490	0.34565	0.95378	0.74093	0.55891	4.12758	2.54581	1.37803
23870	0.19557	0.17014	0.09697	1.08843	0.94311	0.75115	4.61979	2.69570	1.26583	0.42363	0.39110	0.34236	0.94771	0.73655	0.55395	4.12459	2.54189	1.37381
24030	0.19212	0.16815	0.09515	1.08458	0.93914	0.74751	4.61198	2.69251	1.26651	0.42175	0.38963	0.34064	0.94826	0.73983	0.55711	4.12852	2.54588	1.37690
24200	0.19435	0.17036	0.09653	1.08743	0.94192	0.75008	4.60461	2.69452	1.26779	0.42354	0.39148	0.34201	0.94884	0.73693	0.55357	4.12393	2.54178	1.37339
24360	0.19385	0.16971	0.09646	1.08596	0.94128	0.74949	4.61386	2.69626	1.26643	0.42319	0.39030	0.34203	0.95217	0.73865	0.55549	4.12227	2.54357	1.37632
24530	0.19393	0.16886	0.09847	1.08689	0.94231	0.75004	4.61155	2.69532	1.26714	0.42390	0.39109	0.34261	0.95157	0.73687	0.55708	4.12150	2.54115	1.37410	27.41	6.3	0.00	7.28	0.01275	0.01295	0.01656	0.00796	0.00593	0.00649	0.00471	0.01272	0.01691	0.00689	0.00709	0.00901	0.01496	0.01100	0.01201	0.00222	0.00631	0.00885
24690	0.19554	0.16787	0.09393	1.08379	0.93895	0.74670	4.61079	2.69090	1.26347	0.42137	0.38929	0.33930	0.95187	0.73774	0.55919	4.12277	2.54223	1.37648
24860	0.19405	0.17174	0.09747	1.08665	0.94140	0.74897	4.61502	2.69740	1.26607	0.42394	0.39239	0.34238	0.95664	0.73979	0.56003	4.12809	2.54648	1.37978
25020	0.19848	0.17316	0.10087	1.09048	0.94520	0.75329	4.62026	2.70154	1.27104	0.42638	0.39339	0.34465	0.95547	0.73907	0.55779	4.12560	2.54458	1.37687
25180	0.19560	0.17275	0.10010	1.08854	0.94571	0.75377	4.62135	2.70210	1.27102	0.42783	0.39608	0.34620	0.95510	0.74124	0.56005	4.12870	2.54713	1.37916
25350	0.19571	0.17194	0.09892	1.08785	0.94313	0.75113	4.61657	2.69369	1.27024	0.42503	0.39247	0.34373	0.95243	0.74151	0.55822	4.12648	2.54543	1.37791
25510	0.19859	0.17182	0.09781	1.08771	0.94349	0.75073	4.61892	2.70061	1.26892	0.42452	0.39124	0.34385	0.95207	0.73893	0.55921	4.12687	2.54281	1.37511
25670	0.19568	0.16821	0.09510	1.08506	0.93960	0.74621	4.60789	2.69154	1.26623	0.42105	0.38852	0.34020	0.94931	0.73946	0.56145	4.12726	2.54451	1.37713
25840	0.19512	0.17319	0.09869	1.08702	0.94303	0.75038	4.60266	2.69670	1.26727	0.42340	0.39164	0.34191	0.95076	0.73623	0.55526	4.12150	2.54133	1.37419
26000	0.19302	0.17072	0.09804	1.08386	0.93951	0.74566	4.61032	2.69372	1.26565	0.42146	0.38870	0.34001	0.95194	0.74036	0.55680	4.12615	2.54453	1.37782
26170	0.19570	0.17156	0.09698	1.08635	0.94185	0.74861	4.62160	2.69559	1.26740	0.42295	0.39086	0.34170	0.95130	0.73688	0.55631	4.12627	2.54163	1.37399	27.41	6.1	0.00	7.32	0.01275	0.01295	0.01656	0.00796	0.00593	0.00649	0.00471	0.01272	0.01691	0.00689	0.00709	0.00901	0.01496	0.01100	0.01201	0.00222	0.00631	0.00885
26330	0.19553	0.17061	0.09819	1.08575	0.94162	0.74906	4.60724	2.69848	1.26842	0.42378	0.39055	0.34190	0.95065	0.73804	0.55698	4.12444	2.54238	1.37424
26490	0.19656	0.16938	0.09758	1.08529	0.94182	0.74961	4.61202	2.69702	1.26848	0.42406	0.39139	0.34147	0.95253	0.73791	0.55379	4.12594	2.54147	1.37415
26660	0.19595	0.17393	0.10115	1.08809	0.94508	0.75206	4.61599	2.70049	1.27227	0.42625	0.39410	0.34459	0.95494	0.74077	0.55931	4.12992	2.54543	1.37680
26820	0.20024	0.17264	0.09777	1.08653	0.94254	0.74973	4.61603	2.69750	1.26931	0.42341	0.39034	0.34161	0.95322	0.73758	0.55859	4.12671	2.54397	1.37514
26980	0.19670	0.17177	0.09712	1.08621	0.94120	0.74785	4.62225	2.69659	1.26880	0.42239	0.38880	0.34066	0.95083	0.73585	0.55684	4.12394	2.54104	1.37301
27150	0.19357	0.17084	0.09605	1.08358	0.93968	0.74698	4.61737	2.69759	1.26705	0.42134	0.38968	0.33932	0.95256	0.73954	0.55889	4.12328	2.54265	1.37506
27310	0.19666	0.17332	0.09813	1.08608	0.94237	0.74926	4.61997	2.70042	1.26745	0.42356	0.39147	0.34160	0.95253	0.73659	0.55545	4.12599	2.54191	1.37309
27480	0.19369	0.16993	0.09621	1.08338	0.93916	0.74544	4.60616	2.69674	1.26586	0.42073	0.38878	0.33919	0.95278	0.73974	0.56047	4.12738	2.54614	1.37809
27640	0.19883	0.17256	0.09971	1.08703	0.94350	0.74983	4.62258	2.69978	1.27052	0.42388	0.39177	0.34209	0.95062	0.73691	0.55698	4.12721	2.54243	1.37362
27810	0.19691	0.17292	0.10013	1.08728	0.94441	0.75103	4.62479	2.70482	1.27472	0.42490	0.39319	0.34413	0.95347	0.74237	0.55855	4.12420	2.54375	1.37658	27.41	6.2	0.00	7.26	0.01275	0.01295	0.01656	0.00796	0.00593	0.00649	0.00471	0.01272	0.01691	0.00689	0.00709	0.00901	0.01496	0.01100	0.01201	0.00222	0.00631	0.00885
27970	0.19601	0.17282	0.09761	1.08511	0.94112	0.74744	4.62142	2.69839	1.26928	0.42213	0.39060	0.34204	0.95027	0.73757	0.55802	4.12558	2.54180	1.37337
28130	0.19693	0.17166	0.09762	1.08388	0.94027	0.74665	4.62153	2.69859	1.26758	0.42192	0.39054	0.34069	0.94929	0.73619	0.55383	4.12248	2.53944	1.37153
28300	0.19504	0.17303	0.10010	1.08309	0.94245	0.75129	4.62055	2.70180	1.27323	0.42677	0.39492	0.34563	0.95431	0.74108	0.56063	4.13112	2.54570	1.37727
28460	0.19637	0.17287	0.10051	1.08670	0.94208	0.74889	4.61708	2.70173	1.26836	0.42314	0.39124	0.34301	0.95192	0.73917	0.55876	4.12331	2.54496	1.37576
28620	0.19816	0.17340	0.09741	1.08579	0.94106	0.74911	4.61473	2.69649	1.27037	0.42435	0.39220	0.34216	0.94859	0.74015	0.55676	4.12160	2.54152	1.37321
28790	0.19496	0.16849	0.09662	1.08220	0.93883	0.74609	4.61238	2.69553	1.26709	0.42076	0.38944	0.34069	0.95288	0.74005	0.55923	4.12669	2.54389	1.37602
28950	0.19652	0.17423	0.09740	1.08604	0.94196	0.74907	4.61936	2.69953	1.27046	0.42340	0.39092	0.34279	0.95243	0.73826	0.55704	4.12525	2.54173	1.37399
29110	0.19173	0.17034	0.09575	1.08253	0.93852	0.74463	4.60844	2.69359	1.26557	0.42059	0.38945	0.33980	0.95285	0.73885	0.56087	4.12514	2.54376	1.37737
29280	0.19733	0.17167	0.09896	1.08606	0.94100	0.74804	4.61867	2.69956	1.26986	0.42305	0.39168	0.34190	0.95430	0.73675	0.55798	4.12320	2.54034	1.37269
29440	0.19615	0.17022	0.09734	1.08394	0.94067	0.74805	4.61805	2.69886	1.26939	0.42365	0.39141	0.34220	0.95193	0.74007	0.55500	4.12642	2.54084	1.37325	27.41	6.1	0.00	7.32	0.01275	0.01295	0.01656	0.00796	0.00593	0.00649	0.00471	0.01272	0.01691	0.00689	0.00709	0.00901	0.01496	0.01100	0.01201	0.00222	0.00631	0.00885
29610	0.19403	0.16899	0.09492	1.08273	0.93843	0.74646	4.60692	2.69815	1.26796	0.42230	0.38991	0.34144	0.95088	0.73542	0.55557	4.12426	2.53835	1.37165
29770	0.19636	0.17377	0.10039	1.08626	0.94257	0.75016	4.62048	2.70291	1.27272	0.42523	0.39245	0.34385	0.95654	0.74078	0.55849	4.12980	2.54230	1.37558
29930	0.19683	0.17180	0.09823	1.08409	0.93957	0.74740	4.61939	2.69735	1.26701	0.42129	0.38875	0.34124	0.95132	0.73918	0.55909	4.12337	2.54084	1.37405
30100	0.19778	0.17059	0.09704	1.08384	0.93892	0.74710	4.61950	2.69794	1.26761	0.42174	0.38873	0.34061	0.95055	0.73665	0.55789	4.12349	2.54043	1.37363
30260	0.19590	0.16988	0.09675	1.08243	0.93898	0.74496	4.61180	2.69338	1.26524	0.42053	0.38875	0.34078	0.95229	0.73768	0.55931	4.12454	2.54218	1.37496
30430	0.19471	0.17462	0.09799	1.08397	0.94061	0.74798	4.62276	2.69869	1.26755	0.42426	0.39077	0.34183	0.95162	0.73677	0.55860	4.12343	2.53920	1.37236
30590	0.19527	0.17224	0.09785	1.08525	0.94102	0.74982	4.61534	2.69999	1.26830	0.42480	0.39175	0.34319	0.95275	0.73790	0.56023	4.12387	2.54082	1.37338
30750	0.19639	0.17137	0.09898	1.08365	0.93941	0.74865	4.61324	2.70106	1.27017	0.42370	0.39089	0.34224	0.95098	0.73625	0.55849	4.12498	2.54079	1.37322
30920	0.19908	0.17559	0.10109	1.08657	0.94422	0.75154	4.61708	2.70251	1.27393	0.42683	0.39326	0.34517	0.95462	0.74205	0.56152	4.12869	2.54456	1.37646
31080	0.19730	0.17283	0.09907	1.08547	0.94229	0.74936	4.60422	2.69817	1.27068	0.42210	0.39001	0.34251	0.95170	0.73930	0.55923	4.13003	2.54172	1.37494	27.41	6.1	0.00	7.35	0.01275	0.01295	0.01656	0.00796	0.00593	0.00649	0.00471	0.01272	0.01691	0.00689	0.00709	0.00901	0.01496	0.01100	0.01201	0.00222	0.00631	0.00885
31240	0.19510	0.17055	0.09670	1.08369	0.93985	0.74859	4.61268	2.69432	1.26681	0.42175	0.38870	0.34094	0.94970	0.73821	0.55369	4.12466	2.53848	1.37063
31410	0.19205	0.16991	0.09790	1.08045	0.93677	0.74554	4.61019	2.69571	1.26599	0.41957	0.38797	0.33967	0.94979	0.73876	0.55568	4.12344	2.54071	1.37363
31570	0.19474	0.17162	0.09792	1.08370	0.94023	0.74791	4.61030	2.69894	1.26818	0.42245	0.38964	0.34224	0.94978	0.73842	0.55686	4.12450	2.53954	1.37176
31740	0.19408	0.17111	0.09859	1.08237	0.94102	0.75072	4.61699	2.70188	1.27218	0.42512	0.39269	0.34510	0.95430	0.73895	0.55959	4.12771	2.54333	1.37568
31900	0.19699	0.17209	0.09904	1.08503	0.94014	0.74810	4.61026	2.69918	1.26816	0.42186	0.39028	0.34213	0.95140	0.73889	0.55847	4.12848	2.54272	1.37576
32060	0.19607	0.17326	0.09865	1.08531	0.94221	0.74932	4.61243	2.70021	1.27039	0.42309	0.39148	0.34292	0.95503	0.73768	0.55615	4.12638	2.54007	1.37283
32230	0.19465	0.17127	0.09633	1.08240	0.93843	0.74702	4.60527	2.69556	1.26543	0.42074	0.38826	0.34014	0.95358	0.74221	0.55980	4.12998	2.54425	1.37671
32390	0.19773	0.17340	0.09833	1.08686	0.94317	0.75135	4.62404	2.69856	1.27013	0.42353	0.39081	0.34381	0.95074	0.73847	0.55883	4.12765	2.54151	1.37437
32560	0.19448	0.17274	0.09848	1.08453	0.94196	0.74973	4.62292	2.69825	1.27027	0.42261	0.39080	0.34291	0.95305	0.73910	0.55825	4.12466	2.54136	1.37451
32720	0.19548	0.16927	0.09720	1.08232	0.94044	0.74629	4.60993	2.69559	1.26583	0.41983	0.38769	0.33960	0.94959	0.73672	0.55802	4.12419	2.53845	1.37121	27.41	6.1	0.00	7.41	0.01275	0.01295	0.01656	0.00796	0.00593	0.00649	0.00470	0.01272	0.01691	0.00689	0.00709	0.00901	0.01496	0.01100	0.01201	0.00222	0.00631	0.00885
32880	0.19366	0.17103	0.09778	1.08380	0.94063	0.74805	4.60946	2.69642	1.26933	0.42281	0.39014	0.34141	0.95152	0.74137	0.55635	4.12663	2.54105	1.37287
33050	0.19393	0.16947	0.09721	1.08238	0.93913	0.74639	4.59844	2.69425	1.26674	0.41997	0.38837	0.34039	0.95061	0.73766	0.55375	4.12430	2.53748	1.37091
33210	0.19671	0.17275	0.09952	1.08512	0.94193	0.74972	4.61380	2.69952	1.26990	0.42318	0.39127	0.34287	0.95288	0.73805	0.55567	4.12763	2.54194	1.37435
33370	0.19525	0.17105	0.09691	1.08275	0.93885	0.74699	4.60972	2.69670	1.26811	0.41974	0.38808	0.33992	0.94926	0.73410	0.55374	4.12397	2.53766	1.37123
33540	0.19680	0.17330	0.09934	1.08600	0.94349	0.75139	4.61019	2.70188	1.27271	0.42465	0.39198	0.34420	0.95519	0.74205	0.56228	4.12779	2.54422	1.37702
33700	0.19673	0.17213	0.09752	1.08571	0.94125	0.74871	4.61109	2.69474	1.26837	0.42085	0.38904	0.34135	0.94861	0.73881	0.55955	4.12475	2.53929	1.37203
33860	0.19633	0.17019	0.09899	1.08605	0.94199	0.75041	4.61568	2.70066	1.27135	0.42344	0.39078	0.34336	0.95424	0.74152	0.55933	4.12475	2.54323	1.37545
34030	0.19574	0.16983	0.09844	1.08456	0.94001	0.74846	4.60968	2.69936	1.26609	0.42089	0.38830	0.34084	0.94931	0.73834	0.55496	4.12408	2.53843	1.37181
34190	0.19460	0.17194	0.09816	1.08500	0.94189	0.75043	4.61518	2.69906	1.26919	0.42295	0.39076	0.34272	0.95183	0.73835	0.55862	4.12763	2.54104	1.37433
34350	0.19485	0.16951	0.09770	1.08276	0.93876	0.74664	4.60835	2.69236	1.26811	0.41980	0.38734	0.34021	0.94832	0.73828	0.55678	4.12240	2.53901	1.37060	27.47	6.2	0.00	7.31	0.01275	0.01295	0.01656	0.00796	0.00593	0.00649	0.00470	0.01272	0.01691	0.00689	0.00709	0.00901	0.01496	0.01100	0.01201	0.00222	0.00631	0.00885
34520	0.19312	0.17021	0.09474	1.07942	0.93664	0.74464	4.61196	2.69363	1.26606	0.41820	0.38583	0.33889	0.95048	0.73950	0.55840	4.12611	2.54229	1.37450
34680	0.19555	0.17114	0.09740	1.08402	0.94021	0.74725	4.62361	2.69686	1.26742	0.42177	0.38793	0.34016	0.95026	0.73708	0.55785	4.12356	2.54018	1.37316
34840	0.19415	0.17098	0.09539	1.08143	0.93750	0.74526	4.60285	2.69237	1.26534	0.41957	0.38558	0.33852	0.95255	0.73912	0.55917	4.12594	2.54200	1.37500
35010	0.19598	0.17211	0.09775	1.08532	0.94036	0.74686	4.61395	2.69468	1.26830	0.42127	0.38796	0.33998	0.95366	0.74041	0.55741	4.12622	2.54170	1.37410
35170	0.19728	0.17173	0.09890	1.08547	0.94161	0.74938	4.63071	2.70067	1.26971	0.42303	0.38929	0.34140	0.95165	0.73844	0.55731	4.12578	2.54146	1.37381
35330	0.19401	0.17085	0.09514	1.08259	0.93772	0.74521	4.61287	2.69508	1.26564	0.42050	0.38681	0.33904	0.95396	0.74126	0.55923	4.12816	2.54552	1.37780
35500	0.19993	0.17456	0.10067	1.08841	0.94339	0.75068	4.61786	2.70043	1.27328	0.42498	0.39147	0.34344	0.95288	0.73816	0.55959	4.12622	2.54306	1.37518
35660	0.19501	0.17282	0.09900	1.08429	0.94039	0.74836	4.61041	2.70005	1.26947	0.42291	0.38867	0.34225	0.95133	0.73759	0.55674	4.12611	2.54057	1.37292
35820	0.19448	0.16844	0.09671	1.08274	0.93795	0.74612	4.62028	2.69680	1.26778	0.42052	0.38720	0.33964	0.94733	0.73560	0.55442	4.12334	2.53877	1.37103
35990	0.19411	0.16953	0.09504	1.08140	0.93751	0.74516	4.61483	2.69508	1.26365	0.41868	0.38578	0.33777	0.95164	0.73950	0.56211	4.12567	2.54411	1.37553	27.41	6.1	0.00	7.45	0.01275	0.01295	0.01656	0.00796	0.00593	0.00649	0.00470	0.01272	0.01691	0.00689	0.00709	0.00901	0.01496	0.01100	0.01201	0.00222	0.00631	0.00885
36150	0.19713	0.17387	0.09941	1.08714	0.94238	0.75097	4.62232	2.69855	1.27079	0.42365	0.39022	0.34159	0.95179	0.73813	0.55516	4.12910	2.54180	1.37386
36310	0.19495	0.17147	0.09655	1.08522	0.94020	0.74858	4.62004	2.69998	1.26859	0.42191	0.38869	0.34074	0.95274	0.73809	0.55996	4.12434	2.54065	1.37184
36480	0.19573	0.17012	0.09627	1.08225	0.93872	0.74599	4.61111	2.69770	1.26699	0.42064	0.38772	0.33847	0.94973	0.73743	0.55655	4.12241	2.54003	1.37100
36640	0.19375	0.16889	0.09377	1.08189	0.93761	0.74409	4.60681	2.69338	1.26444	0.41858	0.38670	0.33808	0.95311	0.74175	0.56003	4.12545	2.54354	1.37600
36810	0.19729	0.17239	0.09841	1.08617	0.94106	0.74898	4.61021	2.69640	1.27009	0.42154	0.38884	0.34056	0.95192	0.73839	0.55890	4.12528	2.53949	1.37204
36970	0.19645	0.17064	0.09692	1.08522	0.94178	0.74874	4.60959	2.69682	1.26971	0.42216	0.39028	0.34122	0.95053	0.73922	0.55897	4.12606	2.54165	1.37324
37130	0.19423	0.16855	0.09660	1.08380	0.93860	0.74785	4.61219	2.69394	1.26813	0.42023	0.38765	0.33988	0.94894	0.73505	0.55734	4.12362	2.53946	1.37090
37300	0.19657	0.17203	0.09941	1.08599	0.94317	0.75050	4.61939	2.69785	1.26890	0.42314	0.38958	0.34245	0.95178	0.74040	0.55793	4.12600	2.54336	1.37367
37460	0.19696	0.17102	0.09595	1.08404	0.94004	0.74731	4.60561	2.69427	1.26558	0.42014	0.38690	0.33909	0.94820	0.73634	0.55480	4.12263	2.53872	1.37065
37620	0.19513	0.17222	0.09919	1.08459	0.94133	0.75020	4.62274	2.69842	1.27165	0.42312	0.39095	0.34169	0.95068	0.74187	0.55825	4.12645	2.54126	1.37228	27.35	6.1	0.00	7.28	0.01275	0.01295	0.01656	0.00796	0.00593	0.00649	0.00470	0.01272	0.01691	0.00689	0.00709	0.00901	0.01496	0.01100	0.01201	0.00222	0.00631	0.00885
37790	0.19449	0.17110	0.09571	1.08356	0.93861	0.74587	4.61474	2.69547	1.26752	0.42061	0.38805	0.33930	0.94769	0.73653	0.55599	4.12313	2.53815	1.37054
37950	0.19804	0.17383	0.09805	1.08532	0.94209	0.75039	4.61065	2.69889	1.27065	0.42368	0.39138	0.34230	0.95049	0.73852	0.55847	4.12645	2.54239	1.37428
38110	0.19720	0.16921	0.09717	1.08404	0.93949	0.74689	4.60997	2.69654	1.26649	0.42017	0.38752	0.33918	0.94729	0.73409	0.55283	4.11721	2.53816	1.36888
38280	0.19473	0.17137	0.09756	1.08433	0.94156	0.74990	4.61424	2.70021	1.27027	0.42318	0.38959	0.34142	0.95024	0.73936	0.55648	4.12650	2.54165	1.37278
38440	0.19323	0.17195	0.09449	1.08205	0.93841	0.74618	4.62256	2.69351	1.26570	0.41899	0.38697	0.33834	0.94631	0.73750	0.55482	4.11997	2.53746	1.37016
38600	0.19235	0.16821	0.09388	1.07994	0.93648	0.74498	4.60650	2.69165	1.26276	0.41788	0.38519	0.33672	0.95183	0.74099	0.55996	4.12506	2.54319	1.37501
38770	0.19812	0.17156	0.10028	1.08583	0.94130	0.74888	4.61753	2.69707	1.27015	0.42052	0.38889	0.33966	0.94969	0.74031	0.55897	4.12501	2.54198	1.37322
38930	0.19635	0.17195	0.09718	1.08563	0.94150	0.74983	4.61138	2.69903	1.26963	0.42257	0.38964	0.34020	0.94952	0.73884	0.55920	4.12335	2.54118	1.37274
39090	0.19429	0.17039	0.09534	1.08294	0.93899	0.74531	4.60603	2.69708	1.26389	0.41876	0.38754	0.33888	0.94950	0.74112	0.55814	4.12551	2.54260	1.37339
39260	0.19630	0.17238	0.09748	1.08490	0.93923	0.74796	4.60874	2.69548	1.26798	0.42068	0.38875	0.33891	0.94832	0.73913	0.55391	4.12201	2.53971	1.37091	27.41	6.2	0.00	7.34	0.01275	0.01295	0.01656	0.00796	0.00592	0.00649	0.00471	0.01272	0.01691	0.00689	0.00709	0.00901	0.01496	0.01100	0.01201	0.00222	0.00631	0.00885
39420	0.19531	0.16771	0.09642	1.08198	0.93668	0.74475	4.60874	2.69285	1.26622	0.41891	0.38687	0.33721	0.95063	0.74068	0.55527	4.12217	2.53994	1.37233
39580	0.19426	0.16974	0.09713	1.08348	0.93829	0.74698	4.60202	2.69672	1.26697	0.42061	0.38855	0.33844	0.94863	0.73742	0.55474	4.12035	2.53805	1.37028
39750	0.19396	0.17010	0.09594	1.08054	0.93579	0.74517	4.60040	2.69139	1.26323	0.41839	0.38690	0.33681	0.95113	0.73746	0.55556	4.12267	2.54184	1.37305
39910	0.19693	0.16987	0.09709	1.08403	0.93856	0.74705	4.61442	2.69610	1.26826	0.42108	0.38932	0.33925	0.95071	0.73629	0.55888	4.11963	2.53967	1.37069
40080	0.19178	0.16898	0.09483	1.08111	0.93612	0.74462	4.60849	2.69422	1.26490	0.41821	0.38712	0.33658	0.95165	0.73727	0.56061	4.12345	2.54303	1.37534
40240	0.19735	0.17269	0.09701	1.08589	0.93941	0.74834	4.60394	2.69591	1.26885	0.42105	0.39005	0.34041	0.94948	0.73862	0.55692	4.12024	2.53997	1.37108
40400	0.19506	0.17066	0.09775	1.08456	0.93999	0.74844	4.61276	2.69918	1.26940	0.42196	0.39099	0.34163	0.94892	0.73817	0.55688	4.12168	2.54043	1.37182
40570	0.19464	0.16825	0.09545	1.08301	0.93714	0.74575	4.60968	2.69323	1.26575	0.41953	0.38804	0.33863	0.94878	0.73655	0.55593	4.11963	2.53789	1.36950
40730	0.19397	0.17074	0.09873	1.08420	0.93923	0.74914	4.61106	2.69715	1.26918	0.42147	0.39006	0.34117	0.94978	0.73783	0.55605	4.12295	2.54026	1.37216
40890	0.19522	0.16996	0.09630	1.08266	0.93734	0.74549	4.60458	2.69201	1.26565	0.42005	0.38801	0.33810	0.94960	0.73713	0.55484	4.11720	2.53808	1.36895	27.41	6.0	0.00	7.30	0.01275	0.01295	0.01656	0.00796	0.00592	0.00649	0.00470	0.01272	0.01691	0.00689	0.00709	0.00901	0.01496	0.01100	0.01201	0.00222	0.00631	0.00885
41060	0.19450	0.17067	0.09822	1.08302	0.93912	0.74775	4.60646	2.69636	1.26956	0.42135	0.39062	0.34085	0.94982	0.73808	0.55891	4.12130	2.54074	1.37184
41220	0.19348	0.17041	0.09616	1.08245	0.93619	0.74545	4.60061	2.69107	1.26544	0.41937	0.38818	0.33806	0.94794	0.73580	0.55386	4.11704	2.53751	1.36883
41380	0.19359	0.16907	0.09601	1.08304	0.93791	0.74691	4.61402	2.69823	1.26647	0.42142	0.38984	0.33931	0.94957	0.73501	0.55339	4.11488	2.53871	1.37069
41550	0.19396	0.16778	0.09544	1.08137	0.93698	0.74510	4.60448	2.69453	1.26386	0.42030	0.38757	0.33849	0.94639	0.73474	0.55583	4.11637	2.53720	1.36923
41710	0.19278	0.17076	0.09654	1.08359	0.93781	0.74768	4.60516	2.69713	1.26933	0.42096	0.39121	0.34035	0.94971	0.73959	0.55882	4.11870	2.53958	1.37123
41870	0.19306	0.17079	0.09737	1.08285	0.93675	0.74594	4.59718	2.69346	1.26571	0.42054	0.38779	0.33905	0.94903	0.73634	0.55634	4.11693	2.53743	1.36976
42040	0.19543	0.16959	0.09764	1.08505	0.93916	0.74866	4.61030	2.69725	1.26972	0.42282	0.39118	0.34134	0.95183	0.74078	0.55994	4.12080	2.54208	1.37287
42200	0.19470	0.16967	0.09761	1.08333	0.93718	0.74651	4.61124	2.69398	1.26648	0.42042	0.38874	0.33871	0.94840	0.73438	0.55619	4.11665	2.53754	1.36911
42360	0.19622	0.17226	0.09826	1.08435	0.93991	0.74903	4.61243	2.69959	1.26920	0.42293	0.39052	0.34135	0.95061	0.73874	0.55582	4.12041	2.54192	1.37229
42530	0.19616	0.16959	0.09657	1.08382	0.93784	0.74442	4.58982	2.69442	1.26612	0.41961	0.38931	0.33898	0.95164	0.73978	0.55778	4.12394	2.53986	1.37249	27.41	6.0	0.00	7.29	0.01275	0.01295	0.01656	0.00796	0.00592	0.00649	0.00470	0.01272	0.01691	0.00689	0.00709	0.00901	0.01496	0.01100	0.01201	0.00222	0.00631	0.00885
42690	0.19508	0.17005	0.09880	1.08500	0.93929	0.74737	4.60928	2.69767	1.26750	0.42176	0.39053	0.34068	0.94967	0.73898	0.55688	4.12045	2.53869	1.37028
42850	0.19441	0.17004	0.09496	1.08218	0.93643	0.74376	4.60188	2.69105	1.26401	0.41906	0.38726	0.33761	0.94643	0.73471	0.55596	4.11293	2.53575	1.36708
43020	0.19113	0.17022	0.09788	1.08016	0.93890	0.74715	4.60845	2.69716	1.26914	0.42292	0.39058	0.34178	0.95459	0.73898	0.55817	4.12305	2.54204	1.37271
43180	0.19558	0.17209	0.09718	1.08380	0.93730	0.74574	4.61474	2.68871	1.26594	0.42081	0.38826	0.33901	0.94625	0.73596	0.55513	4.11658	2.53699	1.36915
43340	0.19260	0.16920	0.09680	1.08040	0.93895	0.74687	4.60516	2.69745	1.26968	0.42220	0.39074	0.34055	0.95148	0.73788	0.55744	4.12128	2.54014	1.37181
43510	0.19565	0.16910	0.09580	1.08289	0.93803	0.74487	4.61568	2.68903	1.26482	0.41978	0.38755	0.33812	0.94759	0.73386	0.55364	4.11697	2.53673	1.36847
43670	0.19346	0.16976	0.09720	1.08112	0.93958	0.74758	4.61095	2.69688	1.26876	0.42306	0.39129	0.34151	0.95184	0.73906	0.56010	4.11924	2.54159	1.37229
43830	0.19408	0.16874	0.09567	1.08334	0.93839	0.74568	4.59906	2.68693	1.26657	0.42046	0.38854	0.33979	0.94947	0.73573	0.55668	4.11868	2.53715	1.36847
44000	0.19379	0.17206	0.09820	1.08492	0.94058	0.74905	4.60892	2.69530	1.26954	0.42352	0.39170	0.34257	0.95056	0.74063	0.55786	4.12184	2.54189	1.37405
44160	0.19660	0.16914	0.09640	1.08324	0.93978	0.74613	4.60632	2.69226	1.26592	0.41947	0.38756	0.33995	0.94580	0.73686	0.55486	4.11731	2.53787	1.37047	27.41	6.0	0.00	7.43	0.01275	0.01295	0.01656	0.00796	0.00593	0.00649	0.00470	0.01272	0.01691	0.00689	0.00709	0.00901	0.01496	0.01100	0.01201	0.00222	0.00631	0.00885
44320	0.19536	0.17218	0.09831	1.08412	0.93946	0.74694	4.60892	2.69508	1.26622	0.42106	0.39032	0.34060	0.94838	0.73833	0.55835	4.11720	2.53964	1.37189
44480	0.19418	0.17123	0.09609	1.08043	0.93649	0.74358	4.61149	2.69344	1.26333	0.41919	0.38797	0.33734	0.94739	0.73575	0.55367	4.11776	2.53782	1.37049
44650	0.19287	0.16687	0.09517	1.07939	0.93489	0.74187	4.61019	2.69090	1.26253	0.41677	0.38607	0.33585	0.94668	0.73739	0.55842	4.11997	2.54157	1.37431
44810	0.19640	0.17194	0.09664	1.08495	0.93984	0.74720	4.60675	2.69506	1.26687	0.42095	0.38881	0.33941	0.94766	0.73733	0.55680	4.11610	2.53803	1.37076
44980	0.19541	0.17172	0.09950	1.08312	0.93964	0.74716	4.60599	2.69649	1.26513	0.42108	0.38995	0.33996	0.95106	0.73759	0.55808	4.12119	2.54020	1.37215
45140	0.19470	0.17132	0.09814	1.08336	0.93889	0.74532	4.60863	2.69390	1.26701	0.42056	0.39028	0.33987	0.94790	0.73761	0.55383	4.11886	2.53825	1.37045
45300	0.19688	0.17272	0.10036	1.08506	0.94070	0.74883	4.60925	2.69608	1.26817	0.42253	0.39145	0.34117	0.95191	0.73851	0.55645	4.12207	2.54131	1.37293
45470	0.19413	0.17055	0.09685	1.08272	0.93819	0.74665	4.61861	2.68981	1.26526	0.42054	0.38987	0.33905	0.95049	0.73886	0.55829	4.12168	2.54075	1.37378
45630	0.19563	0.16978	0.09709	1.08366	0.93880	0.74655	4.61163	2.69301	1.26496	0.42117	0.39016	0.33950	0.94792	0.73661	0.55867	4.11969	2.53964	1.37210
45800	0.19385	0.16898	0.09564	1.08146	0.93720	0.74426	4.59915	2.68747	1.25992	0.41924	0.38734	0.33741	0.95188	0.73829	0.56034	4.12570	2.54386	1.37596	27.47	6.1	0.00	7.31	0.01275	0.01295	0.01656	0.00796	0.00593	0.00649	0.00470	0.01272	0.01691	0.00689	0.00709	0.00901	0.01496	0.01100	0.01201	0.00222	0.00631	0.00885
45960	0.19712	0.17152	0.09719	1.08699	0.94106	0.74852	4.60616	2.69345	1.26539	0.42264	0.39143	0.34092	0.95056	0.73911	0.55599	4.11945	2.53966	1.37204
46120	0.19639	0.17182	0.09929	1.08612	0.94231	0.74899	4.61046	2.69298	1.26890	0.42438	0.39260	0.34260	0.94912	0.73806	0.55685	4.12615	2.54243	1.37456
46290	0.19738	0.16778	0.09820	1.08363	0.93932	0.74551	4.60132	2.68919	1.26534	0.42032	0.38973	0.34028	0.94817	0.73600	0.55271	4.11978	2.53932	1.37015
46450	0.19551	0.16970	0.09597	1.08188	0.93838	0.74545	4.59359	2.69346	1.26320	0.42025	0.38885	0.33965	0.94431	0.73504	0.55475	4.11895	2.53726	1.36945
46620	0.19289	0.16960	0.09848	1.08132	0.93938	0.74750	4.60562	2.69370	1.26896	0.42255	0.39190	0.34122	0.95009	0.73706	0.55683	4.12354	2.54212	1.37337
46780	0.19564	0.17173	0.09802	1.08343	0.93932	0.74653	4.59763	2.69266	1.26473	0.42103	0.39012	0.33999	0.94672	0.73348	0.55540	4.11840	2.53798	1.37024
46940	0.19516	0.17044	0.09921	1.08117	0.94052	0.74856	4.62034	2.69859	1.26894	0.42374	0.39371	0.34284	0.95318	0.74194	0.55591	4.12421	2.54329	1.37565
47110	0.19762	0.17115	0.09669	1.08513	0.94037	0.74654	4.61032	2.68960	1.26652	0.42088	0.39041	0.34002	0.94840	0.73895	0.55742	4.12028	2.54078	1.37237
47270	0.19615	0.17113	0.09933	1.08408	0.94017	0.74633	4.60453	2.69243	1.26531	0.42160	0.39094	0.34075	0.94618	0.73661	0.55740	4.11939	2.53896	1.37004
47430	0.19389	0.16740	0.09665	1.08140	0.93728	0.74266	4.59698	2.68871	1.26322	0.41787	0.38715	0.33812	0.94855	0.73687	0.55628	4.12284	2.54067	1.37296	27.41	6.1	0.00	7.26	0.01275	0.01295	0.01656	0.00796	0.00592	0.00649	0.00470	0.01272	0.01691	0.00689	0.00709	0.00901	0.01496	0.01100	0.01201	0.00222	0.00631	0.00885
47600	0.19409	0.17027	0.09872	1.08307	0.93929	0.74572	4.60438	2.69156	1.26531	0.42122	0.38838	0.33999	0.94672	0.73687	0.55674	4.12163	2.53898	1.37088
47760	0.19366	0.16696	0.09514	1.08093	0.93677	0.74305	4.59019	2.68742	1.26143	0.41861	0.38762	0.33878	0.94879	0.73638	0.56087	4.12423	2.54284	1.37489
47930	0.19711	0.17211	0.10009	1.08504	0.94031	0.74669	4.61682	2.69343	1.26485	0.42115	0.39026	0.34083	0.94663	0.73683	0.55525	4.11947	2.53987	1.37089
48090	0.19546	0.17120	0.09688	1.08483	0.94041	0.74738	4.60619	2.69437	1.26790	0.42302	0.39204	0.34194	0.95014	0.73963	0.55679	4.12378	2.54010	1.37274
48250	0.19574	0.17223	0.09647	1.08352	0.93822	0.74575	4.60406	2.68962	1.26378	0.42053	0.38949	0.33928	0.94834	0.73336	0.55531	4.12041	2.53992	1.37111
48420	0.19518	0.17090	0.09750	1.08249	0.93899	0.74644	4.60970	2.68901	1.26432	0.42126	0.39114	0.34112	0.94759	0.73787	0.55328	4.12174	2.53877	1.37116
48580	0.19417	0.17040	0.09538	1.08189	0.93761	0.74301	4.60626	2.68618	1.26233	0.41887	0.38857	0.33886	0.94967	0.73731	0.55760	4.12583	2.54162	1.37456
48750	0.19683	0.17327	0.09775	1.08529	0.94044	0.74765	4.60171	2.69319	1.26549	0.42144	0.39127	0.34113	0.94730	0.73416	0.55607	4.12461	2.53908	1.37211
48910	0.19501	0.17238	0.09903	1.08514	0.94211	0.74865	4.61241	2.68999	1.26600	0.42297	0.39132	0.34251	0.94881	0.73650	0.55857	4.12362	2.54054	1.37308
49080	0.19400	0.17048	0.09671	1.08286	0.93908	0.74497	4.60675	2.68956	1.26201	0.41907	0.38850	0.33919	0.94834	0.73717	0.55800	4.11987	2.53951	1.37232	27.47	6.1	0.00	7.27	0.01275	0.01295	0.01656	0.00796	0.00593	0.00649	0.00470	0.01272	0.01691	0.00689	0.00709	0.00901	0.01496	0.01100	0.01201	0.00222	0.00631	0.00885
49240	0.19445	0.16990	0.09761	1.08312	0.94044	0.74731	4.61601	2.68988	1.26556	0.42165	0.38920	0.34061	0.94888	0.73524	0.55449	4.12176	2.53969	1.37098
49400	0.19257	0.16921	0.09582	1.08162	0.93724	0.74377	4.59787	2.68430	1.26080	0.41834	0.38808	0.33790	0.95003	0.73585	0.55516	4.12010	2.53933	1.37174
49570	0.19619	0.17108	0.09731	1.08389	0.94011	0.74686	4.61106	2.69109	1.26449	0.42118	0.39121	0.34120	0.95039	0.73843	0.55938	4.12624	2.54328	1.37571
49730	0.19717	0.17243	0.10041	1.08777	0.94312	0.75046	4.61080	2.69325	1.26804	0.42385	0.39371	0.34322	0.95248	0.73936	0.56046	4.12187	2.54165	1.37484
49900	0.19538	0.17309	0.09782	1.08521	0.94181	0.74854	4.60679	2.69653	1.26831	0.42293	0.39268	0.34376	0.94816	0.74174	0.55966	4.12275	2.54154	1.37353
50060	0.19619	0.16889	0.09735	1.08430	0.93980	0.74586	4.60408	2.69085	1.26362	0.41999	0.38973	0.34002	0.94432	0.73376	0.55493	4.11794	2.53766	1.36888
50220	0.19347	0.16783	0.09975	1.08149	0.93934	0.74616	4.60321	2.69167	1.26693	0.42172	0.39159	0.34125	0.94657	0.73657	0.55435	4.12059	2.53920	1.37083
50380	0.19324	0.16979	0.09705	1.08200	0.93851	0.74510	4.59530	2.68946	1.26194	0.42023	0.38962	0.33946	0.94447	0.73638	0.55204	4.11573	2.53649	1.36776
50550	0.19129	0.16865	0.09786	1.08081	0.93836	0.74582	4.60477	2.68951	1.26467	0.42113	0.39128	0.34059	0.94789	0.73242	0.55456	4.12043	2.53787	1.37035
50710	0.19336	0.16852	0.09494	1.08140	0.93785	0.74489	4.59944	2.68986	1.26311	0.41985	0.38986	0.33983	0.94782	0.73340	0.55491	4.12054	2.53708	1.36990	27.47	6.0	0.00	7.28	0.01275	0.01295	0.01656	0.00796	0.00592	0.00649	0.00470	0.01272	0.01691	0.00689	0.00709	0.00901	0.01496	0.01100	0.01201	0.00222	0.00631	0.00885
50880	0.19384	0.16832	0.09948	1.08194	0.94040	0.74732	4.60992	2.69164	1.26656	0.42208	0.38958	0.34155	0.95057	0.73736	0.55735	4.11993	2.53867	1.37205
51040	0.19595	0.16884	0.09632	1.08122	0.93789	0.74539	4.60583	2.68926	1.26263	0.42058	0.38836	0.33999	0.94678	0.73443	0.55377	4.11656	2.53687	1.36931
51200	0.19429	0.16995	0.10042	1.08361	0.94080	0.74812	4.60551	2.69748	1.26840	0.42353	0.39369	0.34284	0.94959	0.73952	0.55899	4.12153	2.54085	1.37376
51370	0.19481	0.16941	0.09657	1.08241	0.93836	0.74620	4.60399	2.68995	1.26389	0.42118	0.38918	0.34002	0.94801	0.73676	0.55841	4.12242	2.54051	1.37267
51530	0.19464	0.16906	0.09681	1.08207	0.93919	0.74572	4.59821	2.68974	1.26413	0.42117	0.38909	0.33983	0.94556	0.73216	0.55572	4.11578	2.53759	1.36941
51690	0.19095	0.16758	0.09440	1.08057	0.93599	0.74335	4.59731	2.68606	1.26030	0.41872	0.38801	0.33855	0.94828	0.73728	0.55727	4.12076	2.54038	1.37356
51860	0.19548	0.17024	0.09514	1.08236	0.93932	0.74602	4.60514	2.68989	1.26475	0.42191	0.39007	0.34066	0.94688	0.73462	0.55571	4.11965	2.53989	1.37076
52020	0.19272	0.16922	0.09598	1.08014	0.93723	0.74330	4.60059	2.68764	1.25952	0.41954	0.38868	0.33836	0.94833	0.73845	0.55769	4.12253	2.54338	1.37533
52190	0.19628	0.17128	0.09884	1.08469	0.94129	0.74778	4.60319	2.69107	1.26573	0.42253	0.39055	0.34237	0.94973	0.73466	0.55660	4.12065	2.53967	1.37155
52350	0.19587	0.17155	0.09983	1.08519	0.94263	0.74927	4.60545	2.69079	1.26900	0.42262	0.39223	0.34323	0.95163	0.73646	0.55751	4.12101	2.54044	1.37289	27.47	6.2	0.00	7.34	0.01275	0.01295	0.01656	0.00796	0.00592	0.00649	0.00470	0.01272	0.01691	0.00689	0.00709	0.00901	0.01496	0.01100	0.01201	0.00222	0.00631	0.00885
52510	0.19580	0.16873	0.09737	1.08281	0.93917	0.74557	4.60491	2.68880	1.26359	0.41953	0.38867	0.34054	0.94770	0.73787	0.55516	4.11963	2.53912	1.37315
52680	0.19467	0.16975	0.09727	1.08216	0.93841	0.74511	4.60093	2.68667	1.26148	0.41948	0.38826	0.34015	0.94599	0.73493	0.55225	4.11797	2.53747	1.37059
52840	0.19199	0.16765	0.09529	1.08096	0.93767	0.74477	4.59292	2.68477	1.26146	0.41864	0.38881	0.33942	0.94829	0.73525	0.55553	4.11875	2.53822	1.37185
53010	0.19319	0.16770	0.09619	1.08246	0.94004	0.74595	4.59187	2.69126	1.26282	0.42000	0.38913	0.34027	0.94509	0.73467	0.55321	4.11631	2.53621	1.36965
53170	0.19267	0.16915	0.09432	1.07941	0.93563	0.74237	4.60028	2.68554	1.25905	0.41679	0.38604	0.33778	0.94741	0.73617	0.55545	4.11930	2.53804	1.37140
53340	0.19231	0.16905	0.09597	1.08260	0.93886	0.74590	4.61655	2.69031	1.26214	0.41968	0.38904	0.34023	0.95230	0.73934	0.56035	4.12113	2.54265	1.37637
53500	0.19855	0.17249	0.09996	1.08739	0.94277	0.74967	4.60780	2.69243	1.26767	0.42320	0.39168	0.34320	0.95164	0.73735	0.55969	4.11935	2.54045	1.37421
53660	0.19604	0.17215	0.09657	1.08391	0.94024	0.74692	4.60795	2.68771	1.26242	0.42024	0.38860	0.34061	0.94963	0.73545	0.55589	4.11991	2.53858	1.37151
53830	0.19501	0.16911	0.09583	1.08259	0.93839	0.74502	4.61312	2.68852	1.26208	0.41860	0.38839	0.33994	0.94930	0.73948	0.55866	4.12146	2.54188	1.37445
53990	0.19569	0.17101	0.09742	1.08587	0.94175	0.74851	4.59847	2.69007	1.26648	0.42130	0.39144	0.34149	0.95094	0.73667	0.55612	4.11657	2.53945	1.37358	27.41	6.0	0.00	7.33	0.01275	0.01295	0.01656	0.00796	0.00592	0.00649	0.00470	0.01272	0.01691	0.00689	0.00709	0.00901	0.01496	0.01100	0.01201	0.00222	0.00631	0.00885
54160	0.19692	0.16792	0.09952	1.08398	0.94180	0.74820	4.60588	2.69230	1.26419	0.42189	0.39002	0.34185	0.94836	0.73937	0.55688	4.11812	2.53933	1.37323
54320	0.19330	0.16951	0.09579	1.08196	0.93842	0.74492	4.59606	2.68645	1.26186	0.41938	0.38804	0.33943	0.94704	0.73246	0.55590	4.11071	2.53594	1.36935
54480	0.19324	0.16751	0.09776	1.08266	0.93971	0.74725	4.60180	2.69052	1.26469	0.42068	0.39048	0.34001	0.94898	0.73471	0.55801	4.11674	2.53871	1.37158
54650	0.19261	0.16971	0.09684	1.08150	0.93806	0.74536	4.60057	2.68983	1.26199	0.41961	0.38817	0.33906	0.94575	0.73250	0.55466	4.11010	2.53571	1.36970
54810	0.19231	0.16907	0.09930	1.08341	0.94129	0.74759	4.61279	2.69047	1.26440	0.42226	0.39179	0.34090	0.94923	0.73659	0.55879	4.11679	2.53870	1.37286
54970	0.19395	0.16817	0.09777	1.08259	0.93912	0.74506	4.59829	2.68810	1.26195	0.41966	0.38860	0.33884	0.94867	0.73458	0.55354	4.11204	2.53499	1.36958
55140	0.19503	0.17111	0.09835	1.08501	0.94277	0.75003	4.59822	2.69086	1.26658	0.42340	0.39168	0.34225	0.95170	0.73880	0.55753	4.11901	2.54045	1.37477
55300	0.19572	0.16927	0.09799	1.08435	0.94091	0.74600	4.61015	2.68946	1.26534	0.42042	0.38996	0.34001	0.94926	0.73819	0.55290	4.11779	2.53817	1.37293
55460	0.19282	0.16733	0.09716	1.08216	0.93941	0.74582	4.59313	2.68811	1.26236	0.42041	0.38938	0.33946	0.94663	0.73534	0.55438	4.11524	2.53663	1.37037
55630	0.19259	0.16720	0.09434	1.08114	0.93906	0.74623	4.60906	2.68657	1.26264	0.41916	0.38997	0.33833	0.94582	0.73268	0.55283	4.11243	2.53595	1.37060	27.41	5.9	0.00	6.63	0.01275	0.01295	0.01656	0.00796	0.00592	0.00649	0.00470	0.01272	0.01691	0.00689	0.00709	0.00901	0.01496	0.01100	0.01201	0.00222	0.00631	0.00885
55790	0.19513	0.17111	0.09888	1.08389	0.94291	0.74920	4.61662	2.69307	1.26740	0.42239	0.39278	0.34226	0.95304	0.73911	0.55690	4.11464	2.54206	1.37535
55950	0.19341	0.17044	0.09709	1.08352	0.93995	0.74762	4.59779	2.68932	1.26248	0.41980	0.39007	0.33960	0.94705	0.73542	0.55467	4.11525	2.53962	1.37301
56120	0.19273	0.16900	0.09553	1.08152	0.93886	0.74418	4.59288	2.68620	1.26020	0.41853	0.38839	0.33739	0.94692	0.73550	0.55366	4.11310	2.53676	1.37047
56280	0.19206	0.16704	0.09815	1.08163	0.93780	0.74514	4.59855	2.68704	1.26235	0.41891	0.38854	0.33866	0.94671	0.73275	0.55276	4.10994	2.53620	1.36960
56440	0.19699	0.17097	0.09789	1.08490	0.94257	0.74882	4.60386	2.69175	1.26878	0.42281	0.39235	0.34182	0.94907	0.73792	0.55557	4.11929	2.54108	1.37406
56610	0.19456	0.16875	0.09774	1.08280	0.93982	0.74562	4.59938	2.68876	1.26213	0.41943	0.39009	0.33949	0.95037	0.73944	0.56042	4.11885	2.54211	1.37596
56770	0.19738	0.17294	0.09786	1.08598	0.94338	0.74981	4.60451	2.69197	1.26771	0.42239	0.39208	0.34239	0.95328	0.73686	0.55712	4.11996	2.54139	1.37521
56930	0.19374	0.16732	0.10008	1.08283	0.94015	0.74613	4.59779	2.68733	1.26299	0.41913	0.38906	0.34013	0.94746	0.73617	0.55756	4.11780	2.53869	1.37288
57090	0.19341	0.16726	0.09600	1.08186	0.93876	0.74576	4.59537	2.68762	1.26256	0.41826	0.38946	0.33933	0.94432	0.73307	0.55281	4.11188	2.53635	1.36965
57260	0.19152	0.16901	0.09556	1.08127	0.93901	0.74575	4.60332	2.68448	1.26188	0.41989	0.38911	0.33928	0.94611	0.73624	0.55130	4.11302	2.53598	1.37017	27.47	6.3	0.00	7.65	0.01275	0.01295	0.01656	0.00796	0.00593	0.00649	0.00470	0.01272	0.01691	0.00689	0.00709	0.00901	0.01496	0.01100	0.01201	0.00222	0.00631	0.00885
57420	0.19282	0.16636	0.09503	1.08032	0.93700	0.74314	4.60701	2.68573	1.25986	0.41769	0.38735	0.33680	0.94795	0.73883	0.55744	4.11922	2.54042	1.37412
57580	0.19553	0.17021	0.09895	1.08464	0.94151	0.74852	4.60419	2.68754	1.26514	0.42165	0.39165	0.34160	0.94720	0.73657	0.55757	4.11800	2.53888	1.37209
57750	0.19271	0.16833	0.09688	1.08080	0.93849	0.74490	4.60133	2.68948	1.25985	0.41824	0.38886	0.33852	0.94704	0.73944	0.55982	4.11933	2.54199	1.37629
57910	0.19837	0.17211	0.09829	1.08628	0.94301	0.74993	4.59523	2.69047	1.26550	0.42160	0.39164	0.34248	0.94778	0.73939	0.55765	4.12016	2.53942	1.37302
58070	0.19458	0.17033	0.09719	1.08294	0.93998	0.74772	4.59812	2.68914	1.26441	0.42070	0.38918	0.34043	0.94771	0.73764	0.55321	4.11186	2.53794	1.37174
58240	0.19320	0.16825	0.09720	1.08060	0.93769	0.74602	4.60159	2.68564	1.26259	0.41936	0.38890	0.33875	0.94572	0.73588	0.55344	4.11424	2.53671	1.37019
58400	0.19154	0.16651	0.09498	1.07904	0.93571	0.74362	4.59277	2.68286	1.25894	0.41697	0.38652	0.33670	0.94571	0.73919	0.55684	4.11401	2.53889	1.37315
58570	0.19269	0.16890	0.09842	1.08275	0.93983	0.74679	4.59411	2.69016	1.26340	0.42063	0.38921	0.33931	0.94989	0.73694	0.55463	4.11412	2.53693	1.37054
58730	0.19310	0.17043	0.09922	1.08237	0.94001	0.74716	4.61033	2.68860	1.26377	0.42196	0.39131	0.34051	0.94869	0.73473	0.55393	4.11407	2.53717	1.37170
58890	0.19568	0.17071	0.09761	1.08235	0.93937	0.74681	4.60155	2.68932	1.26372	0.42019	0.38996	0.34043	0.94852	0.73588	0.55628	4.11364	2.53768	1.37069	27.47	5.9	0.00	7.27	0.01275	0.01295	0.01656	0.00796	0.00592	0.00649	0.00470	0.01272	0.01691	0.00689	0.00709	0.00901	0.01496	0.01100	0.01201	0.00222	0.00631	0.00885
59060	0.19566	0.17225	0.09803	1.08539	0.94194	0.75010	4.60321	2.69188	1.26800	0.42275	0.39124	0.34317	0.95217	0.73760	0.55739	4.11785	2.54055	1.37483
59220	0.19708	0.17094	0.09700	1.08371	0.93928	0.74755	4.60621	2.69139	1.26334	0.42071	0.38928	0.34021	0.94879	0.73705	0.55795	4.11425	2.53879	1.37184
59380	0.19457	0.17076	0.09851	1.08181	0.93898	0.74648	4.60332	2.68853	1.26169	0.41996	0.38729	0.33988	0.94811	0.73690	0.55584	4.11126	2.53679	1.37067
59550	0.19188	0.16686	0.09524	1.07949	0.93749	0.74611	4.59819	2.68538	1.26331	0.41851	0.38664	0.33860	0.94683	0.73569	0.55521	4.11563	2.53876	1.37229
59710	0.19417	0.16880	0.09677	1.08283	0.93919	0.74728	4.59617	2.68717	1.26351	0.41971	0.38816	0.33885	0.94901	0.73706	0.55531	4.11265	2.53601	1.37143
59880	0.19367	0.16730	0.09708	1.08093	0.93700	0.74391	4.60122	2.68487	1.26072	0.41807	0.38721	0.33684	0.94947	0.74038	0.55802	4.11685	2.54056	1.37444
60040	0.19670	0.17143	0.09863	1.08360	0.94019	0.74712	4.61084	2.68988	1.26415	0.42162	0.38981	0.34091	0.95031	0.73941	0.55760	4.11447	2.53817	1.37187
60200	0.19633	0.17094	0.09983	1.08353	0.94166	0.74862	4.60513	2.68999	1.26554	0.42261	0.39152	0.34071	0.94912	0.73879	0.55690	4.11309	2.53943	1.37290
60370	0.19362	0.16890	0.09632	1.08149	0.93859	0.74540	4.60151	2.68778	1.26209	0.41922	0.38810	0.33895	0.94867	0.73642	0.55593	4.11359	2.53776	1.37141
60530	0.19559	0.16867	0.09730	1.08277	0.93886	0.74777	4.60879	2.68789	1.26298	0.41993	0.38927	0.33956	0.94779	0.73509	0.55598	4.11091	2.53610	1.37012	27.41	6.3	0.00	7.29	0.01275	0.01295	0.01656	0.00796	0.00592	0.00649	0.00470	0.01272	0.01691	0.00688	0.00709	0.00901	0.01496	0.01100	0.01201	0.00222	0.00631	0.00885
60700	0.19177	0.16903	0.09913	1.08114	0.94063	0.75062	4.61451	2.69181	1.26822	0.42286	0.39192	0.34326	0.95366	0.73785	0.55978	4.11461	2.54112	1.37562
60860	0.19551	0.17153	0.09750	1.08460	0.94068	0.74774	4.60879	2.68842	1.26234	0.42020	0.38893	0.34007	0.94802	0.73809	0.55767	4.11600	2.53955	1.37372
61020	0.19461	0.16891	0.09959	1.08362	0.93966	0.74839	4.59690	2.68745	1.26293	0.42049	0.39024	0.33942	0.94923	0.73513	0.55283	4.11373	2.53730	1.37156
61190	0.19346	0.16876	0.09626	1.08261	0.93830	0.74597	4.60305	2.68331	1.26235	0.41782	0.38827	0.33831	0.95120	0.73924	0.56247	4.11622	2.54035	1.37508
61350	0.19778	0.16846	0.09995	1.08559	0.94107	0.74896	4.60966	2.69529	1.26632	0.42104	0.39033	0.34077	0.94868	0.73699	0.55472	4.11522	2.53832	1.37218
61510	0.19333	0.16790	0.09682	1.08150	0.93834	0.74534	4.59297	2.68756	1.26166	0.41757	0.38694	0.33762	0.95089	0.73775	0.55736	4.11671	2.54071	1.37525
61680	0.19628	0.17219	0.09809	1.08538	0.94089	0.74819	4.59669	2.68631	1.26335	0.42060	0.39022	0.34051	0.95032	0.73783	0.55611	4.11439	2.53891	1.37194
61840	0.19464	0.16847	0.09677	1.08290	0.93908	0.74658	4.59521	2.68798	1.26376	0.41901	0.38856	0.33922	0.94820	0.73850	0.55625	4.11411	2.53724	1.37183
62010	0.19543	0.17084	0.09761	1.08169	0.93797	0.74695	4.59914	2.68632	1.26137	0.41858	0.38855	0.33832	0.94630	0.73441	0.55680	4.11035	2.53596	1.36961
62170	0.19508	0.16869	0.09740	1.08290	0.93926	0.74824	4.60243	2.69211	1.26658	0.42071	0.39004	0.34027	0.94777	0.73829	0.55678	4.11362	2.53797	1.37214	27.41	6.1	0.00	7.38	0.01275	0.01295	0.01656	0.00796	0.00592	0.00649	0.00470	0.01272	0.01691	0.00688	0.00709	0.00901	0.01496	0.01100	0.01201	0.00222	0.00631	0.00885
62330	0.19383	0.16765	0.09878	1.08228	0.93883	0.74565	4.60149	2.68603	1.26309	0.41898	0.38899	0.33849	0.94779	0.73275	0.55275	4.11301	2.53481	1.36892
62500	0.19607	0.17067	0.09908	1.08481	0.94178	0.74940	4.59661	2.69098	1.26892	0.42275	0.39255	0.34241	0.95029	0.73752	0.55843	4.11854	2.54017	1.37392
62660	0.19534	0.16808	0.09848	1.08344	0.93959	0.74700	4.59701	2.68868	1.26213	0.41956	0.38944	0.33854	0.94614	0.73687	0.55611	4.11373	2.53556	1.37041
62820	0.19498	0.17175	0.10075	1.08529	0.94137	0.75046	4.62001	2.69445	1.26833	0.42313	0.39231	0.34153	0.95089	0.74180	0.55983	4.11876	2.54010	1.37456
62990	0.19620	0.16984	0.09811	1.08300	0.94030	0.74686	4.59221	2.68505	1.26370	0.41960	0.38921	0.33924	0.94651	0.73750	0.55485	4.11423	2.53678	1.37084
63150	0.19477	0.17031	0.09922	1.08417	0.94116	0.74931	4.61433	2.69226	1.26619	0.42117	0.39050	0.34101	0.94654	0.73890	0.55520	4.11677	2.53869	1.37290
63310	0.19501	0.16972	0.09675	1.08228	0.93839	0.74622	4.60836	2.68789	1.26355	0.41849	0.38861	0.33894	0.94522	0.73378	0.55646	4.11384	2.53507	1.36824
63470	0.18924	0.16578	0.09469	1.07952	0.93633	0.74332	4.59452	2.68482	1.25998	0.41700	0.38647	0.33644	0.94954	0.73551	0.55861	4.11605	2.53925	1.37289
63640	0.19510	0.16909	0.09688	1.08263	0.93919	0.74743	4.59911	2.68471	1.26314	0.41993	0.38881	0.33939	0.94650	0.73599	0.55695	4.11478	2.53509	1.37049
63800	0.19292	0.16649	0.09480	1.08013	0.93574	0.74429	4.59877	2.68531	1.26097	0.41778	0.38837	0.33719	0.95103	0.73488	0.55757	4.11728	2.53911	1.37247	27.47	6.1	0.00	7.25	0.01275	0.01295	0.01656	0.00796	0.00592	0.00649	0.00470	0.01272	0.01691	0.00689	0.00709	0.00901	0.01496	0.01100	0.01201	0.00222	0.00631	0.00885
63970	0.19397	0.16801	0.09747	1.08245	0.93917	0.74656	4.59978	2.68770	1.26341	0.41999	0.38947	0.33916	0.94824	0.73799	0.55859	4.11352	2.53827	1.37170
64130	0.19412	0.17201	0.09842	1.08352	0.93975	0.74751	4.60126	2.68876	1.26347	0.42007	0.39005	0.34054	0.94704	0.73567	0.55675	4.11175	2.53672	1.37101
64290	0.19385	0.16645	0.09671	1.08198	0.93740	0.74449	4.59974	2.68638	1.26252	0.41916	0.38838	0.33755	0.94990	0.74008	0.56025	4.11722	2.54137	1.37500
64460	0.19592	0.16911	0.09881	1.08591	0.94202	0.74996	4.60075	2.68977	1.26675	0.42241	0.39253	0.34210	0.95040	0.73827	0.55732	4.11512	2.53965	1.37270
64620	0.19340	0.16920	0.09839	1.08347	0.93983	0.74815	4.60983	2.69027	1.26493	0.42091	0.39047	0.34112	0.94799	0.73671	0.55634	4.11340	2.53775	1.37133
64790	0.19533	0.16698	0.09506	1.08196	0.93843	0.74550	4.59866	2.68547	1.26143	0.41863	0.38865	0.33910	0.94419	0.73390	0.55299	4.10992	2.53452	1.36837
64950	0.19294	0.16843	0.09962	1.08083	0.93967	0.74837	4.60166	2.68865	1.26538	0.42071	0.39070	0.34115	0.94785	0.73892	0.55597	4.11921	2.53845	1.37230
65110	0.19284	0.16893	0.09613	1.08263	0.93818	0.74621	4.60469	2.68805	1.26141	0.41911	0.38964	0.33931	0.94543	0.73583	0.55459	4.11462	2.53519	1.36844
65280	0.19671	0.17222	0.09833	1.08468	0.94233	0.74942	4.60238	2.69241	1.26803	0.42259	0.39160	0.34278	0.95036	0.73797	0.55890	4.11800	2.54021	1.37378
65440	0.19505	0.17090	0.09726	1.08390	0.94044	0.74784	4.60003	2.68695	1.26557	0.41887	0.38878	0.33986	0.94784	0.73575	0.55759	4.11361	2.53543	1.36960	27.41	6.0	0.00	7.32	0.01275	0.01295	0.01656	0.00796	0.00593	0.00649	0.00470	0.01272	0.01691	0.00688	0.00709	0.00901	0.01496	0.01100	0.01201	0.00222	0.00631	0.00885
65600	0.19507	0.16932	0.09889	1.08526	0.94301	0.75109	4.60393	2.69160	1.26605	0.42194	0.39275	0.34256	0.95364	0.73985	0.55840	4.11936	2.53989	1.37356
65770	0.19348	0.17076	0.09715	1.08394	0.94077	0.74696	4.60932	2.68886	1.26393	0.41948	0.38964	0.33959	0.94714	0.73652	0.55539	4.11460	2.53527	1.36989
65930	0.19558	0.16973	0.10044	1.08408	0.94165	0.74993	4.59884	2.69094	1.26593	0.42133	0.39113	0.34275	0.95093	0.73842	0.55871	4.11947	2.53978	1.37237
66090	0.19640	0.16811	0.09661	1.08255	0.93895	0.74680	4.60072	2.68919	1.26269	0.41957	0.38900	0.33903	0.94689	0.73478	0.55426	4.11576	2.53593	1.36907
66260	0.19268	0.16995	0.09688	1.08295	0.94030	0.74840	4.61004	2.68871	1.26406	0.41996	0.38998	0.34055	0.94948	0.73698	0.55711	4.11466	2.53683	1.37052
66420	0.19278	0.16672	0.09692	1.08076	0.93925	0.74681	4.60176	2.68550	1.26220	0.41929	0.38793	0.33927	0.94769	0.73653	0.55589	4.11305	2.53565	1.36953
66580	0.19236	0.16606	0.09542	1.07989	0.93680	0.74355	4.60625	2.68458	1.25811	0.41712	0.38739	0.33729	0.94950	0.73721	0.56024	4.11399	2.53932	1.37431
66750	0.19571	0.16857	0.09818	1.08448	0.94129	0.74749	4.60361	2.68993	1.26320	0.42019	0.39019	0.34103	0.94948	0.73561	0.55806	4.11687	2.53761	1.37039
66910	0.19535	0.17201	0.09740	1.08453	0.94156	0.75000	4.60122	2.69178	1.26590	0.42160	0.39230	0.34216	0.95017	0.73919	0.55605	4.11969	2.53917	1.37296
67070	0.19254	0.16818	0.09725	1.08262	0.93974	0.74681	4.59991	2.68957	1.26370	0.41983	0.38967	0.33977	0.94559	0.73292	0.55523	4.11136	2.53575	1.36893	27.47	6.0	0.00	7.28	0.01275	0.01295	0.01656	0.00796	0.00593	0.00649	0.00470	0.01272	0.01691	0.00689	0.00709	0.00901	0.01496	0.01100	0.01201	0.00222	0.00631	0.00885
67240	0.19490	0.17113	0.09914	1.08465	0.94230	0.75029	4.60388	2.69438	1.26841	0.42313	0.39130	0.34215	0.95134	0.73827	0.55640	4.11744	2.53981	1.37398
67400	0.19695	0.17071	0.09588	1.08342	0.93927	0.74664	4.59871	2.68892	1.26419	0.41978	0.38817	0.33925	0.94849	0.73677	0.55317	4.11169	2.53478	1.36897
67560	0.19393	0.17028	0.09838	1.08427	0.94277	0.74985	4.60352	2.69211	1.26720	0.42261	0.39171	0.34174	0.95067	0.73974	0.55670	4.11899	2.53960	1.37267
67730	0.19464	0.16869	0.09788	1.08320	0.93895	0.74601	4.60222	2.68810	1.26443	0.41928	0.38950	0.33934	0.94708	0.73858	0.55909	4.11352	2.53917	1.37295
67890	0.19640	0.17163	0.09845	1.08480	0.94277	0.74927	4.60081	2.69020	1.26713	0.42134	0.39118	0.34081	0.95037	0.73789	0.55616	4.11800	2.53851	1.37234
68050	0.19390	0.16922	0.09799	1.08230	0.93872	0.74536	4.59850	2.68716	1.26358	0.41826	0.38827	0.33804	0.94414	0.73486	0.55280	4.11451	2.53429	1.36735
68210	0.18990	0.16782	0.09666	1.07922	0.93871	0.74731	4.61198	2.68890	1.26532	0.41987	0.38984	0.33953	0.94842	0.73641	0.55718	4.11495	2.53740	1.37051
68380	0.19370	0.16657	0.09629	1.08185	0.93938	0.74653	4.59687	2.68570	1.26142	0.41875	0.38763	0.33796	0.94774	0.73718	0.55447	4.11241	2.53519	1.36923
68540	0.19292	0.16675	0.09564	1.07981	0.93793	0.74443	4.58550	2.68319	1.26153	0.41681	0.38618	0.33636	0.94896	0.73774	0.55692	4.11706	2.53986	1.37383
68710	0.19649	0.17187	0.09955	1.08518	0.94076	0.74822	4.60995	2.68873	1.26541	0.42070	0.39032	0.33966	0.94982	0.73754	0.55738	4.11281	2.53880	1.37082	27.47	6.1	0.00	7.27	0.01275	0.01295	0.01656	0.00796	0.00592	0.00649	0.00470	0.01272	0.01691	0.00688	0.00709	0.00901	0.01496	0.01100	0.01201	0.00222	0.00631	0.00885
68870	0.19185	0.17026	0.09897	1.08198	0.93954	0.74651	4.60699	2.68655	1.26451	0.42023	0.39029	0.33875	0.95089	0.73593	0.55501	4.11209	2.53736	1.37023
69030	0.19354	0.16764	0.09771	1.08201	0.93815	0.74458	4.60128	2.68970	1.26266	0.41869	0.38934	0.33786	0.94756	0.73694	0.55833	4.11258	2.53531	1.36881
69200	0.19635	0.17004	0.09885	1.08369	0.93980	0.74740	4.60825	2.68886	1.26579	0.42133	0.39107	0.33898	0.94903	0.73764	0.55726	4.11236	2.53878	1.37077
69360	0.19417	0.16847	0.09847	1.08220	0.93865	0.74572	4.60471	2.68793	1.26288	0.41892	0.38864	0.33810	0.95019	0.73708	0.55524	4.11092	2.53600	1.36885
69520	0.19415	0.16996	0.09713	1.08452	0.94099	0.74822	4.61158	2.68799	1.26410	0.42132	0.39061	0.33954	0.94862	0.73817	0.55783	4.11485	2.53904	1.37151
69690	0.19523	0.17040	0.09702	1.08122	0.93762	0.74439	4.60449	2.68607	1.26375	0.41761	0.38751	0.33667	0.94835	0.73500	0.55462	4.10606	2.53370	1.36757
69850	0.19503	0.17220	0.10022	1.08494	0.94207	0.74999	4.61531	2.69592	1.27025	0.42163	0.39337	0.34137	0.95235	0.73873	0.55692	4.11690	2.54108	1.37333
70010	0.19463	0.16983	0.09792	1.08410	0.93950	0.74600	4.59958	2.68936	1.26478	0.41987	0.39055	0.33868	0.94858	0.73890	0.56002	4.11258	2.53893	1.37182
70180	0.19500	0.17020	0.09798	1.08199	0.93810	0.74585	4.60717	2.68655	1.26274	0.41834	0.38965	0.33772	0.94595	0.73813	0.55426	4.10998	2.53562	1.36883
70340	0.19123	0.16843	0.09655	1.08032	0.93602	0.74349	4.60464	2.68564	1.26170	0.41829	0.38778	0.33666	0.94514	0.73548	0.55436	4.11040	2.53404	1.36758	27.47	5.9	0.00	7.30	0.01275	0.01295	0.01656	0.00796	0.00592	0.00649	0.00470	0.01272	0.01691	0.00689	0.00709	0.00901	0.01496	0.01100	0.01201	0.00222	0.00631	0.00885
70500	0.19532	0.17207	0.10060	1.08466	0.94192	0.74911	4.60413	2.68985	1.26853	0.42295	0.39268	0.34165	0.95219	0.74020	0.55807	4.11803	2.54039	1.37367
70670	0.19568	0.16788	0.09824	1.08295	0.93899	0.74594	4.60218	2.68802	1.26419	0.41927	0.38982	0.33832	0.94893	0.73787	0.55529	4.11056	2.53777	1.37153
70830	0.19341	0.16767	0.09759	1.08151	0.93891	0.74414	4.59835	2.68888	1.26349	0.41899	0.38984	0.33751	0.94616	0.73516	0.55313	4.11178	2.53610	1.36954
70990	0.19419	0.16832	0.09561	1.08118	0.93739	0.74421	4.60222	2.68753	1.26128	0.41925	0.38937	0.33718	0.94916	0.73501	0.55711	4.11117	2.53699	1.37170
71160	0.19432	0.16892	0.09758	1.08328	0.93876	0.74530	4.60786	2.68919	1.26367	0.42016	0.38997	0.33787	0.94870	0.73830	0.55715	4.11239	2.53689	1.37075
71320	0.19456	0.16970	0.09645	1.08126	0.93713	0.74398	4.60880	2.68654	1.26118	0.41794	0.38952	0.33757	0.94917	0.73660	0.55555	4.11382	2.53843	1.37231
71490	0.19397	0.17046	0.09919	1.08323	0.93973	0.74650	4.60985	2.69076	1.26429	0.42007	0.39039	0.33954	0.95152	0.73976	0.56008	4.11665	2.53957	1.37304
71650	0.19619	0.17377	0.09935	1.08441	0.94122	0.74816	4.60836	2.69167	1.26756	0.42196	0.39174	0.34050	0.95134	0.73862	0.55532	4.11687	2.53782	1.37138
71820	0.19458	0.16804	0.09854	1.08249	0.93858	0.74686	4.60750	2.68987	1.26643	0.42095	0.39073	0.33961	0.94889	0.73770	0.55713	4.11416	2.53831	1.37183
71980	0.19524	0.17128	0.09681	1.08384	0.93991	0.74717	4.60534	2.68949	1.26346	0.41962	0.38896	0.33804	0.94621	0.73489	0.55339	4.11347	2.53635	1.37076	27.47	6.0	0.00	7.66	0.01275	0.01295	0.01656	0.00796	0.00592	0.00649	0.00470	0.01272	0.01691	0.00689	0.00709	0.00901	0.01496	0.01100	0.01201	0.00222	0.00631	0.00885
72140	0.19475	0.16986	0.09871	1.08195	0.94065	0.74892	4.61196	2.69187	1.26710	0.42326	0.39296	0.34040	0.94907	0.73728	0.55563	4.11750	2.53997	1.37409
72310	0.19403	0.17033	0.09746	1.08386	0.93927	0.74683	4.59967	2.68576	1.26342	0.41970	0.39012	0.33776	0.94902	0.73519	0.55641	4.11584	2.53859	1.37316
72470	0.19705	0.17001	0.09907	1.08464	0.94083	0.74775	4.60271	2.68973	1.26447	0.42108	0.39150	0.33967	0.94874	0.73635	0.55398	4.11601	2.53751	1.37181
72630	0.19270	0.16861	0.09646	1.08227	0.93747	0.74469	4.58931	2.68755	1.26003	0.41769	0.38709	0.33699	0.95070	0.73932	0.55731	4.12005	2.54121	1.37529
72800	0.19669	0.17181	0.09979	1.08581	0.94162	0.74949	4.60224	2.68958	1.26520	0.42130	0.39172	0.33938	0.94877	0.73596	0.55759	4.11728	2.53776	1.37165
72960	0.19679	0.17024	0.09884	1.08356	0.94006	0.74736	4.61330	2.68872	1.26368	0.42109	0.39018	0.33924	0.94621	0.73459	0.55382	4.11822	2.53664	1.37179
73130	0.19544	0.17067	0.09850	1.08323	0.94003	0.74775	4.60191	2.68882	1.26438	0.42088	0.39055	0.33875	0.94950	0.73318	0.55696	4.11380	2.53676	1.37100
73290	0.19603	0.17137	0.09901	1.08557	0.94267	0.75093	4.60343	2.69315	1.26762	0.42295	0.39243	0.34124	0.95044	0.73777	0.55835	4.12138	2.53969	1.37462
73450	0.19578	0.16994	0.09674	1.08401	0.93977	0.74694	4.60867	2.68717	1.26379	0.42075	0.39082	0.33862	0.94683	0.73668	0.55792	4.11667	2.53913	1.37343
73620	0.19613	0.17095	0.09852	1.08365	0.94013	0.74758	4.59868	2.68865	1.26395	0.42004	0.39050	0.33926	0.94879	0.73515	0.55299	4.11679	2.53550	1.37057	27.47	6.2	0.00	6.38	0.01275	0.01295	0.01656	0.00796	0.00592	0.00649	0.00470	0.01272	0.01691	0.00689	0.00709	0.00901	0.01496	0.01100	0.01201	0.00222	0.00631	0.00885
73780	0.19355	0.16918	0.09610	1.08133	0.93842	0.74548	4.60796	2.68482	1.26105	0.41908	0.38877	0.33720	0.94962	0.73586	0.55865	4.11844	2.53757	1.37370
73950	0.19470	0.17091	0.09840	1.08287	0.93944	0.74705	4.60330	2.68658	1.26389	0.42010	0.39020	0.33839	0.94794	0.73777	0.55628	4.11325	2.53649	1.37185
74110	0.19420	0.16989	0.09650	1.08203	0.93720	0.74590	4.61068	2.68626	1.26156	0.41796	0.38773	0.33619	0.95153	0.73858	0.55800	4.11761	2.53937	1.37480
74270	0.19829	0.17158	0.09869	1.08505	0.94042	0.74788	4.60663	2.68877	1.26625	0.41972	0.39060	0.33899	0.95019	0.73579	0.55589	4.11159	2.53632	1.37066
74440	0.19991	0.17244	0.10214	1.08687	0.94337	0.75262	4.61520	2.69653	1.27077	0.42358	0.39373	0.34250	0.95354	0.74247	0.56052	4.12304	2.54012	1.37506
74600	0.19576	0.17045	0.09837	1.08497	0.94079	0.74775	4.60684	2.69161	1.26664	0.42034	0.39050	0.33957	0.95004	0.73744	0.55890	4.11822	2.53865	1.37352
74770	0.19558	0.16984	0.09741	1.08348	0.93974	0.74665	4.60858	2.68864	1.26380	0.41990	0.38933	0.33890	0.94691	0.73850	0.55449	4.11314	2.53572	1.36991
74930	0.19413	0.16764	0.09527	1.07975	0.93619	0.74348	4.59763	2.68399	1.26192	0.41630	0.38705	0.33621	0.94797	0.73641	0.55388	4.11297	2.53703	1.37135
75090	0.19430	0.16894	0.09658	1.08251	0.93927	0.74693	4.60966	2.68815	1.26450	0.41937	0.39015	0.33848	0.94799	0.73529	0.55439	4.11712	2.53686	1.37287
75260	0.19506	0.17136	0.09893	1.08421	0.94119	0.74786	4.60457	2.69017	1.26593	0.42014	0.39107	0.33951	0.95272	0.73698	0.55801	4.11538	2.53701	1.37233	27.47	6.2	0.00	5.53	0.01275	0.01295	0.01656	0.00796	0.00592	0.00649	0.00470	0.01272	0.01691	0.00689	0.00709	0.00901	0.01496	0.01100	0.01201	0.00222	0.00631	0.00885
75420	0.19597	0.17104	0.09704	1.08348	0.93954	0.74714	4.60493	2.68509	1.26237	0.41887	0.38900	0.33832	0.94975	0.74082	0.55936	4.11781	2.54066	1.37620
75590	0.19770	0.17181	0.10131	1.08746	0.94303	0.74989	4.60608	2.69346	1.26765	0.42235	0.39315	0.34132	0.95071	0.73812	0.55950	4.11765	2.53919	1.37347
75750	0.19556	0.17090	0.10048	1.08437	0.94207	0.75037	4.60355	2.69385	1.26899	0.42280	0.39286	0.34162	0.95150	0.73851	0.55835	4.11909	2.53952	1.37323
75910	0.19829	0.16948	0.09886	1.08543	0.94049	0.74814	4.60583	2.68891	1.26276	0.41984	0.38957	0.33972	0.94611	0.73567	0.55447	4.11267	2.53575	1.37034
76080	0.19531	0.17064	0.10030	1.08507	0.94309	0.75043	4.60974	2.69224	1.26750	0.42190	0.39243	0.34211	0.95132	0.73862	0.55709	4.11881	2.53937	1.37375
76240	0.19586	0.16986	0.09768	1.08421	0.94036	0.74774	4.58788	2.68898	1.26394	0.41939	0.38930	0.33943	0.94456	0.73615	0.55416	4.11295	2.53380	1.37026
76400	0.19302	0.16601	0.09519	1.08040	0.93644	0.74444	4.60616	2.68371	1.26143	0.41717	0.38704	0.33683	0.94912	0.73899	0.55737	4.11781	2.54084	1.37553
76560	0.19688	0.17090	0.09978	1.08657	0.94235	0.74969	4.60840	2.68937	1.26703	0.42120	0.39212	0.34052	0.94943	0.73741	0.55561	4.11682	2.53727	1.37261
76730	0.19614	0.16700	0.09685	1.08287	0.93790	0.74520	4.60565	2.68898	1.26118	0.41907	0.38872	0.33831	0.94967	0.73878	0.56029	4.11881	2.53955	1.37631
76890	0.19604	0.17187	0.10002	1.08591	0.94109	0.74969	4.61713	2.69234	1.26492	0.42209	0.39128	0.34059	0.94839	0.73753	0.55536	4.11556	2.53577	1.37222	27.47	6.1	0.00	7.36	0.01275	0.01295	0.01656	0.00796	0.00592	0.00649	0.00470	0.01272	0.01691	0.00689	0.00709	0.00901	0.01496	0.01100	0.01201	0.00222	0.00631	0.00885
77060	0.19499	0.16967	0.09771	1.08476	0.94069	0.74945	4.60505	2.69202	1.26634	0.42109	0.39186	0.34056	0.95002	0.73854	0.55543	4.11617	2.53680	1.37263
77220	0.19548	0.16843	0.09693	1.08305	0.93975	0.74813	4.60513	2.68865	1.26289	0.42037	0.38955	0.33946	0.94629	0.73395	0.55413	4.11539	2.53466	1.36983
77380	0.19411	0.17068	0.09981	1.08500	0.94209	0.75118	4.60773	2.69190	1.26709	0.42370	0.39150	0.34204	0.95072	0.73848	0.55604	4.11904	2.53872	1.37374
77550	0.19282	0.16973	0.09753	1.08357	0.94063	0.74888	4.60617	2.68783	1.26368	0.42006	0.39059	0.34018	0.94680	0.73533	0.55635	4.11208	2.53541	1.37129
77710	0.19844	0.17159	0.10088	1.08590	0.94270	0.75191	4.60585	2.69177	1.26867	0.42366	0.39374	0.34296	0.95121	0.73991	0.55974	4.11739	2.53908	1.37487
77870	0.19486	0.17004	0.09881	1.08448	0.94060	0.74964	4.60289	2.68912	1.26333	0.42088	0.39024	0.34026	0.94867	0.73682	0.55527	4.11302	2.53575	1.37076
78040	0.19566	0.17141	0.09912	1.08584	0.94278	0.75254	4.60715	2.68932	1.26830	0.42400	0.39323	0.34241	0.95186	0.73963	0.55679	4.11799	2.53931	1.37451
78200	0.19501	0.16962	0.09791	1.08430	0.94100	0.74898	4.59144	2.68785	1.26390	0.42118	0.39073	0.34065	0.94874	0.73666	0.55199	4.11285	2.53520	1.37095
78360	0.19246	0.16678	0.09474	1.08096	0.93713	0.74577	4.59454	2.68203	1.26064	0.41795	0.38854	0.33807	0.94848	0.73738	0.55678	4.11927	2.53906	1.37466
78530	0.19670	0.16818	0.09638	1.08603	0.94125	0.74955	4.59178	2.69096	1.26386	0.42092	0.39073	0.34022	0.94867	0.74143	0.55750	4.11865	2.53894	1.37364	27.47	6.1	0.00	7.34	0.01275	0.01294	0.01656	0.00796	0.00592	0.00649	0.00470	0.01272	0.01691	0.00688	0.00709	0.00901	0.01496	0.01100	0.01201	0.00222	0.00631	0.00885
78690	0.19499	0.16928	0.09895	1.08446	0.94029	0.74985	4.59330	2.68769	1.26434	0.42162	0.39066	0.34071	0.94819	0.73621	0.55366	4.11843	2.53768	1.37262
78850	0.19513	0.16597	0.09683	1.08232	0.93871	0.74734	4.60182	2.68491	1.26148	0.41880	0.38851	0.33842	0.94561	0.73245	0.55363	4.11201	2.53468	1.36952
79020	0.19226	0.16836	0.09844	1.08160	0.94077	0.75190	4.60319	2.69193	1.26725	0.42361	0.39323	0.34288	0.95029	0.73762	0.55568	4.12031	2.54104	1.37598
79180	0.19725	0.17064	0.09779	1.08617	0.94052	0.74958	4.60110	2.68887	1.26436	0.42120	0.39036	0.34036	0.94786	0.73476	0.55305	4.11008	2.53591	1.37055
79340	0.19385	0.16918	0.09849	1.08166	0.94066	0.75051	4.60565	2.69074	1.26711	0.42329	0.39283	0.34237	0.95040	0.73822	0.55614	4.11732	2.53908	1.37460
79510	0.19573	0.16682	0.09674	1.08420	0.93911	0.74790	4.60081	2.68561	1.26266	0.41979	0.39018	0.34067	0.94566	0.73496	0.55701	4.11555	2.53626	1.37071
79670	0.19206	0.16925	0.09797	1.08305	0.94106	0.75017	4.60699	2.69113	1.26691	0.42288	0.39278	0.34182	0.94854	0.73706	0.55674	4.11599	2.53919	1.37467
79830	0.19522	0.16676	0.09849	1.08473	0.93945	0.74944	4.59929	2.68927	1.26182	0.42008	0.38997	0.33986	0.94821	0.73274	0.55212	4.11340	2.53634	1.37118
80000	0.19531	0.17057	0.09859	1.08609	0.94286	0.75209	4.61353	2.69308	1.26547	0.42342	0.39258	0.34218	0.95065	0.73699	0.55603	4.11738	2.53986	1.37492
80160	0.19521	0.16853	0.09721	1.08487	0.94051	0.74910	4.59953	2.68838	1.26332	0.42140	0.38917	0.34020	0.94860	0.73613	0.55395	4.11895	2.53713	1.37217	27.47	6.0	0.00	7.39	0.01275	0.01295	0.01656	0.00796	0.00592	0.00649	0.00470	0.01272	0.01691	0.00689	0.00709	0.00901	0.01496	0.01100	0.01201	0.00222	0.00631	0.00885
80320	0.19308	0.17022	0.09727	1.08374	0.93990	0.75087	4.59805	2.68897	1.26614	0.42373	0.39178	0.34229	0.94688	0.73745	0.55867	4.11723	2.53834	1.37380
80490	0.19657	0.17047	0.09772	1.08425	0.93938	0.74919	4.59317	2.68909	1.26285	0.42219	0.39008	0.34059	0.94784	0.73604	0.55631	4.11646	2.53528	1.37212
80650	0.19528	0.17007	0.09625	1.08511	0.94161	0.75041	4.59620	2.68871	1.26627	0.42349	0.39106	0.34219	0.95004	0.73652	0.55854	4.11856	2.53862	1.37422
80810	0.19401	0.16803	0.09650	1.08369	0.93914	0.74881	4.59559	2.68515	1.26473	0.42127	0.39014	0.34029	0.94749	0.73498	0.55454	4.11397	2.53565	1.37173
80980	0.19389	0.16962	0.09715	1.08585	0.94194	0.75133	4.60621	2.68866	1.26529	0.42379	0.39135	0.34223	0.94886	0.73793	0.55857	4.11768	2.53980	1.37543
81140	0.19531	0.16899	0.09633	1.08418	0.94030	0.74900	4.60570	2.68954	1.26228	0.42245	0.38992	0.34059	0.94811	0.73688	0.55778	4.11779	2.53637	1.37274
81300	0.19576	0.17036	0.09904	1.08626	0.94155	0.75169	4.59805	2.69090	1.26622	0.42383	0.39148	0.34197	0.95109	0.73610	0.55918	4.11856	2.53901	1.37518
81470	0.19648	0.16844	0.09533	1.08464	0.94026	0.74875	4.59043	2.68654	1.26383	0.42185	0.39039	0.34070	0.94709	0.73529	0.55319	4.11712	2.53562	1.37189
81630	0.19557	0.17167	0.09817	1.08622	0.94356	0.75196	4.60596	2.69027	1.26495	0.42447	0.39319	0.34283	0.94998	0.73804	0.55843	4.12033	2.54039	1.37603
81790	0.19610	0.17067	0.09636	1.08459	0.93993	0.74872	4.59837	2.68625	1.26078	0.42120	0.38992	0.33995	0.94752	0.73464	0.55399	4.11282	2.53688	1.37188	27.47	5.9	0.00	7.34	0.01275	0.01295	0.01655	0.00796	0.00592	0.00649	0.00470	0.01272	0.01691	0.00688	0.00709	0.00901	0.01496	0.01100	0.01201	0.00222	0.00631	0.00885
81960	0.19618	0.17308	0.10189	1.08727	0.94392	0.75236	4.61482	2.69277	1.26829	0.42570	0.39394	0.34307	0.95075	0.73997	0.55777	4.11852	2.54139	1.37709
82120	0.19662	0.17034	0.09731	1.08654	0.94095	0.74970	4.60234	2.68923	1.26510	0.42277	0.39081	0.34017	0.94582	0.73482	0.55473	4.11332	2.53749	1.37335
82280	0.19666	0.17068	0.09981	1.08639	0.94217	0.75083	4.60961	2.69394	1.26742	0.42378	0.39203	0.34221	0.94907	0.73708	0.55909	4.11752	2.54042	1.37575
82450	0.19650	0.16889	0.09729	1.08557	0.94011	0.74867	4.59869	2.68783	1.26306	0.42194	0.39019	0.33992	0.94759	0.73682	0.55502	4.11592	2.53864	1.37494
82610	0.19452	0.17059	0.09711	1.08563	0.94064	0.74959	4.60643	2.68829	1.26381	0.42302	0.39105	0.34081	0.94730	0.73519	0.55715	4.11116	2.53783	1.37251
82770	0.19371	0.16920	0.09531	1.08308	0.93878	0.74741	4.59559	2.68631	1.26247	0.42126	0.39072	0.34047	0.94558	0.73242	0.55309	4.11558	2.53585	1.37081
82940	0.19181	0.16941	0.09779	1.08169	0.94096	0.75073	4.60194	2.69066	1.26689	0.42446	0.39333	0.34349	0.95007	0.73844	0.55412	4.11592	2.54052	1.37522
83100	0.19625	0.16973	0.09800	1.08512	0.93987	0.74937	4.60509	2.68652	1.26388	0.42223	0.39122	0.34040	0.94378	0.73376	0.55341	4.11393	2.53690	1.37247
83260	0.19320	0.17001	0.09750	1.08333	0.94107	0.75126	4.61503	2.69060	1.26536	0.42491	0.39291	0.34291	0.95145	0.73860	0.55726	4.11531	2.54001	1.37652
83430	0.19600	0.17091	0.09591	1.08502	0.93991	0.74873	4.59855	2.68727	1.26203	0.42107	0.39145	0.33937	0.94576	0.73616	0.55550	4.11214	2.53494	1.37256	27.47	6.0	0.00	7.32	0.01275	0.01295	0.01656	0.00796	0.00592	0.00649	0.00470	0.01272	0.01691	0.00688	0.00709	0.00901	0.01496	0.01100	0.01201	0.00222	0.00631	0.00885
83590	0.19212	0.17075	0.09860	1.08313	0.94181	0.75191	4.60014	2.69162	1.26671	0.42513	0.39427	0.34311	0.95181	0.73959	0.55983	4.11728	2.54064	1.37640
83750	0.19610	0.16801	0.09729	1.08613	0.94136	0.74943	4.60314	2.68673	1.26369	0.42122	0.39137	0.34076	0.94782	0.73865	0.55784	4.11679	2.53991	1.37489
83920	0.19487	0.17063	0.09700	1.08497	0.94095	0.74925	4.59512	2.68769	1.26460	0.42186	0.39177	0.34159	0.94830	0.73722	0.55640	4.11220	2.53725	1.37301
84080	0.19195	0.16771	0.09665	1.08292	0.93816	0.74606	4.59682	2.68495	1.25935	0.42004	0.39034	0.33845	0.94871	0.73778	0.55823	4.11330	2.54028	1.37619
84250	0.19666	0.17092	0.09790	1.08673	0.94188	0.74998	4.59898	2.69104	1.26391	0.42289	0.39124	0.34144	0.94746	0.73505	0.55771	4.11236	2.53710	1.37304
84410	0.19636	0.17071	0.09837	1.08613	0.94270	0.75098	4.61015	2.69008	1.26690	0.42345	0.39321	0.34270	0.94831	0.74045	0.55668	4.11679	2.54012	1.37553
84570	0.19516	0.17144	0.09700	1.08536	0.94050	0.74941	4.59772	2.68918	1.26288	0.42242	0.39199	0.34080	0.94901	0.73627	0.55778	4.11513	2.53848	1.37443
84740	0.19562	0.17128	0.09890	1.08534	0.94123	0.74981	4.59281	2.68933	1.26345	0.42367	0.39203	0.34118	0.94737	0.73578	0.55690	4.11518	2.53833	1.37429
84900	0.19550	0.17128	0.09614	1.08442	0.93840	0.74724	4.59725	2.68381	1.26154	0.42060	0.39123	0.33921	0.94862	0.73940	0.55898	4.11773	2.54179	1.37786
85070	0.19729	0.17334	0.09973	1.08829	0.94298	0.75090	4.60289	2.69019	1.26580	0.42320	0.39173	0.34192	0.94752	0.73669	0.55698	4.11312	2.53801	1.37405	27.53	6.0	0.00	7.35	0.01275	0.01295	0.01655	0.00796	0.00592	0.00649	0.00470	0.01272	0.01691	0.00688	0.00709	0.00901	0.01496	0.01100	0.01201	0.00222	0.00631	0.00885
85230	0.19686	0.17151	0.09915	1.08827	0.94426	0.75261	4.60777	2.69300	1.26654	0.42524	0.39330	0.34311	0.95061	0.74033	0.55959	4.11760	2.54004	1.37603
85390	0.19528	0.17012	0.09782	1.08707	0.94101	0.74969	4.61262	2.68829	1.26369	0.42269	0.39077	0.34110	0.94893	0.73622	0.55538	4.11577	2.53870	1.37507
85560	0.19576	0.16806	0.09738	1.08531	0.94094	0.75026	4.59260	2.68882	1.26241	0.42234	0.38998	0.34136	0.94776	0.73851	0.55348	4.11157	2.53755	1.37239
85720	0.19505	0.17058	0.09472	1.08428	0.93804	0.74787	4.59700	2.68391	1.26184	0.42133	0.38961	0.33969	0.94697	0.73812	0.55707	4.11406	2.53997	1.37557
85890	0.19453	0.17164	0.09872	1.08670	0.94091	0.74932	4.60311	2.68609	1.26423	0.42319	0.39050	0.34142	0.94863	0.73736	0.55739	4.11555	2.53873	1.37395
86050	0.19604	0.17040	0.09783	1.08598	0.94061	0.75017	4.59899	2.68812	1.26553	0.42294	0.39138	0.34125	0.94659	0.73677	0.55413	4.11306	2.53789	1.37294
86210	0.19436	0.16985	0.09689	1.08485	0.94102	0.74888	4.59910	2.68623	1.26258	0.42201	0.39069	0.34020	0.95064	0.74150	0.56042	4.11666	2.54201	1.37823
86380	0.19800	0.17154	0.09973	1.08935	0.94410	0.75222	4.59841	2.69143	1.26710	0.42528	0.39355	0.34377	0.95059	0.73699	0.55906	4.11500	2.54009	1.37601
86540	0.19636	0.17087	0.09854	1.08606	0.94173	0.75077	4.59307	2.68988	1.26385	0.42387	0.39262	0.34237	0.94862	0.73779	0.55575	4.11738	2.53897	1.37523
86710	0.19563	0.16939	0.09917	1.08549	0.94041	0.74860	4.60378	2.68359	1.26256	0.42157	0.39031	0.34063	0.94700	0.73593	0.55581	4.11064	2.53750	1.37271	27.53	6.0	0.00	7.33	0.01275	0.01295	0.01655	0.00796	0.00592	0.00649	0.00470	0.01272	0.01691	0.00688	0.00709	0.00901	0.01496	0.01100	0.01201	0.00222	0.00631	0.00885
86870	0.19415	0.16813	0.09724	1.08436	0.94181	0.75079	4.60266	2.69032	1.26521	0.42373	0.39231	0.34209	0.94818	0.73628	0.55339	4.11561	2.53946	1.37466
87030	0.19599	0.16941	0.09759	1.08581	0.94092	0.74941	4.59406	2.68745	1.26428	0.42274	0.39143	0.34100	0.94734	0.73583	0.55475	4.11312	2.53751	1.37320
87200	0.19617	0.17115	0.09780	1.08831	0.94413	0.75204	4.60276	2.69040	1.26600	0.42495	0.39440	0.34316	0.95022	0.73933	0.55820	4.11539	2.54149	1.37642
87360	0.19738	0.17098	0.09539	1.08643	0.94177	0.74866	4.59355	2.68867	1.26227	0.42256	0.39046	0.34017	0.94393	0.73428	0.55343	4.11158	2.53741	1.37321
87520	0.19549	0.16869	0.09849	1.08798	0.94434	0.75143	4.60547	2.68884	1.26636	0.42490	0.39334	0.34350	0.94715	0.73864	0.55722	4.11855	2.54185	1.37601
87690	0.19533	0.16918	0.09616	1.08683	0.94121	0.74882	4.59583	2.68428	1.26272	0.42182	0.39148	0.34060	0.94534	0.73434	0.55410	4.11340	2.53772	1.37281
87850	0.19589	0.16785	0.09789	1.08724	0.94230	0.75096	4.59969	2.69075	1.26401	0.42387	0.39352	0.34261	0.94962	0.73490	0.55609	4.11860	2.54108	1.37623
88010	0.19533	0.16890	0.09751	1.08650	0.94133	0.74924	4.59240	2.68779	1.26222	0.42212	0.39201	0.34103	0.94410	0.73267	0.55486	4.11335	2.53794	1.37313
88180	0.19571	0.17154	0.09704	1.08798	0.94318	0.75099	4.59760	2.69000	1.26401	0.42355	0.39374	0.34252	0.94664	0.73884	0.55660	4.11434	2.53995	1.37527
88340	0.19455	0.17082	0.09838	1.08545	0.94147	0.74874	4.59545	2.68482	1.26160	0.42250	0.39259	0.34085	0.94614	0.73436	0.55416	4.10831	2.53670	1.37121	27.53	6.1	0.00	7.40	0.01275	0.01295	0.01655	0.00796	0.00592	0.00649	0.00470	0.01272	0.01691	0.00688	0.00709	0.00901	0.01496	0.01100	0.01201	0.00222	0.00631	0.00885
88500	0.19532	0.16988	0.09590	1.08653	0.94121	0.74914	4.59267	2.68916	1.26370	0.42356	0.39401	0.34239	0.94706	0.73422	0.55509	4.11267	2.53898	1.37350
88670	0.19410	0.17014	0.09781	1.08600	0.94098	0.74873	4.59173	2.68526	1.26248	0.42210	0.39300	0.34179	0.94595	0.73592	0.55577	4.10985	2.53722	1.37249
88830	0.19704	0.17030	0.09944	1.08736	0.94360	0.75097	4.60625	2.69146	1.26443	0.42403	0.39489	0.34402	0.94716	0.73908	0.55583	4.11605	2.53978	1.37524
88990	0.19477	0.16868	0.09672	1.08574	0.94197	0.74952	4.59718	2.68557	1.26042	0.42277	0.39317	0.34201	0.94707	0.73678	0.55390	4.10880	2.53791	1.37337
89160	0.19634	0.17038	0.09864	1.08813	0.94457	0.75259	4.61204	2.69018	1.26602	0.42574	0.39576	0.34457	0.94838	0.73759	0.55889	4.11566	2.54178	1.37662
89320	0.19416	0.16982	0.09630	1.08699	0.94120	0.74940	4.59960	2.68551	1.26148	0.42187	0.39228	0.34215	0.94852	0.73617	0.55601	4.11129	2.53757	1.37272
89480	0.19588	0.17100	0.09875	1.08881	0.94316	0.75084	4.60694	2.68894	1.26416	0.42375	0.39425	0.34392	0.94995	0.73644	0.55480	4.11433	2.54034	1.37594
89650	0.19800	0.17026	0.09676	1.08669	0.94125	0.74835	4.59133	2.68559	1.26086	0.42219	0.39253	0.34138	0.94695	0.73806	0.55684	4.11378	2.54096	1.37580
89810	0.19526	0.16952	0.09891	1.08821	0.94474	0.75188	4.60629	2.68956	1.26652	0.42453	0.39571	0.34503	0.94812	0.73827	0.55704	4.11290	2.54080	1.37557
89970	0.19401	0.16918	0.09607	1.08616	0.94132	0.74885	4.60180	2.68432	1.26038	0.42225	0.39353	0.34124	0.94674	0.73653	0.55686	4.11408	2.54012	1.37669	27.47	6.1	0.00	7.36	0.01275	0.01295	0.01655	0.00796	0.00592	0.00649	0.00470	0.01272	0.01691	0.00688	0.00709	0.00901	0.01496	0.01100	0.01201	0.00222	0.00631	0.00885
90140	0.19680	0.16835	0.09756	1.08856	0.94219	0.74959	4.59736	2.68872	1.26369	0.42303	0.39382	0.34250	0.94823	0.73524	0.55776	4.11452	2.53858	1.37482
90300	0.19530	0.16846	0.09775	1.08670	0.94152	0.74872	4.59274	2.68521	1.26088	0.42226	0.39293	0.34171	0.94793	0.73344	0.55461	4.11187	2.53687	1.37277
90460	0.19211	0.16903	0.09750	1.08576	0.94357	0.75215	4.60422	2.69407	1.26639	0.42714	0.39774	0.34562	0.95085	0.73675	0.55694	4.11850	2.54272	1.37847
90630	0.19758	0.17029	0.09781	1.08982	0.94366	0.75094	4.59924	2.68638	1.26165	0.42404	0.39481	0.34270	0.94954	0.73680	0.55717	4.11640	2.54141	1.37789
90790	0.19677	0.16988	0.09850	1.08995	0.94393	0.75091	4.60683	2.68704	1.26514	0.42466	0.39529	0.34345	0.94719	0.73593	0.55422	4.11308	2.54000	1.37499
90950	0.19543	0.16701	0.09652	1.08547	0.93990	0.74714	4.58566	2.68390	1.26015	0.42105	0.39278	0.34088	0.94696	0.73623	0.55528	4.11507	2.54127	1.37795
91120	0.19476	0.17090	0.09598	1.08825	0.94303	0.74961	4.59436	2.68599	1.26086	0.42362	0.39374	0.34323	0.94632	0.73501	0.55354	4.11358	2.53971	1.37581
91280	0.19390	0.16926	0.09544	1.08653	0.94095	0.74852	4.59750	2.68209	1.25921	0.42138	0.39222	0.34077	0.94603	0.73716	0.55607	4.11408	2.54150	1.37740
91450	0.19619	0.17118	0.09630	1.08877	0.94321	0.75013	4.60426	2.68621	1.26385	0.42380	0.39422	0.34245	0.94635	0.73546	0.55604	4.10982	2.53884	1.37392
91610	0.19451	0.17098	0.09691	1.08774	0.94371	0.75033	4.59697	2.68996	1.26244	0.42490	0.39493	0.34322	0.94847	0.73596	0.55355	4.11503	2.54055	1.37527	27.53	6.1	0.00	7.45	0.01275	0.01295	0.01655	0.00796	0.00592	0.00649	0.00470	0.01272	0.01691	0.00688	0.00709	0.00901	0.01496	0.01100	0.01201	0.00222	0.00631	0.00885
91770	0.19365	0.17062	0.09788	1.08679	0.94273	0.74946	4.59545	2.68456	1.26273	0.42418	0.39479	0.34238	0.94577	0.73558	0.55313	4.11265	2.53934	1.37322
91940	0.19665	0.17169	0.09974	1.09107	0.94611	0.75381	4.60936	2.69074	1.26870	0.42806	0.39861	0.34725	0.95178	0.73628	0.55972	4.11658	2.54335	1.37943
92100	0.19811	0.16804	0.09662	1.08922	0.94421	0.75072	4.59130	2.68663	1.26382	0.42506	0.39545	0.34438	0.94980	0.73722	0.55700	4.11580	2.54148	1.37705
92260	0.19561	0.16885	0.09593	1.08797	0.94299	0.75031	4.59632	2.68578	1.26092	0.42372	0.39385	0.34343	0.94550	0.73581	0.55371	4.11348	2.53853	1.37322
92430	0.19346	0.16707	0.09410	1.08445	0.94019	0.74901	4.59433	2.68270	1.26055	0.42291	0.39329	0.34236	0.94669	0.73437	0.55680	4.11221	2.54078	1.37622
92590	0.19695	0.16997	0.09830	1.08732	0.94384	0.75017	4.60766	2.69036	1.26249	0.42404	0.39461	0.34389	0.94743	0.73630	0.55624	4.11448	2.54078	1.37560
92760	0.19412	0.16954	0.09637	1.08652	0.94100	0.74801	4.60253	2.68374	1.26097	0.42242	0.39305	0.34141	0.94759	0.73689	0.55686	4.11525	2.54298	1.37900
92920	0.19676	0.16938	0.09873	1.08935	0.94414	0.75107	4.59773	2.68687	1.26288	0.42466	0.39580	0.34461	0.94766	0.73642	0.55796	4.11486	2.54003	1.37408
93080	0.19652	0.17136	0.09847	1.08978	0.94661	0.75258	4.60719	2.68933	1.26531	0.42689	0.39777	0.34589	0.94947	0.73790	0.55806	4.11851	2.54188	1.37733
93250	0.19702	0.17084	0.09796	1.08851	0.94252	0.75019	4.60468	2.68700	1.26201	0.42393	0.39448	0.34350	0.94760	0.73377	0.55532	4.11438	2.54036	1.37608	27.53	6.1	0.00	7.41	0.01275	0.01295	0.01655	0.00796	0.00592	0.00649	0.00470	0.01272	0.01691	0.00688	0.00709	0.00901	0.01496	0.01100	0.01201	0.00222	0.00631	0.00885
93410	0.19499	0.16998	0.09758	1.08808	0.94301	0.75135	4.60631	2.68553	1.26248	0.42450	0.39401	0.34397	0.94610	0.73447	0.55461	4.11211	2.53829	1.37463
93580	0.19568	0.17026	0.10040	1.08670	0.94476	0.75405	4.61025	2.69281	1.26749	0.42740	0.39797	0.34711	0.95075	0.73885	0.55746	4.11825	2.54300	1.37889
93740	0.19681	0.17251	0.09868	1.08983	0.94437	0.75135	4.59049	2.68792	1.26399	0.42534	0.39510	0.34495	0.94993	0.73962	0.55848	4.11809	2.54257	1.37767
93900	0.19663	0.16949	0.09790	1.09007	0.94487	0.75192	4.59489	2.68727	1.26375	0.42576	0.39598	0.34492	0.94625	0.73649	0.55600	4.11582	2.53972	1.37604
94070	0.19444	0.16867	0.09771	1.08669	0.94193	0.74924	4.59251	2.68621	1.26076	0.42277	0.39451	0.34254	0.94946	0.73815	0.55718	4.11532	2.54246	1.37787
94230	0.19891	0.17227	0.09769	1.09031	0.94531	0.75274	4.60035	2.68808	1.26701	0.42682	0.39761	0.34602	0.94642	0.73790	0.55454	4.11698	2.54062	1.37580
94390	0.19628	0.16925	0.09833	1.08899	0.94431	0.75180	4.59136	2.68940	1.26505	0.42567	0.39676	0.34469	0.94776	0.73541	0.55562	4.11057	2.53847	1.37513
94560	0.19493	0.16844	0.09639	1.08696	0.94240	0.75037	4.59522	2.68845	1.26457	0.42431	0.39478	0.34441	0.94735	0.73579	0.55410	4.11233	2.53954	1.37506
94720	0.19312	0.16947	0.09387	1.08502	0.94061	0.74797	4.59287	2.68061	1.25818	0.42178	0.39338	0.34117	0.94943	0.73824	0.55850	4.11731	2.54411	1.38109
94890	0.20021	0.17276	0.09999	1.09194	0.94696	0.75446	4.60278	2.68955	1.26606	0.42642	0.39717	0.34576	0.94813	0.73653	0.55663	4.11601	2.54199	1.37826	27.47	5.9	0.00	7.31	0.01275	0.01295	0.01655	0.00795	0.00592	0.00649	0.00470	0.01272	0.01691	0.00688	0.00709	0.00901	0.01496	0.01100	0.01201	0.00222	0.00631	0.00885
95050	0.19782	0.17155	0.10045	1.09208	0.94796	0.75565	4.60947	2.69016	1.26807	0.42897	0.39875	0.34756	0.94966	0.74133	0.55979	4.11867	2.54494	1.38019
95210	0.19569	0.16963	0.09773	1.08953	0.94510	0.75293	4.60730	2.68646	1.26146	0.42542	0.39636	0.34487	0.94873	0.73571	0.55596	4.11214	2.54030	1.37558
95380	0.19488	0.17022	0.09920	1.09076	0.94747	0.75555	4.61048	2.68931	1.26779	0.42886	0.39764	0.34732	0.94953	0.73840	0.55930	4.11944	2.54434	1.37939
95540	0.19498	0.16911	0.09766	1.08943	0.94484	0.75241	4.60036	2.68933	1.26360	0.42573	0.39600	0.34542	0.94458	0.73695	0.55462	4.11662	2.54027	1.37560
95700	0.19276	0.16658	0.09547	1.08567	0.94136	0.74945	4.59852	2.68243	1.26135	0.42224	0.39298	0.34153	0.94509	0.74008	0.55824	4.11740	2.54384	1.38024
95860	0.19343	0.16920	0.09731	1.08979	0.94415	0.75244	4.59884	2.68979	1.26487	0.42550	0.39569	0.34489	0.94567	0.73769	0.55568	4.11303	2.54106	1.37647
96030	0.19278	0.16661	0.09522	1.08664	0.94135	0.75022	4.59751	2.68493	1.26055	0.42391	0.39403	0.34284	0.94704	0.73722	0.55727	4.11585	2.54271	1.37867
96190	0.19657	0.17020	0.09823	1.08923	0.94491	0.75248	4.61525	2.68837	1.26530	0.42606	0.39544	0.34557	0.95188	0.73999	0.55968	4.11712	2.54294	1.37781
96360	0.20085	0.17596	0.10140	1.08979	0.94471	0.75208	4.63125	2.68739	1.26071	0.42245	0.39177	0.34100	0.94687	0.73813	0.55810	4.11684	2.54091	1.37689
96520	0.19712	0.17081	0.09998	1.08659	0.94272	0.75037	4.72458	2.72994	1.28981	0.42367	0.39423	0.34285	0.97647	0.77223	0.58860	4.10796	2.53808	1.37524	27.47	6.0	0.00	7.31	0.01275	0.01294	0.01655	0.00795	0.00592	0.00648	0.00470	0.01272	0.01691	0.00688	0.00709	0.00900	0.01495	0.01100	0.01201	0.00222	0.00630	0.00885
96690	0.22666	0.20194	0.12216	1.09068	0.94682	0.75566	4.75947	2.73505	1.29240	0.42719	0.39866	0.34832	0.97804	0.77508	0.58759	4.11549	2.54435	1.38062
96850	0.22103	0.19479	0.11722	1.09056	0.94581	0.75408	4.72444	2.72182	1.28268	0.42455	0.39703	0.34487	0.96988	0.76659	0.58129	4.11565	2.54476	1.38106
97010	0.21712	0.19044	0.11372	1.09198	0.94806	0.75673	4.71095	2.71810	1.28122	0.42684	0.39816	0.34677	0.97059	0.76313	0.58291	4.12208	2.55149	1.38655
97180	0.21572	0.19151	0.11404	1.09801	0.95362	0.76080	4.68749	2.71842	1.28106	0.42980	0.40041	0.34914	0.96569	0.75878	0.57504	4.11610	2.54796	1.38273
97340	0.21087	0.18396	0.11043	1.09381	0.94995	0.75788	4.67060	2.71262	1.27891	0.43025	0.40082	0.34936	0.96346	0.75553	0.57182	4.11748	2.54752	1.38233
97510	0.20964	0.18511	0.10701	1.09359	0.94955	0.75744	4.66914	2.70475	1.27575	0.42865	0.39977	0.34796	0.95801	0.74856	0.56955	4.11615	2.54365	1.37955
97670	0.20394	0.18117	0.10823	1.09122	0.94981	0.75928	4.65191	2.70508	1.27563	0.43108	0.40171	0.35026	0.95985	0.75194	0.56996	4.11842	2.54785	1.38304
97830	0.20532	0.18015	0.10478	1.09280	0.94868	0.75665	4.64103	2.69934	1.27080	0.42883	0.39821	0.34743	0.95455	0.74706	0.56220	4.11394	2.54365	1.37931
98000	0.20447	0.18126	0.10755	1.09646	0.95285	0.76204	4.63722	2.70239	1.27471	0.43210	0.40297	0.35190	0.95750	0.74786	0.56731	4.12041	2.55090	1.38558
98160	0.20343	0.17745	0.10272	1.09455	0.94967	0.75821	4.62871	2.69896	1.27121	0.42933	0.39944	0.34887	0.95274	0.74501	0.56168	4.11508	2.54417	1.38023	27.53	6.0	0.00	7.26	0.01275	0.01294	0.01655	0.00795	0.00592	0.00648	0.00470	0.01272	0.01691	0.00688	0.00709	0.00900	0.01495	0.01099	0.01201	0.00222	0.00630	0.00885
98320	0.20169	0.17593	0.10483	1.09458	0.95149	0.76044	4.61339	2.69813	1.27231	0.43199	0.40085	0.35058	0.95473	0.74709	0.56377	4.11851	2.54708	1.38333
98480	0.20256	0.17311	0.10058	1.09369	0.94851	0.75792	4.62704	2.69388	1.26622	0.42889	0.39746	0.34753	0.94851	0.73969	0.55955	4.11442	2.54299	1.37921
98650	0.19626	0.17245	0.09843	1.08978	0.94523	0.75348	4.61274	2.68695	1.26423	0.42611	0.39506	0.34487	0.95093	0.74161	0.56093	4.11624	2.54714	1.38351
