WetView ver 7.1	07-18-2018	10:20:32
AC9 Absorption and Attenuation Meter
00000266		; Serial number
2	; structure version number
Reserved
0.000000	0.000000		; Depth calibration
19200			; Baud rate
0.100000			; Path length (meters)
31			; number of temperature calibration bins
				12.59339	13.44920	14.48425	15.49668	16.50852	17.49564	18.50545	19.52458	20.50176	21.48889	22.47318	23.48707	24.50962	25.49370	26.49784	27.51372	28.50746	29.47237	30.47938	31.50214	32.50470	33.49235	34.50337	35.50914	36.50618	37.52058	38.51018	39.51308	40.49994	41.49866	42.47204	; temperature bins
a650	Blue	20.34952		-0.00383	-0.00415	-0.00430	-0.00391	-0.00363	-0.00317	-0.00269	-0.00237	-0.00179	-0.00130	-0.00099	-0.00071	-0.00015	0.00000	0.00004	-0.00001	0.00015	0.00036	0.00058	0.00101	0.00161	0.00132	0.00160	0.00169	0.00242	0.00273	0.00336	0.00365	0.00427	0.00566	0.00670		; offset and temperature correction info
a676	Green	20.51193		-0.00398	-0.00384	-0.00360	-0.00306	-0.00302	-0.00255	-0.00235	-0.00212	-0.00163	-0.00136	-0.00118	-0.00089	-0.00029	0.00000	0.00068	0.00082	0.00099	0.00137	0.00145	0.00212	0.00260	0.00252	0.00321	0.00354	0.00457	0.00535	0.00617	0.00648	0.00742	0.00887	0.01002		; offset and temperature correction info
a715	Brown	20.23230		-0.00421	-0.00394	-0.00391	-0.00291	-0.00264	-0.00192	-0.00204	-0.00179	-0.00188	-0.00239	-0.00180	-0.00187	-0.00099	0.00000	0.00084	0.00162	0.00188	0.00224	0.00321	0.00381	0.00466	0.00528	0.00588	0.00696	0.00859	0.01041	0.01148	0.01282	0.01333	0.01456	0.01617		; offset and temperature correction info
c510	Red	20.40042		-0.00261	-0.00247	-0.00258	-0.00225	-0.00203	-0.00197	-0.00199	-0.00203	-0.00154	-0.00103	-0.00069	-0.00019	-0.00007	0.00000	0.00011	-0.00021	-0.00042	-0.00056	-0.00040	0.00011	0.00036	0.00050	0.00077	0.00079	0.00050	0.00042	0.00043	0.00092	0.00147	0.00200	0.00232		; offset and temperature correction info
c532	Magenta	20.40760		-0.00248	-0.00265	-0.00278	-0.00279	-0.00296	-0.00292	-0.00238	-0.00206	-0.00129	-0.00096	-0.00092	-0.00052	-0.00009	0.00000	0.00007	-0.00049	-0.00136	-0.00107	-0.00079	-0.00065	-0.00074	-0.00105	-0.00152	-0.00192	-0.00236	-0.00269	-0.00252	-0.00233	-0.00172	-0.00128	-0.00067		; offset and temperature correction info
c555	Black	20.50654		-0.00053	-0.00063	-0.00106	-0.00094	-0.00068	-0.00055	-0.00053	-0.00039	-0.00028	-0.00025	-0.00011	-0.00035	-0.00007	0.00000	-0.00037	-0.00055	-0.00036	-0.00014	0.00019	0.00044	0.00032	0.00040	0.00050	0.00028	0.00014	0.00013	0.00030	0.00073	0.00117	0.00176	0.00241		; offset and temperature correction info
a412	LtBlue	17.15231		-0.01972	-0.01823	-0.01612	-0.01381	-0.01272	-0.01080	-0.00959	-0.00866	-0.00710	-0.00532	-0.00354	-0.00148	-0.00028	0.00000	0.00176	0.00297	0.00394	0.00440	0.00453	0.00487	0.00804	0.00856	0.01065	0.01248	0.01388	0.01439	0.01659	0.01881	0.02256	0.02450	0.02719		; offset and temperature correction info
a440	LtGreen	18.00171		-0.00729	-0.00642	-0.00581	-0.00502	-0.00426	-0.00349	-0.00244	-0.00218	-0.00179	-0.00101	-0.00046	-0.00006	0.00036	0.00000	0.00040	0.00045	0.00030	-0.00015	-0.00024	-0.00035	0.00012	-0.00013	-0.00033	-0.00089	-0.00142	-0.00189	-0.00231	-0.00205	-0.00140	-0.00140	-0.00146		; offset and temperature correction info
a488	Yellow	18.86491		-0.00113	-0.00102	-0.00106	-0.00064	-0.00027	-0.00020	-0.00030	-0.00037	-0.00047	-0.00059	-0.00052	-0.00012	0.00008	0.00000	0.00025	0.00012	-0.00013	-0.00043	-0.00065	-0.00076	-0.00025	0.00010	0.00090	0.00111	0.00113	0.00104	0.00073	0.00068	0.00120	0.00186	0.00258		; offset and temperature correction info
c650	Blue	20.46075		-0.00145	-0.00097	-0.00092	-0.00139	-0.00185	-0.00196	-0.00237	-0.00266	-0.00238	-0.00163	-0.00083	-0.00041	-0.00010	0.00000	0.00005	-0.00001	0.00015	0.00034	0.00029	0.00065	0.00101	0.00164	0.00126	0.00156	0.00175	0.00270	0.00287	0.00371	0.00407	0.00473	0.00534		; offset and temperature correction info
c676	Green	20.10118		-0.00170	-0.00144	-0.00149	-0.00177	-0.00188	-0.00194	-0.00198	-0.00196	-0.00177	-0.00156	-0.00140	-0.00091	-0.00033	0.00000	0.00050	0.00092	0.00110	0.00141	0.00167	0.00199	0.00216	0.00265	0.00269	0.00289	0.00315	0.00374	0.00367	0.00408	0.00486	0.00561	0.00646		; offset and temperature correction info
c715	Brown	19.91219		-0.01201	-0.01097	-0.00859	-0.00680	-0.00651	-0.00592	-0.00535	-0.00440	-0.00387	-0.00303	-0.00222	-0.00153	-0.00028	0.00000	0.00093	0.00149	0.00247	0.00322	0.00330	0.00427	0.00373	0.00464	0.00536	0.00551	0.00643	0.00733	0.00779	0.00884	0.00899	0.01021	0.01120		; offset and temperature correction info
a510	Red	19.21192		0.00201	0.00193	0.00158	0.00098	0.00089	0.00049	0.00011	-0.00016	-0.00016	-0.00005	0.00028	0.00025	0.00006	0.00000	0.00035	-0.00022	-0.00023	-0.00080	-0.00144	-0.00154	-0.00153	-0.00204	-0.00220	-0.00219	-0.00190	-0.00128	-0.00069	-0.00018	0.00068	0.00152	0.00241		; offset and temperature correction info
a532	Magenta	19.41084		-0.00097	-0.00072	-0.00060	-0.00081	-0.00062	-0.00071	-0.00040	0.00020	0.00028	0.00043	0.00000	-0.00035	0.00007	0.00000	-0.00011	-0.00059	-0.00080	-0.00098	-0.00137	-0.00162	-0.00163	-0.00130	-0.00073	-0.00018	0.00090	0.00185	0.00175	0.00247	0.00291	0.00327	0.00349		; offset and temperature correction info
a555	Black	19.69776		0.00171	0.00183	0.00183	0.00186	0.00191	0.00170	0.00115	0.00131	0.00097	0.00073	0.00060	0.00013	0.00015	0.00000	0.00014	-0.00029	-0.00066	-0.00082	-0.00116	-0.00139	-0.00134	-0.00167	-0.00119	-0.00093	-0.00048	0.00053	0.00111	0.00095	0.00178	0.00206	0.00273		; offset and temperature correction info
c412	LtBlue	19.91180		-0.02051	-0.01853	-0.01589	-0.01311	-0.01059	-0.00877	-0.00705	-0.00581	-0.00413	-0.00231	-0.00098	-0.00066	-0.00011	0.00000	-0.00013	-0.00085	-0.00170	-0.00170	-0.00302	-0.00330	-0.00429	-0.00551	-0.00626	-0.00775	-0.00978	-0.01181	-0.01113	-0.01108	-0.01116	-0.01192	-0.01291		; offset and temperature correction info
c440	LtGreen	20.06241		-0.01064	-0.00992	-0.00892	-0.00766	-0.00639	-0.00531	-0.00478	-0.00384	-0.00287	-0.00187	-0.00102	-0.00063	-0.00023	0.00000	-0.00007	-0.00053	-0.00090	-0.00119	-0.00169	-0.00197	-0.00226	-0.00257	-0.00260	-0.00289	-0.00394	-0.00470	-0.00481	-0.00493	-0.00520	-0.00580	-0.00620		; offset and temperature correction info
c488	Yellow	20.35984		-0.01125	-0.01082	-0.00966	-0.00833	-0.00726	-0.00661	-0.00579	-0.00500	-0.00389	-0.00278	-0.00167	-0.00113	-0.00041	0.00000	0.00055	0.00121	0.00187	0.00226	0.00222	0.00251	0.00281	0.00359	0.00414	0.00427	0.00401	0.00404	0.00486	0.00563	0.00638	0.00684	0.00718		; offset and temperature correction info
0.003500	0.004000	0.015000	0.020000	0.015000	0.020000	2500.000000	2000.000000	1000.000000	; maxANoise	maxCNoise	maxADifference	maxCDifference	minACounts	minCCounts	minRCounts	maxTempSdev	maxDepthSdev
0			; auxilliary capabilities
1			; acquisition binsize
0	0.29442	0.33580	0.20021	2.18773	2.04728	1.85188	2.55430	1.69911	0.94446	1.42228	1.37492	1.23390	0.74079	0.59882	0.50293	3.74561	3.10291	2.45088	25.09	6.1	0.00	7.33	0.01274	0.01290	0.01673	0.00776	0.00578	0.00634	0.00468	0.01265	0.01687	0.00675	0.00693	0.00895	0.01490	0.01097	0.01197	0.00216	0.00614	0.00864
170	0.28287	0.31979	0.20459	2.20409	2.03849	1.84176	2.54191	1.67272	0.92628	1.42340	1.36227	1.26831	0.72713	0.58695	0.47949	3.71323	3.04196	2.43387
330	0.28581	0.32354	0.18615	2.20731	2.07248	1.85248	2.53467	1.66278	0.92228	1.39961	1.35874	1.22156	0.72036	0.59078	0.48992	3.69507	3.04762	2.44870
500	0.29172	0.32898	0.19074	2.18727	2.02567	1.86945	2.53470	1.67933	0.91811	1.40554	1.34805	1.22012	0.72217	0.60096	0.49140	3.72219	3.04212	2.40248
660	0.29333	0.32473	0.20147	2.20217	2.03832	1.85293	2.54705	1.67769	0.91856	1.40415	1.35339	1.25156	0.74845	0.61209	0.50267	3.74939	3.10131	2.44750
830	0.28521	0.32871	0.21029	2.23636	2.08942	1.91869	2.56271	1.70169	0.95184	1.48754	1.49652	1.38897	0.78353	0.62914	0.52959	3.90642	3.30803	2.58069
990	0.36429	0.38725	0.26422	2.33828	2.19949	2.00590	2.63650	1.73475	1.03797	1.64328	1.60654	1.35186	0.81936	0.65999	0.55711	3.81697	3.15364	2.50844
1150	0.34173	0.37735	0.24980	2.20483	2.14275	1.87417	2.60242	1.73705	0.97311	1.46959	1.39747	1.28877	0.76863	0.65022	0.54771	3.75921	3.07223	2.45191
1320	0.33949	0.35706	0.21483	2.19774	2.04790	1.87694	2.56034	1.71348	0.93893	1.44393	1.38772	1.27433	0.74188	0.60005	0.50114	3.72864	3.08680	2.49906
1480	0.30032	0.32311	0.20280	2.21681	2.04136	1.87008	2.54398	1.68786	0.92354	1.48914	1.40660	1.23885	0.73068	0.59783	0.48746	3.75767	3.08293	2.43276
1650	0.30255	0.32112	0.19525	2.18665	2.02563	1.87062	2.57089	1.67776	0.92362	1.41073	1.40366	1.24177	0.73189	0.60307	0.50839	3.75233	3.07945	2.43585	25.03	6.1	0.00	7.40	0.01274	0.01290	0.01673	0.00776	0.00578	0.00634	0.00468	0.01265	0.01687	0.00675	0.00693	0.00895	0.01490	0.01097	0.01197	0.00216	0.00614	0.00864
1810	0.29442	0.33383	0.19949	2.20314	2.04055	1.88251	2.57931	1.68562	0.95645	1.41629	1.39629	1.26266	0.73432	0.61874	0.49934	3.73463	3.07401	2.46409
1980	0.30398	0.34784	0.22933	2.18988	2.05804	1.86282	2.55063	1.69370	0.96654	1.41905	1.38634	1.25721	0.74962	0.60754	0.49464	3.71664	3.07925	2.46024
2140	0.30565	0.34504	0.21280	2.20799	2.05378	1.89946	2.57083	1.69326	0.95569	1.47333	1.38800	1.29752	0.74423	0.60506	0.49904	3.74263	3.08442	2.45252
2310	0.29716	0.34193	0.22924	2.19863	2.06803	1.85449	2.55433	1.72641	0.93360	1.43606	1.41487	1.25839	0.72056	0.59217	0.49719	3.73524	3.08362	2.43667
2470	0.28840	0.33265	0.20286	2.23927	2.09459	1.87585	2.54788	1.67183	0.93257	1.40551	1.38721	1.21346	0.73900	0.59952	0.49939	3.72867	3.06018	2.43932
2630	0.28362	0.32878	0.20864	2.23079	2.05738	1.92192	2.86222	1.67865	0.97052	1.47471	1.39595	1.25337	0.74856	0.60462	0.50283	3.71467	3.07443	2.44530
2800	0.29048	0.32557	0.21190	2.22603	2.12050	1.91994	2.56932	1.70121	0.95500	1.46690	1.44959	1.27554	0.74698	0.61972	0.52612	3.78270	3.13950	2.46680
2960	0.32052	0.34516	0.21076	2.23485	2.08032	1.88029	2.57353	1.68724	0.95418	1.43725	1.37193	1.25821	0.74632	0.59949	0.49874	3.75184	3.07689	2.41617
3130	0.29740	0.33483	0.20240	2.23525	2.09299	1.90623	2.54105	1.68783	0.91989	1.43119	1.37188	1.24079	0.74577	0.59976	0.49670	3.72954	3.08690	2.47073
3290	0.30517	0.35313	0.21127	2.18278	2.06227	1.88174	2.55489	1.67982	0.92478	1.40928	1.35236	1.24223	0.74387	0.60092	0.49286	3.71685	3.08213	2.45489	25.09	6.3	0.00	7.31	0.01274	0.01290	0.01673	0.00776	0.00578	0.00634	0.00468	0.01265	0.01687	0.00675	0.00693	0.00895	0.01490	0.01097	0.01197	0.00216	0.00614	0.00864
3460	0.28451	0.32348	0.20336	2.20865	2.05719	1.90347	2.55063	1.68952	0.92877	1.44315	1.41352	1.22172	0.74306	0.58954	0.48834	3.75342	3.07671	2.42441
3620	0.29677	0.32504	0.20203	2.17864	2.05869	1.87982	2.54274	1.68903	0.93145	1.42504	1.38173	1.23666	0.73651	0.61755	0.50507	3.72259	3.10272	2.42332
3780	0.28606	0.33149	0.20333	2.21625	2.03309	1.87722	2.54368	1.68991	0.92229	1.45093	1.39468	1.24146	0.73310	0.59511	0.48702	3.74098	3.07504	2.44316
3950	0.29272	0.34351	0.20038	2.19783	2.04381	1.83003	2.54114	1.68419	0.91811	1.39402	1.36608	1.24523	0.72448	0.58765	0.48283	3.71434	3.11229	2.43153
4110	0.29412	0.32489	0.20431	2.25873	2.06155	1.86806	2.56778	1.68963	0.92212	1.43381	1.39805	1.25921	0.75381	0.59246	0.49551	3.72932	3.08030	2.45054
4270	0.30934	0.32451	0.21076	2.19724	2.06223	1.86426	2.53706	1.68345	0.92562	1.41979	1.37482	1.27279	0.72598	0.60164	0.51775	3.77011	3.09716	2.47107
4440	0.30404	0.35469	0.23391	2.22638	2.09612	1.96786	2.55904	1.70639	0.94972	1.53078	1.46505	1.27798	0.74008	0.61115	0.50120	3.72057	3.07195	2.47777
4600	0.29498	0.33330	0.21136	2.21666	2.08646	1.87134	2.54756	1.68489	0.93700	1.42631	1.37213	1.24189	0.72592	0.59822	0.49998	3.71002	3.12250	2.46509
4760	0.28834	0.33442	0.19967	2.24171	2.07817	1.84852	2.54268	1.68217	0.93159	1.45918	1.41637	1.25055	0.73810	0.59655	0.49935	3.73490	3.07484	2.44263
4930	0.30922	0.33875	0.20623	2.19508	2.09524	1.82860	2.55482	1.68033	0.92192	1.40589	1.37383	1.24464	0.72810	0.59566	0.49390	3.69270	3.09245	2.42080	25.09	5.9	0.00	7.29	0.01274	0.01290	0.01673	0.00776	0.00578	0.00634	0.00468	0.01265	0.01687	0.00675	0.00693	0.00895	0.01490	0.01097	0.01197	0.00216	0.00614	0.00864
5090	0.30043	0.32907	0.20374	2.19974	2.05631	1.89302	2.53885	1.67124	0.93615	1.41245	1.38518	1.26529	0.74288	0.60501	0.50285	3.72617	3.07533	2.43353
5250	0.28846	0.32173	0.19442	2.22093	2.01918	1.85602	2.54314	1.66519	0.92152	1.42061	1.38927	1.26350	0.72761	0.59985	0.48779	3.70994	3.10893	2.46429
5420	0.30529	0.33915	0.20052	2.25030	2.12800	1.84707	2.54657	1.67174	0.93162	1.46076	1.40802	1.26194	0.74272	0.60294	0.49181	3.72524	3.05969	2.43990
5580	0.29684	0.33939	0.21221	2.17811	2.06362	1.89176	2.55737	1.72554	0.93871	1.43386	1.37444	1.29507	0.73645	0.60928	0.51505	3.70573	3.10634	2.44579
5750	0.28889	0.33639	0.20032	2.23069	2.09359	1.87682	2.55254	1.67292	0.97977	1.41603	1.37772	1.23638	0.74029	0.63062	0.63554	3.72868	3.05046	2.41288
5910	0.29644	0.35642	0.24200	2.17963	2.05890	1.85491	2.55225	1.68324	0.91851	1.41493	1.38352	1.25154	0.74381	0.59876	0.50334	3.71982	3.10437	2.49996
6070	0.30829	0.33023	0.22200	2.24660	2.10497	2.00461	2.55242	1.71899	0.99601	1.67922	1.61908	1.50949	0.83121	0.72917	0.67024	4.19021	3.57374	2.84863
6240	0.51741	0.54610	0.45095	2.78586	2.76172	2.51165	2.87236	2.06009	1.28629	2.36318	2.19907	2.15797	1.13322	1.01866	0.88481	4.64574	3.90707	3.13399
6400	0.72984	0.74212	0.60412	2.89814	2.75632	2.61607	3.01420	2.02528	1.16857	2.06062	2.04893	1.92744	1.07825	1.02004	0.86493	4.24017	3.57321	3.00521
6570	0.63353	0.72716	0.57583	2.82172	2.43127	2.26920	2.87564	1.94592	1.18087	1.80323	1.69581	1.62241	0.99409	0.81326	0.74291	4.07338	3.41139	2.78991	25.15	5.9	0.00	7.38	0.01274	0.01290	0.01673	0.00776	0.00578	0.00634	0.00468	0.01265	0.01687	0.00675	0.00692	0.00895	0.01490	0.01097	0.01197	0.00216	0.00614	0.00864
6730	0.52516	0.53474	0.38969	2.42095	2.29995	2.16945	2.66064	1.81474	1.05646	1.73190	1.63351	1.50664	0.86129	0.70461	0.57140	3.88945	3.26028	2.55317
6900	0.36327	0.40551	0.27941	2.37751	2.17820	2.04199	2.62916	1.78559	0.98753	1.54572	1.46514	1.39583	0.81424	0.65184	0.53919	3.82580	3.18362	2.53147
7060	0.33850	0.39802	0.26614	2.26648	2.15077	1.92353	2.57563	1.72966	0.98806	1.47339	1.43143	1.33724	0.78110	0.62570	0.51624	3.86398	3.16335	2.47110
7220	0.32056	0.37158	0.21548	2.26861	2.12584	1.97900	2.60941	1.70590	0.99322	1.47044	1.39717	1.29024	0.78445	0.66145	0.57274	3.73749	3.07759	2.41024
7390	0.32535	0.36539	0.20921	2.19085	2.09113	1.88299	2.56262	1.70065	0.93591	1.45911	1.41426	1.29553	0.74342	0.60108	0.49209	3.73547	3.05489	2.42922
7550	0.28928	0.32321	0.19731	2.22853	2.02863	1.86778	2.56597	1.68212	0.92248	1.43259	1.38614	1.26139	0.73977	0.61097	0.49233	3.72327	3.09020	2.45202
7710	0.28571	0.32289	0.20356	2.17623	2.06301	1.88560	2.54525	1.66912	0.92327	1.41664	1.37074	1.25835	0.73927	0.59927	0.48872	3.71545	3.05119	2.45994
7880	0.28614	0.33266	0.19765	2.25217	2.10084	1.90498	2.55338	1.68553	0.93618	1.49120	1.43129	1.31818	0.75745	0.62739	0.52134	3.81729	3.15669	2.59861
8040	0.33455	0.37890	0.24456	2.30776	2.14984	1.97367	2.60123	1.73611	0.97856	1.57872	1.48010	1.31062	0.78846	0.66244	0.56114	3.84332	3.18856	2.54263
8210	0.35368	0.38191	0.25982	2.29482	2.14264	1.92537	2.68196	1.73686	0.99421	1.54003	1.48818	1.35135	0.80412	0.64899	0.52151	3.81520	3.16881	2.52086	25.15	6.3	0.00	7.30	0.01274	0.01290	0.01673	0.00776	0.00578	0.00634	0.00468	0.01265	0.01687	0.00675	0.00693	0.00895	0.01490	0.01097	0.01197	0.00216	0.00614	0.00864
8370	0.37385	0.37989	0.24561	2.28544	2.09590	1.91440	2.58510	1.73015	0.96345	1.47032	1.40841	1.29981	0.80175	0.65762	0.54108	3.78693	3.17009	2.49082
8530	0.33150	0.38419	0.23869	2.27207	2.09253	1.92617	2.59892	1.70224	0.96182	1.48373	1.43776	1.24396	0.75480	0.60716	0.52253	3.97116	3.12423	2.49933
8700	0.30153	0.34331	0.20693	2.24346	2.06673	1.89916	2.55724	1.71369	0.94856	1.45443	1.42056	1.27099	0.73977	0.59807	0.49703	3.74806	3.08583	2.42980
8860	0.29543	0.32868	0.19813	2.19011	2.04062	1.84267	2.54528	1.67825	0.92229	1.42382	1.37164	1.24562	0.73506	0.60585	0.50140	3.72206	3.09066	2.45189
9020	0.29007	0.33051	0.19829	2.21544	2.07313	1.83562	2.55401	1.67489	0.93265	1.40810	1.35557	1.24051	0.71897	0.58965	0.50404	3.72059	3.09002	2.44658
9190	0.28979	0.32103	0.19633	2.20891	2.04157	1.87676	2.54115	1.68136	0.92002	1.44909	1.38963	1.27137	0.73591	0.59950	0.48939	3.74209	3.09549	2.44827
9350	0.29334	0.32608	0.20191	2.22872	2.11282	1.87887	2.55925	1.67599	0.92622	1.43141	1.39114	1.25786	0.74652	0.59427	0.50132	3.72064	3.07863	2.43384
9520	0.31666	0.35268	0.22442	2.22927	2.10551	1.88475	2.57475	1.69165	0.96392	1.43757	1.36454	1.24773	0.73804	0.61013	0.50340	3.71857	3.11027	2.42653
9680	0.30548	0.33379	0.20531	2.24933	2.05575	1.84004	2.53745	1.68646	0.94055	1.42791	1.40459	1.28364	0.73980	0.61028	0.51041	3.73338	3.09232	2.42309
9850	0.29777	0.33205	0.21257	2.17848	2.00915	1.84315	2.55041	1.69295	0.94006	1.43704	1.39663	1.27927	0.74205	0.60492	0.50314	3.77631	3.06881	2.43092	25.15	6.1	0.00	7.32	0.01274	0.01290	0.01673	0.00776	0.00578	0.00634	0.00468	0.01265	0.01687	0.00675	0.00693	0.00895	0.01490	0.01097	0.01197	0.00216	0.00614	0.00864
10010	0.30557	0.34612	0.21984	2.21911	2.05966	1.86351	2.54985	1.69878	0.95189	1.43580	1.37623	1.26460	0.73233	0.62671	0.52417	3.77065	3.14836	2.47459
10180	0.29644	0.33618	0.19874	2.21665	2.05008	1.86549	2.55121	1.67695	0.92092	1.49839	1.41123	1.26751	0.73809	0.62109	0.49626	3.76165	3.11506	2.46241
10340	0.30657	0.34943	0.21215	2.23367	2.10514	1.94044	2.54263	1.70314	0.95149	1.49013	1.44254	1.31443	0.74235	0.61287	0.52813	3.79486	3.12234	2.47993
10500	0.30111	0.34935	0.21370	2.21998	2.05118	1.88035	2.57167	1.72004	0.93854	1.47099	1.42183	1.26956	0.75877	0.60444	0.51075	3.73276	3.09398	2.44934
10670	0.31376	0.34918	0.22064	2.19378	2.07113	1.85393	2.53965	1.67474	0.91902	1.43871	1.38139	1.27494	0.74165	0.59310	0.49394	3.73172	3.06045	2.42617
10830	0.30107	0.36036	0.19613	2.20772	2.03749	1.84088	2.54485	1.68265	0.91858	1.44431	1.36426	1.25573	0.73644	0.60412	0.49428	3.71210	3.07369	2.43122
11000	0.29491	0.31839	0.19730	2.21889	2.04924	1.86488	2.54603	1.67023	0.91804	1.43323	1.37223	1.27489	0.75951	0.60573	0.49349	3.76231	3.07261	2.45825
11160	0.28749	0.32493	0.19236	2.19533	2.09402	1.86187	2.53631	1.67699	0.91634	1.45845	1.40906	1.27103	0.73482	0.60004	0.48394	3.72232	3.07206	2.43337
11320	0.30229	0.33479	0.19755	2.18039	2.04595	1.84191	2.54585	1.67862	0.92608	1.45153	1.36665	1.29006	0.73987	0.58743	0.48418	3.69507	3.06118	2.41650
11490	0.29724	0.32336	0.20723	2.17440	2.04128	1.85335	2.54709	1.67917	0.93101	1.42606	1.35658	1.25524	0.73651	0.60441	0.49510	3.70586	3.06338	2.43477	25.09	5.9	0.00	7.24	0.01274	0.01290	0.01673	0.00776	0.00578	0.00634	0.00468	0.01265	0.01687	0.00675	0.00693	0.00895	0.01490	0.01097	0.01197	0.00216	0.00614	0.00864
11650	0.29568	0.33044	0.19150	2.17587	2.04849	1.86140	2.55487	1.69331	0.94676	1.42448	1.40375	1.27465	0.75557	0.62326	0.52451	3.74585	3.08321	2.46169
11810	0.30617	0.34815	0.21564	2.24128	2.06652	1.89095	2.56369	1.72049	0.95483	1.48649	1.43236	1.33985	0.77314	0.67912	0.57172	3.83288	3.16286	2.58554
11980	0.39199	0.45056	0.31344	2.47155	2.33284	2.16081	2.67756	1.85420	1.10875	1.76916	1.74875	1.77938	0.93208	0.82958	0.69948	4.28280	3.67026	2.94192
12140	0.58891	0.61283	0.46050	2.73992	2.62977	2.57496	2.94033	1.95749	1.25909	2.07651	2.02202	2.03920	1.01536	0.97726	0.89384	4.23463	3.64555	3.04561
12310	0.69560	0.62194	0.43317	2.82071	2.54192	2.33418	2.78664	1.91069	1.14570	1.79195	1.71493	1.60482	0.92135	0.82460	0.68546	3.99582	3.38177	2.71861
12470	0.48469	0.54427	0.37561	2.60554	2.37379	2.17578	2.72868	1.88199	1.10836	1.80492	1.75790	1.49113	0.83927	0.71789	0.63709	3.95969	3.31500	2.73073
12630	0.42166	0.53322	0.31855	2.55974	2.31782	2.11538	2.69276	1.83989	1.05666	1.73650	1.76748	1.62646	0.90172	0.76992	0.60239	3.90062	3.23224	2.60387
12800	0.38945	0.44309	0.33738	2.37666	2.24278	2.05065	2.64164	1.76931	1.00648	1.57537	1.49766	1.38013	0.80560	0.66658	0.56389	3.80770	3.20308	2.51728
12960	0.34555	0.39063	0.25576	2.27143	2.10294	1.97732	2.61370	1.72993	0.97164	1.50590	1.43793	1.27928	0.80253	0.64318	0.54377	3.73626	3.14201	2.49885
13130	0.34601	0.35046	0.23367	2.25149	2.14299	1.91336	2.57074	1.71604	1.00738	1.50882	1.47803	1.30979	0.78484	0.63361	0.52775	3.74563	3.11044	2.47467	25.15	6.3	0.00	7.32	0.01274	0.01290	0.01673	0.00776	0.00578	0.00634	0.00468	0.01265	0.01687	0.00675	0.00693	0.00895	0.01490	0.01097	0.01197	0.00216	0.00614	0.00864
13290	0.31402	0.34112	0.20080	2.28384	2.08765	1.96175	2.54471	1.69392	0.95930	1.49580	1.44768	1.33553	0.74249	0.62927	0.52923	3.73566	3.11233	2.44574
13450	0.32516	0.34572	0.23962	2.25161	2.09318	1.89912	2.55042	1.68939	0.94263	1.47407	1.41215	1.24647	0.77037	0.66192	0.51371	3.74492	3.07254	2.45955
13620	0.30310	0.34344	0.21136	2.26940	2.07374	1.88988	2.55859	1.68112	0.94976	1.45119	1.41492	1.34752	0.74271	0.59849	0.49089	3.77208	3.12164	2.48057
13780	0.28954	0.32254	0.20067	2.24304	2.07352	1.84937	2.55581	1.71099	0.93111	1.44467	1.41205	1.26412	0.74930	0.60027	0.49467	3.73145	3.09338	2.46109
13950	0.29842	0.33399	0.21220	2.21027	2.08142	1.89094	2.54752	1.69822	0.92166	1.42781	1.41353	1.26543	0.73740	0.60979	0.51168	3.75874	3.08356	2.44126
14110	0.30557	0.33079	0.19550	2.20767	2.06581	1.88418	2.55812	1.67687	0.93947	1.45814	1.40810	1.24277	0.74347	0.59755	0.48978	3.72631	3.05553	2.40958
14280	0.28407	0.33563	0.19771	2.22934	2.05316	1.85942	2.52790	1.68011	0.91155	1.43163	1.36986	1.24561	0.73439	0.60284	0.49403	3.71401	3.07354	2.42337
14440	0.30129	0.32517	0.19582	2.19239	2.02609	1.83381	2.53168	1.67856	0.93703	1.41089	1.36394	1.26433	0.73078	0.59932	0.49326	3.71264	3.05903	2.41716
14610	0.30021	0.33011	0.19889	2.17384	2.04540	1.86802	2.53800	1.68227	0.92765	1.43129	1.38190	1.27623	0.72582	0.58865	0.51187	3.70686	3.04667	2.46310
14770	0.30936	0.34401	0.21787	2.18315	2.15222	1.83796	2.53857	1.67188	0.93022	1.44400	1.38741	1.24029	0.74986	0.59381	0.48989	3.72909	3.11268	2.44198	25.09	6.1	0.00	7.42	0.01274	0.01290	0.01673	0.00775	0.00578	0.00634	0.00468	0.01265	0.01687	0.00675	0.00692	0.00895	0.01490	0.01097	0.01197	0.00216	0.00613	0.00864
14930	0.29532	0.33254	0.20482	2.24590	2.09849	1.88810	2.55306	1.70020	0.94650	1.48199	1.44953	1.37016	0.79161	0.62776	0.55296	3.80737	3.19767	2.56126
15100	0.33759	0.37367	0.24178	2.38192	2.17926	1.99215	2.57682	1.76744	0.98417	1.57601	1.53975	1.38858	0.83915	0.69509	0.60438	3.92463	3.31183	2.64468
15260	0.37495	0.44811	0.32183	2.40771	2.28551	2.11242	2.65263	1.81050	1.01502	1.78326	1.65869	1.59626	0.87645	0.74821	0.63116	4.07750	3.43126	2.73682
15430	0.36268	0.44940	0.29280	2.51672	2.20777	2.04940	2.68472	1.85081	1.03386	1.60120	1.62499	1.44609	0.92107	0.69636	0.58819	3.98165	3.18718	2.52830
15590	0.38928	0.39049	0.27268	2.40109	2.26916	1.98075	2.63066	1.75980	0.97499	1.51387	1.47071	1.33807	0.77464	0.63647	0.53589	3.82918	3.14839	2.57479
15760	0.32906	0.38267	0.23351	2.26187	2.16508	1.88543	2.59413	1.74923	0.96410	1.44331	1.44635	1.31109	0.76862	0.61770	0.51877	3.79205	3.13787	2.52541
15920	0.33389	0.35975	0.21425	2.25185	2.08059	1.90772	2.54996	1.68404	0.93257	1.49865	1.42162	1.32926	0.74843	0.62242	0.51985	3.73933	3.13568	2.50373
16090	0.32746	0.34602	0.20844	2.25903	2.09009	1.85484	2.56908	1.68943	0.93244	1.40959	1.38109	1.28112	0.74835	0.60968	0.49900	3.74125	3.09543	2.40583
16250	0.31021	0.35108	0.21669	2.19542	2.07274	1.85940	2.55641	1.68912	0.94847	1.42938	1.47475	1.24919	0.73236	0.59839	0.48640	3.74985	3.07629	2.42208
16420	0.30404	0.35253	0.23148	2.22610	2.07452	1.92609	2.57578	1.71409	0.94983	1.48663	1.44097	1.30361	0.75510	0.61540	0.51502	3.77217	3.11399	2.48374	25.15	6.1	0.00	7.27	0.01274	0.01290	0.01673	0.00775	0.00578	0.00634	0.00468	0.01265	0.01687	0.00675	0.00693	0.00895	0.01490	0.01097	0.01197	0.00216	0.00613	0.00864
16580	0.33495	0.38793	0.24181	2.29307	2.11947	1.93949	2.58881	1.71041	0.96592	1.47869	1.44777	1.29259	0.80309	0.67008	0.52912	3.79418	3.11581	2.46161
16740	0.33545	0.35555	0.23727	2.25541	2.11358	1.89907	2.59413	1.72217	0.95713	1.50032	1.41366	1.26391	0.74797	0.61137	0.51661	3.72003	3.12291	2.44452
16910	0.29504	0.33834	0.22041	2.24471	2.07923	1.85432	2.58068	1.71610	0.95629	1.47923	1.45613	1.32159	0.78358	0.64263	0.52357	3.82801	3.18469	2.54684
17070	0.34168	0.36789	0.24302	2.28959	2.12305	1.91912	2.59436	1.71744	0.97246	1.50531	1.45735	1.36312	0.79285	0.65258	0.55044	3.82569	3.14032	2.50204
17240	0.32461	0.36068	0.24465	2.28475	2.12744	1.90880	2.60079	1.74023	0.95940	1.55037	1.51738	1.35203	0.76647	0.62774	0.53637	3.74653	3.14792	2.48146
17400	0.29861	0.36044	0.24292	2.27553	2.10887	1.93715	2.56052	1.73323	0.97124	1.56427	1.50212	1.32846	0.78191	0.64747	0.59272	3.81636	3.24789	2.62407
17570	0.35656	0.40351	0.25602	2.38151	2.20593	1.96521	2.67426	1.74808	1.03580	1.59299	1.50063	1.40538	0.82273	0.68392	0.57299	3.94171	3.27316	2.55810
17730	0.39902	0.39599	0.27459	2.34753	2.21627	1.98547	2.62588	1.75618	0.96876	1.60753	1.50275	1.38039	0.77176	0.66831	0.53983	3.80405	3.21909	2.59015
17900	0.34190	0.36321	0.24463	2.29077	2.10207	1.90757	2.60263	1.70159	0.96839	1.45440	1.39311	1.26616	0.77800	0.65573	0.52729	3.76893	3.14141	2.47680
18060	0.32644	0.36527	0.23336	2.24094	2.08095	1.89409	2.57452	1.70651	0.94347	1.41408	1.38318	1.28033	0.76847	0.62035	0.50916	3.72212	3.09503	2.45890	25.15	6.0	0.00	7.42	0.01274	0.01290	0.01673	0.00775	0.00578	0.00634	0.00468	0.01265	0.01687	0.00675	0.00692	0.00894	0.01490	0.01097	0.01197	0.00216	0.00613	0.00864
18220	0.31811	0.35013	0.22305	2.29981	2.10099	1.87403	2.55076	1.70346	0.97608	1.52441	1.48264	1.29440	0.73111	0.63336	0.52476	3.78273	3.15447	2.50153
18390	0.30811	0.36269	0.22801	2.26191	2.11250	1.95535	2.59200	1.72464	0.95204	1.52820	1.44247	1.35586	0.77692	0.67323	0.53380	3.77289	3.14285	2.50761
18550	0.33514	0.36461	0.26764	2.24923	2.12220	1.94536	2.58918	1.73950	0.95853	1.52066	1.45331	1.29682	0.80023	0.65977	0.54196	3.80962	3.17732	2.48248
18720	0.35023	0.37595	0.23981	2.28176	2.07737	1.94698	2.63186	1.72245	0.94257	1.50173	1.45051	1.30131	0.77905	0.65213	0.53133	3.83902	3.18301	2.52085
18880	0.35878	0.38482	0.28720	2.35118	2.27021	2.26930	2.68923	1.82129	1.09772	1.85488	1.76840	1.67616	0.90298	0.84238	0.70088	4.38223	3.71538	3.04903
19050	0.63310	0.66619	0.51872	2.95037	2.82824	2.58264	2.99925	2.16839	1.35366	2.21780	2.15278	1.92980	1.08222	1.04239	0.86048	4.55299	3.82758	3.17223
19210	0.70096	0.69103	0.58298	2.85943	2.88327	2.55657	2.97231	2.04562	1.31205	1.94557	1.98655	1.72677	1.03836	0.87238	0.75060	4.32322	3.55173	2.92941
19380	0.51198	0.53319	0.40727	2.76086	2.59208	2.32622	2.77700	1.91704	1.23582	1.87289	1.94221	1.65089	1.00050	0.83044	0.73705	4.11009	3.53309	2.89873
19540	0.51080	0.49791	0.37189	2.53780	2.32740	2.09391	2.68665	1.82597	1.05704	1.67642	1.58647	1.40097	0.83829	0.67712	0.59685	3.92822	3.26066	2.56017
19700	0.35802	0.38276	0.24519	2.31745	2.17576	1.94126	2.58527	1.73761	0.96715	1.53941	1.44616	1.37113	0.79953	0.64885	0.54111	3.82502	3.15760	2.53205	25.15	6.2	0.00	7.28	0.01274	0.01290	0.01673	0.00775	0.00578	0.00634	0.00468	0.01265	0.01687	0.00675	0.00692	0.00894	0.01490	0.01097	0.01197	0.00216	0.00613	0.00864
19870	0.34587	0.37678	0.22477	2.27710	2.18123	1.95488	2.59918	1.74397	0.98399	1.51145	1.49724	1.36892	0.77100	0.66120	0.60128	3.92601	3.26964	2.62321
20030	0.39929	0.41981	0.31867	2.48812	2.33293	2.21410	2.70243	1.78826	1.04943	1.76550	1.67844	1.58078	0.88608	0.78031	0.67269	4.13902	3.42929	2.73183
20200	0.46345	0.53019	0.35179	2.53492	2.40572	2.18144	2.69844	1.84469	1.06177	1.71749	1.65573	1.61054	0.85667	0.75886	0.62992	3.99213	3.31687	2.68667
20360	0.42315	0.42776	0.31648	2.46327	2.25745	2.08948	2.69208	1.77335	0.97738	1.63317	1.55049	1.44497	0.83911	0.72364	0.59130	3.87137	3.23164	2.66078
20520	0.38314	0.39350	0.27740	2.33651	2.21301	2.01878	2.64890	1.78082	1.02411	1.60872	1.55477	1.44606	0.81903	0.67399	0.55120	3.85235	3.23852	2.58847
20690	0.36788	0.40442	0.27490	2.37972	2.24680	2.02092	2.63856	1.75453	1.01344	1.58347	1.48360	1.36579	0.85156	0.71632	0.57359	3.84454	3.14095	2.54072
20850	0.36942	0.40367	0.26283	2.30700	2.12113	1.95925	2.61620	1.73219	0.99983	1.48304	1.44418	1.34561	0.77469	0.64277	0.55513	3.77719	3.14487	2.46955
21010	0.35211	0.37524	0.22842	2.28554	2.06791	1.92763	2.58254	1.69522	0.95396	1.48173	1.43850	1.29673	0.76741	0.62432	0.54281	3.78594	3.11497	2.47432
21180	0.33399	0.35195	0.22549	2.26144	2.11999	1.91857	2.55886	1.70450	0.95007	1.48538	1.40299	1.30241	0.75188	0.63616	0.51389	3.79507	3.14064	2.50639
21340	0.32391	0.35383	0.21791	2.22721	2.09112	1.87323	2.56453	1.68759	0.93618	1.43198	1.43188	1.30598	0.74634	0.61106	0.50964	3.73035	3.08837	2.42766	25.15	6.1	0.00	7.27	0.01274	0.01290	0.01673	0.00775	0.00578	0.00634	0.00468	0.01265	0.01687	0.00675	0.00692	0.00894	0.01490	0.01097	0.01197	0.00216	0.00614	0.00864
21500	0.29862	0.34473	0.21313	2.21116	2.04775	1.86636	2.56080	1.68724	0.92293	1.44597	1.37630	1.27532	0.73574	0.63008	0.50471	3.74284	3.07431	2.43262
21670	0.31699	0.33555	0.20946	2.21200	2.08152	1.87042	2.58226	1.69553	0.94275	1.49292	1.40518	1.26391	0.73515	0.59881	0.51007	3.74892	3.10394	2.64203
21830	0.29403	0.33093	0.19548	2.24618	2.07641	1.89133	2.53855	1.67334	0.93487	1.42309	1.36177	1.25441	0.72506	0.60234	0.48877	3.74344	3.04783	2.42319
22000	0.28989	0.32752	0.20466	2.19315	2.09558	1.92589	2.55609	1.69048	0.93384	1.42967	1.36816	1.25413	0.72038	0.61087	0.50657	3.76137	3.05150	2.43527
22160	0.28351	0.35204	0.20304	2.19442	2.08368	1.94212	2.55014	1.70146	0.93960	1.44655	1.41667	1.28122	0.75847	0.60588	0.49727	3.73632	3.11938	2.50282
22330	0.29734	0.33886	0.20576	2.27008	2.10883	1.88483	2.54996	1.69700	0.93568	1.50128	1.41987	1.31835	0.74402	0.59879	0.49802	3.75013	3.09952	2.48325
22490	0.29468	0.33239	0.20616	2.24133	2.06693	1.86808	2.53580	1.70267	0.93774	1.46939	1.40307	1.25644	0.73389	0.59318	0.50773	3.75813	3.09672	2.43181
22660	0.31578	0.33522	0.22088	2.20839	2.06647	1.89288	2.57244	1.72154	0.94008	1.45272	1.40895	1.24388	0.74729	0.61054	0.53729	3.71794	3.05583	2.42222
22820	0.32108	0.41381	0.19462	2.20108	2.06792	1.87043	2.55558	1.77929	0.92126	1.42145	1.38793	1.29093	0.74504	0.59633	0.48759	3.71668	3.05115	2.41378
22990	0.28785	0.33252	0.19847	2.22751	2.09782	1.90070	2.55326	1.67628	0.94079	1.46397	1.41188	1.30492	0.73693	0.59272	0.49086	3.72098	3.09408	2.43866	25.15	6.3	0.00	7.30	0.01274	0.01290	0.01673	0.00776	0.00578	0.00634	0.00468	0.01265	0.01687	0.00675	0.00693	0.00894	0.01490	0.01097	0.01197	0.00216	0.00613	0.00864
23150	0.29176	0.33360	0.20217	2.19106	2.07497	1.84389	2.54537	1.67131	0.93433	1.46698	1.38298	1.24177	0.72930	0.60069	0.49681	3.71813	3.12810	2.45263
23310	0.29636	0.32733	0.19931	2.20828	2.07052	1.84575	2.53139	1.67293	0.92635	1.44233	1.37240	1.25114	0.73959	0.59880	0.47938	3.71906	3.05830	2.44512
23480	0.28683	0.32301	0.20222	2.17593	2.04762	1.91174	2.53730	1.66301	0.93830	1.40129	1.38944	1.23510	0.72013	0.58883	0.47551	3.69995	3.07068	2.40903
23640	0.28027	0.32080	0.19162	2.18183	2.05813	1.85562	2.54300	1.67421	0.91952	1.41243	1.36887	1.24782	0.71815	0.59514	0.49949	3.69351	3.09433	2.41443
23800	0.29272	0.32596	0.19490	2.20663	2.06845	1.85720	2.54244	1.68343	0.91710	1.41369	1.37042	1.23464	0.73699	0.59321	0.48652	3.73570	3.07212	2.40270
23970	0.28993	0.32846	0.19843	2.18063	2.00831	1.83355	2.54143	1.66549	0.91261	1.41038	1.34328	1.24047	0.72638	0.59473	0.49025	3.71589	3.04611	2.39083
24130	0.29951	0.33679	0.20544	2.20368	2.06443	1.82461	2.55463	1.70566	0.94628	1.41189	1.39650	1.25452	0.73499	0.59306	0.49316	3.71212	3.06540	2.41359
24290	0.29250	0.32988	0.20381	2.16006	2.04670	1.91229	2.53659	1.66612	0.93478	1.41277	1.39715	1.26452	0.75806	0.61807	0.49874	3.71912	3.09022	2.41824
24460	0.29548	0.33163	0.18738	2.17638	2.07428	1.88177	2.52861	1.66812	0.92026	1.45428	1.40083	1.26461	0.72779	0.58622	0.48245	3.73186	3.09683	2.46482
24620	0.29571	0.32094	0.19480	2.18546	2.01537	1.84532	2.53715	1.68100	0.92686	1.39975	1.37182	1.22356	0.72637	0.58976	0.49014	3.68993	3.07909	2.44631	25.21	6.1	0.00	7.34	0.01274	0.01290	0.01672	0.00776	0.00578	0.00634	0.00468	0.01265	0.01687	0.00675	0.00693	0.00894	0.01490	0.01097	0.01197	0.00216	0.00613	0.00864
24790	0.29660	0.32822	0.19743	2.19975	2.02534	1.83434	2.54599	1.66381	0.93080	1.39688	1.36006	1.23310	0.72314	0.59461	0.49977	3.68214	3.07000	2.42889
24950	0.29383	0.32974	0.21382	2.26016	2.16607	1.95254	2.56739	1.70888	0.94295	1.51239	1.46280	1.39848	0.81279	0.63987	0.55119	3.80222	3.16589	2.53498
25120	0.35740	0.36259	0.24630	2.27212	2.20497	2.06638	2.60816	1.73504	0.98290	1.55691	1.49791	1.44776	0.80420	0.70834	0.56508	3.84931	3.27961	2.55277
25280	0.37729	0.39499	0.27987	2.43938	2.28168	2.03926	2.62901	1.74654	0.97562	1.54176	1.56369	1.37381	0.79204	0.67080	0.56015	3.86694	3.18622	2.54787
25440	0.36488	0.39243	0.25335	2.35831	2.15792	1.92539	2.58851	1.73176	0.95806	1.52645	1.48660	1.36314	0.77774	0.64595	0.55068	3.77816	3.13157	2.50625
25610	0.32957	0.36031	0.23694	2.27620	2.12794	1.88759	2.62052	1.69963	0.96984	1.53945	1.47165	1.36328	0.77039	0.64197	0.53452	3.83193	3.22302	2.53419
25770	0.31233	0.36708	0.23494	2.42852	2.25131	2.02043	2.63560	1.73630	0.98924	1.54790	1.48387	1.42233	0.78622	0.68272	0.59423	3.86361	3.26134	2.58144
25940	0.38456	0.39897	0.26805	2.44633	2.20092	1.97281	2.66390	1.76935	1.00939	1.58837	1.55469	1.42770	0.82628	0.66932	0.58548	3.86872	3.28585	2.63246
26100	0.40104	0.41618	0.27454	2.41138	2.26019	1.98583	2.63817	1.76705	1.01438	1.57702	1.52271	1.45451	0.82962	0.68693	0.59291	3.79660	3.19449	2.61017
26260	0.34525	0.37469	0.23747	2.31727	2.20232	1.97777	2.57663	1.72811	0.96746	1.51485	1.50072	1.33002	0.76188	0.62936	0.53728	3.84797	3.20868	2.53773	25.21	6.1	0.00	7.33	0.01274	0.01290	0.01672	0.00775	0.00578	0.00634	0.00468	0.01265	0.01687	0.00675	0.00692	0.00894	0.01490	0.01097	0.01197	0.00216	0.00613	0.00864
26430	0.35294	0.34324	0.24203	2.30696	2.13440	1.95521	2.60089	1.69514	0.95855	1.54300	1.43555	1.33241	0.75465	0.62080	0.52749	3.78802	3.16279	2.46456
26590	0.31498	0.35837	0.23680	2.23510	2.08359	1.90128	2.59150	1.69211	0.96020	1.46976	1.43138	1.26976	0.74412	0.63091	0.51978	3.76109	3.13697	2.49429
26750	0.32198	0.33160	0.21097	2.28911	2.15093	1.98539	2.57405	1.76589	0.99502	1.69592	1.65492	1.50274	0.79904	0.74655	0.71693	4.27876	3.56824	2.94280
26920	0.47918	0.58750	0.55495	2.92065	2.77604	2.54099	2.91880	2.10161	1.28714	2.22724	2.05556	2.02034	1.12758	1.09017	0.91506	4.37746	3.83330	3.21020
27080	0.75351	0.71275	0.56780	2.96424	2.71807	2.49692	2.90328	2.09886	1.34383	2.03487	2.16221	2.03228	1.05984	0.85067	0.76787	4.30220	3.60891	2.93660
27250	0.56355	0.62355	0.42254	2.81850	2.50621	2.29643	2.79216	1.89880	1.15503	1.84000	1.83438	1.67839	0.87068	0.76164	0.63465	4.11649	3.38872	2.71351
27410	0.45949	0.42476	0.35766	2.42711	2.23229	2.04541	2.67643	1.76016	0.99831	1.65094	1.58506	1.48074	0.81566	0.67840	0.57889	3.86787	3.19164	2.61807
27580	0.35432	0.39297	0.24072	2.30599	2.12746	1.90836	2.60068	1.72595	0.95767	1.49620	1.43966	1.28295	0.76701	0.61754	0.52977	3.75094	3.10300	2.46393
27740	0.34058	0.35464	0.23298	2.25128	2.11185	1.91822	2.54074	1.70242	0.96236	1.50877	1.42321	1.30036	0.76363	0.61512	0.51097	3.71612	3.11345	2.43624
27910	0.32545	0.34263	0.21115	2.21069	2.05614	1.86283	2.58420	1.67738	0.93263	1.45656	1.38706	1.26655	0.73928	0.61461	0.50276	3.73829	3.08416	2.46762	25.21	6.1	0.00	7.28	0.01274	0.01290	0.01672	0.00775	0.00578	0.00634	0.00468	0.01265	0.01687	0.00675	0.00693	0.00894	0.01490	0.01097	0.01197	0.00216	0.00614	0.00864
28070	0.29364	0.35067	0.20513	2.20897	2.03874	1.87891	2.56232	1.70039	0.94611	1.44582	1.40337	1.30334	0.75000	0.62001	0.51778	3.80240	3.06259	2.41711
28230	0.30674	0.36371	0.21200	2.18832	2.06889	1.90749	2.58310	1.70257	0.93550	1.48831	1.40963	1.26998	0.76360	0.61312	0.51174	3.75128	3.08974	2.45701
28400	0.29792	0.33728	0.21558	2.27969	2.11347	1.85742	2.57278	1.68115	0.94088	1.42719	1.37303	1.26849	0.73418	0.60155	0.51386	3.75490	3.10115	2.49472
28560	0.31940	0.37054	0.21643	2.23619	2.06534	1.90427	2.56540	1.70348	0.94273	1.41095	1.43240	1.25289	0.75324	0.62883	0.52037	3.73681	3.08963	2.44722
28730	0.30672	0.34969	0.20849	2.23633	2.11299	1.88157	2.52625	1.67511	0.92686	1.44627	1.38745	1.23774	0.73675	0.61501	0.50704	3.74629	3.08625	2.41140
28890	0.29374	0.34247	0.21911	2.20773	2.07947	1.87171	2.55459	1.68581	0.92364	1.46432	1.46854	1.27120	0.74997	0.62382	0.51572	3.74338	3.08312	2.41838
29060	0.30950	0.34174	0.21286	2.22035	2.13188	1.90039	2.56125	1.68698	0.93601	1.39969	1.40602	1.27619	0.74998	0.61076	0.51581	3.70920	3.07482	2.43994
29220	0.31153	0.33980	0.21659	2.26536	2.06624	1.87366	2.57168	1.69925	0.95938	1.42041	1.36176	1.25752	0.76823	0.60290	0.51627	3.72800	3.07719	2.43593
29390	0.29931	0.33144	0.20903	2.22102	2.05887	1.97222	2.55737	1.69603	0.93657	1.47639	1.39921	1.28306	0.73555	0.59869	0.48894	3.74700	3.09319	2.41120
29550	0.29657	0.35397	0.20236	2.23559	2.08640	1.85715	2.55212	1.69138	0.92937	1.45930	1.37916	1.26700	0.74650	0.62218	0.50819	3.73128	3.07193	2.42259	25.15	6.1	0.00	7.40	0.01274	0.01290	0.01672	0.00775	0.00578	0.00634	0.00468	0.01265	0.01686	0.00675	0.00693	0.00894	0.01490	0.01097	0.01197	0.00216	0.00614	0.00864
29710	0.29103	0.33400	0.19401	2.42402	2.12945	1.88839	2.54839	1.67233	0.92264	1.45643	1.38026	1.26014	0.72791	0.59401	0.50116	3.84089	3.14317	2.44858
29880	0.29505	0.34565	0.19857	2.21697	2.08870	1.89199	2.56716	1.68071	0.93889	1.45292	1.38662	1.24522	0.74207	0.60155	0.50200	3.71116	3.06147	2.44271
30040	0.29152	0.33665	0.19893	2.21363	2.07603	1.87239	2.54951	1.67249	0.92852	1.41478	1.37638	1.22980	0.73024	0.59640	0.48538	3.72510	3.07461	2.44626
30210	0.28590	0.33023	0.19690	2.17322	2.07216	1.84991	2.54280	1.68357	0.92282	1.41195	1.36039	1.24706	0.72399	0.60260	0.50310	3.73878	3.07342	2.45784
30370	0.30219	0.32332	0.20203	2.24976	2.08954	1.87290	2.54531	1.67603	0.92657	1.45580	1.41433	1.31327	0.73361	0.59789	0.48719	3.76208	3.07465	2.42476
30540	0.29905	0.32314	0.19995	2.19848	2.06151	1.88379	2.55149	1.70334	0.93381	1.38238	1.33744	1.25505	0.73486	0.60390	0.49606	3.73046	3.04010	2.44992
30700	0.28444	0.32703	0.19452	2.25219	2.12751	1.84113	2.53030	1.68081	0.91086	1.41184	1.35918	1.26546	0.73444	0.59148	0.48698	3.71455	3.08286	2.48372
30870	0.29701	0.32530	0.19848	2.25741	2.11133	1.89034	2.54561	1.70054	0.93447	1.44559	1.39346	1.28904	0.75250	0.59726	0.49373	3.74179	3.10009	2.41175
31030	0.28849	0.33050	0.20192	2.18386	2.07864	1.86430	2.54972	1.68561	0.92914	1.42696	1.36123	1.22763	0.72954	0.61574	0.50021	3.70204	3.09457	2.44224
31200	0.28708	0.32517	0.19263	2.19387	2.01641	1.84842	2.55479	1.67512	0.91690	1.40279	1.39176	1.24912	0.72815	0.60715	0.49853	3.69988	3.06110	2.40744	25.21	5.9	0.00	7.28	0.01274	0.01290	0.01672	0.00775	0.00578	0.00634	0.00468	0.01265	0.01686	0.00675	0.00693	0.00894	0.01490	0.01097	0.01197	0.00216	0.00613	0.00864
31360	0.29026	0.32300	0.19846	2.18156	2.05882	1.86181	2.54390	1.68801	0.92649	1.42557	1.38014	1.25898	0.73471	0.62102	0.51065	3.77492	3.08913	2.48289
31520	0.30560	0.34697	0.21263	2.22503	2.04976	1.86213	2.54367	1.68188	0.93648	1.43986	1.44452	1.27354	0.75177	0.60740	0.51180	3.72244	3.09431	2.45920
31680	0.29093	0.34177	0.20458	2.24387	2.06565	1.87640	2.55257	1.68968	0.94121	1.45344	1.37509	1.24242	0.76815	0.58987	0.49858	3.74396	3.09388	2.45955
31850	0.29278	0.32833	0.22112	2.20112	2.05536	1.84914	2.54092	1.67664	0.90691	1.43915	1.40211	1.30992	0.73300	0.61860	0.50360	3.74111	3.08509	2.41594
32010	0.28563	0.34454	0.21258	2.19687	2.07540	1.89827	2.55595	1.68878	0.92661	1.45881	1.45918	1.33872	0.74907	0.63352	0.52908	3.77684	3.19718	2.59209
32180	0.34448	0.36993	0.25227	2.34913	2.18173	2.01258	2.61476	1.75149	1.01304	1.63681	1.58228	1.50268	0.84270	0.73926	0.67307	4.00274	3.33727	2.75815
32340	0.48569	0.52483	0.38094	2.52468	2.35734	2.08004	2.71998	1.81545	1.09530	1.73600	1.67869	1.65619	0.87975	0.81862	0.70247	4.10790	3.65875	2.86164
32510	0.48360	0.50869	0.38848	2.53555	2.33785	2.18871	2.66560	1.80592	1.06457	1.72236	1.65019	1.50287	0.85642	0.71990	0.65695	4.10234	3.31981	2.73863
32670	0.43177	0.42975	0.31542	2.37772	2.22189	2.02105	2.66931	1.80120	1.01782	1.59787	1.57525	1.44424	0.79712	0.65925	0.54177	3.81928	3.17095	2.56538
32840	0.33540	0.38904	0.26080	2.32193	2.16698	1.95108	2.61137	1.75303	0.95903	1.51355	1.48136	1.34988	0.77406	0.64568	0.53755	3.76575	3.17075	2.49057	25.27	6.1	0.00	7.30	0.01274	0.01290	0.01672	0.00775	0.00578	0.00634	0.00468	0.01265	0.01686	0.00675	0.00693	0.00894	0.01490	0.01097	0.01197	0.00216	0.00613	0.00864
33000	0.32049	0.35457	0.22578	2.20559	2.07252	1.85307	2.58963	1.71601	0.96130	1.46211	1.39010	1.30158	0.77764	0.61610	0.53188	3.79605	3.12511	2.46171
33170	0.30662	0.36030	0.21726	2.26839	2.14048	1.90480	2.58515	1.72842	0.99212	1.46901	1.42306	1.31612	0.76750	0.61310	0.51160	3.80178	3.12167	2.50042
33330	0.32749	0.36375	0.21322	2.26263	2.09242	1.87323	2.56175	1.69437	0.93543	1.50388	1.44404	1.30808	0.76604	0.62028	0.50874	3.75472	3.08698	2.42874
33490	0.29675	0.35671	0.21067	2.21586	2.04987	1.85005	2.54426	1.67965	0.93269	1.41595	1.40432	1.27601	0.73399	0.59861	0.50897	3.81546	3.12790	2.51135
33660	0.31137	0.33437	0.21421	2.26456	2.15707	1.92985	2.58126	1.72024	0.95118	1.52783	1.47018	1.33008	0.80171	0.63651	0.53939	3.80062	3.14238	2.51410
33820	0.36534	0.39491	0.24954	2.27504	2.09242	1.96248	2.57387	1.70092	0.93740	1.51724	1.46240	1.31873	0.76108	0.62487	0.54277	3.79528	3.17301	2.49401
33990	0.32697	0.34811	0.26164	2.26157	2.09858	1.95607	2.61101	1.70476	0.94608	1.50274	1.47248	1.33665	0.76259	0.66275	0.55834	3.86481	3.19205	2.63191
34150	0.35269	0.40018	0.33534	2.43462	2.50113	2.26725	2.72519	1.87988	1.13701	1.94575	1.94733	1.79459	1.03623	0.96626	0.82878	4.36896	3.67529	2.94509
34320	0.65484	0.69247	0.52024	2.81027	2.67502	2.47660	2.93573	2.02621	1.23750	2.03083	1.97789	1.85395	1.08236	0.94052	0.81947	4.24071	3.69937	3.00316
34480	0.56733	0.57301	0.43294	2.67147	2.49765	2.34706	2.82313	1.91570	1.12153	1.77391	1.71090	1.68033	0.91674	0.73303	0.64950	4.04955	3.41953	2.74454	25.21	6.1	0.00	7.27	0.01274	0.01290	0.01672	0.00775	0.00578	0.00634	0.00468	0.01265	0.01686	0.00675	0.00693	0.00894	0.01490	0.01096	0.01197	0.00216	0.00613	0.00864
34650	0.46412	0.49635	0.34731	2.41177	2.29401	2.17808	2.68442	1.81418	1.03098	1.65448	1.58562	1.47263	0.85321	0.70170	0.61801	3.99534	3.32637	2.66673
34810	0.40036	0.41224	0.31747	2.44510	2.27489	2.04286	2.64988	1.80991	1.00706	1.52055	1.49217	1.39017	0.80968	0.67463	0.55649	3.85080	3.18282	2.51258
34980	0.33328	0.37863	0.24996	2.30797	2.14275	1.93887	2.59838	1.71330	0.97970	1.51911	1.47581	1.33544	0.76942	0.64176	0.51944	3.79187	3.15079	2.61142
35140	0.34990	0.37663	0.21860	2.26983	2.09803	1.88862	2.56926	1.70169	0.93288	1.46083	1.43030	1.26151	0.75650	0.60120	0.50591	3.73565	3.07935	2.43399
35300	0.30915	0.34719	0.20986	2.19158	2.04934	1.91363	2.57415	1.70501	0.93731	1.44930	1.43637	1.31318	0.76282	0.62554	0.52417	3.78136	3.12209	2.48725
35470	0.33563	0.37815	0.25900	2.25262	2.15465	1.91447	2.57655	1.69139	0.96079	1.48067	1.41801	1.31994	0.77245	0.64037	0.53687	3.75576	3.09381	2.45837
35630	0.32358	0.35160	0.23185	2.25357	2.06101	1.86392	2.56961	1.68826	0.93611	1.46638	1.39371	1.26600	0.77076	0.62637	0.49980	3.74622	3.11085	2.44518
35800	0.28845	0.33235	0.21568	2.19925	2.05748	1.90240	2.54569	1.70787	0.94062	1.45427	1.42753	1.30724	0.76398	0.63369	0.54958	3.74342	3.15969	2.48243
35960	0.31485	0.34623	0.23959	2.22604	2.10697	1.95667	2.59891	1.75482	0.95529	1.50315	1.50268	1.39984	0.78489	0.73792	0.60639	3.79297	3.26533	2.55497
36130	0.34161	0.37803	0.25573	2.29133	2.16556	2.05514	2.58975	1.71798	0.99565	1.57439	1.48129	1.37134	0.79509	0.68118	0.54338	3.88557	3.21300	2.58019	25.27	6.1	0.00	7.38	0.01274	0.01290	0.01672	0.00775	0.00578	0.00634	0.00468	0.01265	0.01686	0.00675	0.00692	0.00894	0.01490	0.01096	0.01197	0.00216	0.00613	0.00863
36290	0.34524	0.40854	0.28613	2.32888	2.24076	2.01592	2.62292	1.76720	1.02313	1.63697	1.53920	1.37012	0.78722	0.68989	0.58119	3.79115	3.17868	2.53429
36460	0.33787	0.39126	0.27140	2.29603	2.21565	1.98086	2.60702	1.73175	0.98814	1.52956	1.54122	1.38507	0.80609	0.66723	0.55875	3.80647	3.18337	2.52143
36620	0.34380	0.35545	0.22039	2.28166	2.10354	1.91857	2.58776	1.69359	0.95349	1.47174	1.45849	1.34391	0.74697	0.63363	0.51851	3.78213	3.15298	2.45938
36790	0.31631	0.35110	0.22873	2.20677	2.07416	1.86786	2.58444	1.70046	0.94542	1.46902	1.42361	1.26717	0.75734	0.62478	0.50303	3.73932	3.11638	2.45776
36950	0.37599	0.36822	0.22504	2.23730	2.09974	1.90635	2.56827	1.67886	0.95963	1.48688	1.46108	1.31224	0.76736	0.63203	0.50511	3.76581	3.13049	2.46502
37120	0.30338	0.35153	0.22039	2.24584	2.11045	1.93762	2.59697	1.74185	1.01384	1.57697	1.63752	1.52818	0.85108	0.71421	0.67133	3.94202	3.51079	2.88158
37280	0.46107	0.56242	0.45454	2.66246	2.53996	2.42917	2.81796	1.96182	1.24956	2.01200	2.13469	1.95616	1.10621	0.96245	0.88509	4.42600	3.80012	3.11970
37440	0.68733	0.75671	0.61111	2.89059	2.65904	2.50709	3.01575	2.04559	1.31918	2.18602	2.01440	2.08756	1.09204	0.93221	0.85375	4.45190	3.85439	3.18335
37610	0.56073	0.65597	0.46787	2.78540	2.61774	2.31650	2.87109	1.93015	1.11397	1.87402	1.73693	1.66453	0.92076	0.77344	0.67611	4.00306	3.42651	2.68151
37770	0.43352	0.46099	0.37785	2.46866	2.31283	2.10324	2.74646	1.82722	1.06233	1.69994	1.60568	1.43786	0.85596	0.70310	0.58622	3.95671	3.24527	2.58716	25.27	6.0	0.00	7.32	0.01274	0.01290	0.01672	0.00775	0.00578	0.00634	0.00468	0.01265	0.01686	0.00675	0.00692	0.00894	0.01490	0.01096	0.01197	0.00216	0.00613	0.00863
37940	0.37030	0.40912	0.29704	2.28131	2.13957	1.97942	2.61720	1.77738	0.99504	1.52575	1.52579	1.34876	0.78770	0.67461	0.52838	3.79556	3.11929	2.49768
38100	0.32896	0.34940	0.23469	2.24675	2.09298	1.89551	2.59052	1.71437	0.95065	1.42968	1.41713	1.31259	0.78405	0.61162	0.50512	3.78912	3.09257	2.47375
38270	0.30447	0.34889	0.22459	2.25062	2.10222	1.90177	2.56130	1.70169	0.94296	1.47297	1.44359	1.30651	0.76558	0.61919	0.52598	3.82805	3.14269	2.47237
38430	0.31703	0.35767	0.23202	2.30046	2.13345	1.92873	2.57061	1.73100	0.97148	1.47402	1.43997	1.39355	0.77449	0.66522	0.51383	3.83866	3.15649	2.53649
38600	0.30717	0.35589	0.21569	2.24864	2.11219	1.91292	2.60077	1.71331	0.98754	1.48403	1.45880	1.30061	0.76704	0.65898	0.51998	3.80107	3.10641	2.51942
38760	0.32497	0.37384	0.21754	2.24914	2.08735	1.95191	2.56355	1.72256	0.94988	1.51932	1.47989	1.30064	0.75615	0.61493	0.51780	3.81932	3.10880	2.53915
38930	0.32324	0.35186	0.21620	2.23331	2.10883	1.91214	2.58410	1.71904	0.95804	1.54612	1.53580	1.36001	0.76734	0.64495	0.54720	3.83916	3.12322	2.46219
39090	0.34589	0.36922	0.23245	2.26391	2.11700	1.89946	2.59319	1.70813	0.97144	1.48998	1.42916	1.30197	0.76894	0.63151	0.52093	3.77186	3.14825	2.51271
39260	0.32625	0.36410	0.23725	2.32972	2.18821	1.93527	2.58111	1.71604	0.95572	1.57393	1.46927	1.30628	0.77240	0.63525	0.53292	3.83501	3.15674	2.49423
39420	0.34157	0.35142	0.22904	2.27056	2.12498	1.90139	2.56408	1.69315	0.94683	1.46230	1.47444	1.33125	0.76413	0.63226	0.50602	3.78202	3.11596	2.45372	25.27	6.0	0.00	7.44	0.01274	0.01290	0.01672	0.00775	0.00578	0.00634	0.00468	0.01265	0.01686	0.00675	0.00693	0.00894	0.01490	0.01096	0.01197	0.00216	0.00613	0.00864
39580	0.30252	0.34237	0.21956	2.24935	2.07793	1.88679	2.57324	1.69768	0.94898	1.44930	1.38592	1.28356	0.73865	0.60429	0.50377	3.78373	3.09065	2.43376
39750	0.29322	0.33273	0.20222	2.23098	2.08080	1.88309	2.54313	1.67495	0.92578	1.46252	1.42169	1.30634	0.73902	0.60279	0.50225	3.74809	3.13345	2.48826
39910	0.30611	0.33718	0.20955	2.21629	2.06078	1.85672	2.55008	1.68164	0.92559	1.41393	1.39101	1.29917	0.74067	0.62204	0.49236	3.73894	3.08133	2.40463
40080	0.29199	0.33263	0.20724	2.22496	2.06455	1.88549	2.54520	1.68720	0.92805	1.43415	1.38176	1.23471	0.75402	0.59523	0.49307	3.72012	3.09667	2.43549
40240	0.28760	0.32889	0.20951	2.25186	2.09292	1.88565	2.54000	1.67381	0.92326	1.43361	1.40962	1.25359	0.73293	0.59820	0.49301	3.76597	3.08373	2.43626
40410	0.30960	0.33081	0.19256	2.20270	2.05954	1.86284	2.54961	1.68109	0.93738	1.44637	1.39817	1.23315	0.73615	0.62340	0.49938	3.76861	3.11959	2.45903
40570	0.29784	0.33197	0.20148	2.25311	2.09722	1.87073	2.54213	1.67768	0.91848	1.42612	1.41713	1.27272	0.73849	0.60196	0.49519	3.77927	3.14957	2.46777
40740	0.30281	0.33261	0.21167	2.24412	2.18612	1.92551	2.56728	1.69962	0.93602	1.45753	1.41945	1.29035	0.77646	0.63030	0.51492	3.78241	3.09292	2.46186
40900	0.32279	0.36709	0.24077	2.22967	2.08022	1.88814	2.59235	1.70383	0.95669	1.46839	1.42200	1.30400	0.73507	0.62233	0.51430	3.78087	3.13738	2.45659
41060	0.31660	0.35651	0.21739	2.20624	2.07650	1.92279	2.55546	1.71194	0.95213	1.46631	1.39026	1.28266	0.76244	0.61826	0.51507	3.77811	3.12775	2.52015	25.27	6.2	0.00	7.31	0.01274	0.01290	0.01672	0.00775	0.00578	0.00634	0.00468	0.01265	0.01686	0.00675	0.00692	0.00894	0.01490	0.01096	0.01197	0.00216	0.00614	0.00863
41230	0.31023	0.34722	0.22502	2.20410	2.05273	1.89383	2.56248	1.67375	0.92495	1.49814	1.38562	1.26146	0.74482	0.60705	0.50437	3.74332	3.11665	2.45258
41390	0.29217	0.33359	0.20439	2.19781	2.09319	1.89689	2.56891	1.69427	0.93682	1.43581	1.37561	1.26328	0.74924	0.61658	0.49405	3.72586	3.10646	2.40133
41550	0.29860	0.33516	0.20440	2.20059	2.02691	1.87531	2.54265	1.69848	0.93425	1.42440	1.36571	1.23363	0.72729	0.59998	0.48178	3.71580	3.06280	2.42906
41720	0.29698	0.34362	0.20594	2.20541	2.05528	1.85532	2.56245	1.68605	0.92291	1.46078	1.43419	1.30531	0.73004	0.59475	0.49722	3.72597	3.06912	2.44720
41880	0.30289	0.33599	0.20418	2.20456	2.06605	1.88107	2.55087	1.69290	0.91881	1.41959	1.36485	1.22764	0.72668	0.58907	0.49036	3.71159	3.08748	2.43167
42040	0.27544	0.33677	0.20128	2.20402	2.07359	1.89292	2.55762	1.68076	0.93750	1.56434	1.67101	1.39623	0.75934	0.62048	0.59985	4.16714	3.39558	2.86004
42210	0.46449	0.52033	0.43791	2.88131	2.60839	2.48363	2.80943	1.97066	1.21839	2.20548	2.30821	2.10550	1.16631	1.00963	0.87418	4.67078	4.18200	3.68944
42370	0.74293	0.84845	0.71487	3.16117	3.19458	2.97738	3.13662	2.25381	1.46740	2.64087	2.41917	2.50445	1.19420	1.15242	1.02462	4.63633	3.98395	3.31327
42530	0.66450	0.73846	0.67122	2.90995	2.66447	2.43730	2.89018	2.05464	1.23235	1.93223	1.78756	1.84139	0.98411	0.86721	0.72948	4.12390	3.54549	2.78118
42700	0.45534	0.49731	0.35882	2.47791	2.39018	2.21393	2.69781	1.83197	1.08841	1.66713	1.56308	1.42945	0.81702	0.67224	0.57071	3.86097	3.19888	2.53264	25.21	6.1	0.00	7.41	0.01274	0.01290	0.01672	0.00775	0.00578	0.00634	0.00468	0.01265	0.01686	0.00675	0.00692	0.00894	0.01490	0.01096	0.01197	0.00216	0.00614	0.00863
42860	0.38404	0.40532	0.26525	2.31301	2.11894	1.93410	2.60175	1.74130	1.03687	1.50209	1.45728	1.31006	0.80791	0.63950	0.54345	3.77385	3.12541	2.48514
43020	0.32339	0.38010	0.25290	2.21917	2.07751	1.88530	2.56391	1.71693	0.97460	1.42920	1.40316	1.26811	0.77103	0.65344	0.50028	3.75749	3.09063	2.45147
43190	0.30578	0.34595	0.22115	2.21818	2.10424	1.87624	2.55532	1.70107	0.95266	1.49558	1.48872	1.29011	0.73759	0.59470	0.50349	3.79876	3.17308	2.47706
43350	0.29925	0.33889	0.20725	2.23903	2.08678	1.90371	2.55784	1.70301	0.94306	1.45456	1.39146	1.28294	0.73828	0.61580	0.51756	3.75425	3.08697	2.43328
43510	0.29658	0.32184	0.19894	2.19169	2.08651	1.89151	2.55251	1.69876	0.93778	1.45210	1.39152	1.26038	0.73672	0.61133	0.49808	3.74280	3.09327	2.43970
43680	0.30630	0.32126	0.20795	2.20812	2.08193	1.86928	2.55485	1.67645	0.92730	1.41872	1.38722	1.27171	0.73659	0.60067	0.50376	3.73514	3.07518	2.45268
43840	0.30355	0.32555	0.19645	2.17482	2.05240	1.88204	2.54854	1.66799	0.92950	1.41783	1.41530	1.24349	0.74770	0.60253	0.48186	3.72890	3.08266	2.44614
44010	0.29825	0.32868	0.19674	2.23143	2.06805	1.89034	2.59251	1.71727	0.92049	1.43099	1.42565	1.29535	0.72672	0.59886	0.49684	3.74680	3.08005	2.49219
44170	0.30543	0.32344	0.21657	2.27130	2.13107	1.89847	2.54937	1.67583	0.93415	1.45844	1.43833	1.29984	0.75836	0.62039	0.51032	3.78242	3.08834	2.44492
44340	0.30835	0.34935	0.20834	2.21951	2.07437	1.88627	2.56161	1.70340	0.94161	1.44090	1.37909	1.25889	0.75817	0.60665	0.50407	3.74817	3.11972	2.48616	25.27	6.1	0.00	7.32	0.01274	0.01290	0.01672	0.00775	0.00578	0.00634	0.00468	0.01265	0.01686	0.00675	0.00692	0.00894	0.01490	0.01096	0.01197	0.00216	0.00614	0.00864
44500	0.29946	0.35159	0.20794	2.23126	2.08986	1.85587	2.54722	1.69597	0.93599	1.44211	1.41725	1.26504	0.73956	0.60513	0.49821	3.73464	3.08652	2.41363
44670	0.30024	0.32690	0.20003	2.29432	2.07940	1.87217	2.54838	1.68960	0.93682	1.45597	1.38374	1.28411	0.76273	0.61589	0.52431	3.74526	3.11399	2.44140
44830	0.30696	0.34803	0.21651	2.19926	2.08188	1.90145	2.56253	1.68919	0.94353	1.45418	1.41284	1.24866	0.76245	0.60712	0.49372	3.74379	3.10759	2.48451
45000	0.29197	0.33978	0.20803	2.19852	2.05702	1.88464	2.54826	1.67427	0.91692	1.41374	1.38749	1.25339	0.73610	0.59886	0.49414	3.73240	3.09110	2.44899
45160	0.30645	0.34951	0.21321	2.18636	2.03155	1.86912	2.57963	1.68102	0.92261	1.43689	1.37677	1.24050	0.74045	0.60674	0.50111	3.75496	3.11783	2.44569
45320	0.30289	0.32403	0.20342	2.20880	2.10296	1.90435	2.55557	1.69482	0.95794	1.46550	1.42143	1.26409	0.74057	0.63063	0.51706	3.73327	3.12034	2.45264
45490	0.31355	0.34108	0.22587	2.26982	2.11103	1.89987	2.57326	1.70175	0.94380	1.43223	1.43814	1.30418	0.78313	0.63313	0.51229	3.76786	3.12952	2.49562
45650	0.31383	0.36573	0.23349	2.26680	2.09969	1.85153	2.54625	1.71384	0.95696	1.49075	1.43132	1.28944	0.75449	0.62135	0.53388	3.78396	3.12522	2.51687
45820	0.33687	0.34989	0.23298	2.23006	2.06630	1.91853	2.63277	1.74000	0.96234	1.50240	1.43540	1.37744	0.77165	0.63740	0.54599	3.77379	3.11449	2.48241
45980	0.35160	0.36197	0.23891	2.26150	2.14216	1.93911	2.58083	1.72865	0.93964	1.46244	1.43802	1.31128	0.76885	0.61221	0.50403	3.76763	3.15142	2.45053	25.27	6.0	0.00	7.36	0.01274	0.01290	0.01672	0.00775	0.00578	0.00634	0.00468	0.01265	0.01686	0.00675	0.00692	0.00894	0.01490	0.01096	0.01197	0.00216	0.00614	0.00864
46140	0.31951	0.35202	0.21134	2.22893	2.10051	1.92219	2.58715	1.69755	0.92480	1.43992	1.40339	1.31475	0.74159	0.60867	0.51705	3.75407	3.10322	2.47752
46310	0.30186	0.33497	0.19908	2.20445	2.07801	1.85350	2.54723	1.69016	0.93057	1.39624	1.37661	1.25629	0.74666	0.60299	0.50594	3.74558	3.06349	2.41176
46470	0.29745	0.34312	0.20812	2.19194	2.07051	1.89764	2.54927	1.69270	0.94017	1.43915	1.44138	1.26644	0.75153	0.62013	0.52643	3.75018	3.11842	2.42293
46640	0.29913	0.35170	0.20616	2.20312	2.03056	1.86313	2.56158	1.69493	0.94177	1.43626	1.37101	1.24962	0.77565	0.62986	0.50852	3.77257	3.06605	2.41430
46800	0.30732	0.34611	0.20740	2.19061	2.11137	1.92899	2.57056	1.67831	0.93002	1.47599	1.45244	1.29163	0.74308	0.63322	0.51536	3.75331	3.09021	2.47332
46970	0.34094	0.34603	0.23595	2.22129	2.08646	1.87195	2.56555	1.71702	0.94813	1.51582	1.40506	1.30448	0.78643	0.62421	0.53474	3.81105	3.17275	2.49446
47130	0.33753	0.36319	0.23098	2.28051	2.09959	1.90299	2.59731	1.70902	0.95054	1.46162	1.42681	1.34374	0.76811	0.62113	0.52405	3.78560	3.15667	2.50726
47290	0.33473	0.40518	0.25454	2.26458	2.14217	1.91096	2.58596	1.69868	0.94990	1.49311	1.45807	1.29445	0.73860	0.62145	0.54553	3.78016	3.09264	2.47060
47460	0.33641	0.37954	0.22313	2.27542	2.10208	1.86269	2.57368	1.70028	0.94785	1.47664	1.43219	1.31554	0.76376	0.64736	0.53167	3.82341	3.15407	2.47553
47620	0.32171	0.36586	0.23667	2.23659	2.14357	1.89822	2.56407	1.69825	0.99361	1.50830	1.40917	1.27622	0.76973	0.62909	0.50085	3.77736	3.13829	2.48379	25.27	6.1	0.00	7.31	0.01274	0.01290	0.01672	0.00775	0.00578	0.00633	0.00468	0.01265	0.01686	0.00675	0.00692	0.00894	0.01490	0.01096	0.01197	0.00216	0.00613	0.00863
47790	0.31614	0.36821	0.24354	2.29789	2.12609	1.92472	2.59341	1.73687	0.98627	1.48117	1.46519	1.31193	0.79347	0.66159	0.53729	3.79348	3.14813	2.51038
47950	0.36853	0.40494	0.27122	2.36161	2.17379	2.00785	2.59781	1.73655	0.99739	1.55050	1.51480	1.35024	0.80651	0.65274	0.54532	3.91741	3.20928	2.51267
48110	0.32989	0.37347	0.24256	2.34414	2.23139	1.95021	2.59261	1.71473	0.96652	1.51129	1.48527	1.37848	0.77767	0.61951	0.53111	3.80598	3.11690	2.45749
48280	0.32418	0.36923	0.23391	2.26218	2.10534	1.87313	2.57622	1.71731	0.97785	1.43742	1.44602	1.26049	0.75124	0.59895	0.49929	3.74204	3.07024	2.46193
48440	0.30465	0.33364	0.21487	2.22830	2.07901	1.89430	2.57557	1.70495	0.95328	1.52598	1.47900	1.34858	0.78616	0.63308	0.54098	4.00849	3.31964	2.64684
48600	0.35291	0.38706	0.32466	2.44391	2.36797	2.23111	2.70252	1.88758	1.11963	1.86280	1.80672	1.66341	0.98994	0.84515	0.74469	4.08849	3.54374	2.90420
48770	0.60205	0.59006	0.48411	2.77025	2.54186	2.38967	2.84096	1.91692	1.16480	2.04417	2.06619	1.97737	1.11786	0.93776	0.83137	4.43047	3.66476	3.11888
48930	0.60701	0.63996	0.53623	2.91333	2.82101	2.62943	2.86554	1.99282	1.29021	2.12255	2.01541	1.92681	1.13289	0.95666	0.88854	4.34433	3.67804	3.18616
49100	0.57246	0.62179	0.53473	2.85597	2.64536	2.47842	2.87785	1.99051	1.26674	2.05908	2.10323	1.91501	1.04848	0.86779	0.74576	4.39897	3.65513	2.98241
49260	0.54594	0.54687	0.41820	2.87363	2.69454	2.43995	2.77208	1.91787	1.11907	1.93278	1.80437	1.59559	0.99333	0.87497	0.70083	4.13526	3.49233	2.79800	25.33	5.9	0.00	7.32	0.01274	0.01290	0.01672	0.00775	0.00578	0.00633	0.00468	0.01265	0.01686	0.00675	0.00692	0.00894	0.01490	0.01096	0.01197	0.00216	0.00613	0.00863
49430	0.50078	0.54970	0.35764	2.48163	2.30028	2.10078	2.70788	1.86895	1.07541	1.59290	1.63456	1.46367	0.87155	0.68418	0.60600	3.90189	3.20485	2.62222
49590	0.39129	0.39726	0.28976	2.30109	2.15735	1.95891	2.66427	1.76070	0.99682	1.49431	1.44650	1.32418	0.78971	0.63928	0.53354	3.81700	3.14169	2.53806
49750	0.33963	0.37078	0.22897	2.24050	2.08390	1.89713	2.56621	1.71390	0.95846	1.46367	1.46359	1.33514	0.73887	0.61952	0.51819	3.78455	3.10851	2.46276
49920	0.33193	0.36888	0.24405	2.24877	2.08470	1.89048	2.57697	1.70420	0.95894	1.46332	1.41190	1.29106	0.73977	0.60947	0.51670	3.78675	3.12319	2.45754
50080	0.33226	0.34703	0.22936	2.22897	2.08641	1.89770	2.56742	1.70285	0.95231	1.48349	1.41732	1.31448	0.74809	0.62297	0.51807	3.71986	3.11593	2.45751
50240	0.31849	0.35622	0.20609	2.21080	2.04632	1.90095	2.57674	1.71536	0.95424	1.44016	1.40716	1.28840	0.74899	0.61374	0.51838	3.75868	3.08581	2.46990
50410	0.30422	0.32910	0.20150	2.22683	2.10369	1.92733	2.54936	1.67949	0.92253	1.45477	1.40443	1.29951	0.73776	0.60290	0.50380	3.78268	3.06814	2.42215
50570	0.31121	0.34937	0.20222	2.21537	2.06516	1.84421	2.56242	1.67941	0.95006	1.44829	1.40870	1.24874	0.73613	0.61244	0.49562	3.72697	3.11150	2.41964
50730	0.29082	0.34504	0.21843	2.22191	2.08154	1.91590	2.55448	1.70017	0.94878	1.45395	1.42464	1.27514	0.74759	0.63513	0.49081	3.73123	3.08626	2.43753
50900	0.31304	0.34344	0.22174	2.22718	2.04730	1.88774	2.55544	1.69611	0.92982	1.42412	1.35880	1.27762	0.74304	0.61880	0.49308	3.74945	3.05986	2.40552	25.27	6.3	0.00	6.40	0.01274	0.01290	0.01671	0.00775	0.00578	0.00633	0.00468	0.01265	0.01686	0.00675	0.00692	0.00894	0.01490	0.01096	0.01197	0.00216	0.00613	0.00863
51060	0.28549	0.33011	0.20221	2.24322	2.08683	1.91262	2.55165	1.68660	0.92793	1.44307	1.41038	1.29364	0.74083	0.61100	0.50665	3.75565	3.09541	2.48311
51220	0.32456	0.35168	0.23737	2.28484	2.18378	1.93440	2.57277	1.70852	0.95431	1.58135	1.55685	1.48932	0.82938	0.68479	0.56172	3.98146	3.29244	2.69324
51390	0.38243	0.48948	0.36833	2.51899	2.44054	2.27100	2.79342	1.84877	1.13017	1.97930	1.85118	1.66191	0.92557	0.84661	0.78056	4.12769	3.48588	2.84166
51550	0.53457	0.58997	0.47904	2.56673	2.40661	2.18839	2.79348	1.90020	1.13511	1.77676	1.84338	1.66330	1.00197	0.80152	0.70307	4.09790	3.48297	2.80929
51720	0.48599	0.47332	0.35859	2.56260	2.44896	2.22289	2.74517	1.86320	1.09763	1.76651	1.73650	1.53555	0.85539	0.71176	0.62936	4.05943	3.30391	2.63996
51880	0.40719	0.43623	0.29464	2.39327	2.24820	2.04470	2.64251	1.78975	1.03490	1.61221	1.57961	1.33042	0.82306	0.64045	0.53665	3.84846	3.15930	2.51268
52040	0.34137	0.40456	0.24249	2.38747	2.23918	2.00682	2.60584	1.72426	0.97612	1.60856	1.51686	1.47892	0.77774	0.63886	0.55059	3.83037	3.20116	2.51690
52210	0.33404	0.39120	0.25007	2.31924	2.15636	1.94371	2.57251	1.72623	1.00212	1.56305	1.47254	1.33742	0.80162	0.63451	0.54291	3.82109	3.11632	2.51552
52370	0.33083	0.36561	0.23165	2.28720	2.14856	1.91262	2.57877	1.72022	0.97204	1.51698	1.43171	1.28704	0.76003	0.65951	0.51748	3.76366	3.11939	2.45238
52540	0.32362	0.35082	0.22209	2.28555	2.13641	1.89710	2.59117	1.80530	0.94834	1.51600	1.42144	1.25911	0.77415	0.63766	0.51536	3.77619	3.13000	2.47100	25.33	6.1	0.00	7.33	0.01274	0.01290	0.01671	0.00775	0.00578	0.00633	0.00468	0.01265	0.01686	0.00675	0.00692	0.00894	0.01490	0.01096	0.01197	0.00216	0.00613	0.00863
52700	0.30426	0.35902	0.22584	2.25905	2.10295	1.92317	2.56138	1.69306	0.95475	1.44410	1.40291	1.28425	0.75840	0.62974	0.54674	3.74108	3.11721	2.46480
52860	0.32496	0.35633	0.22467	2.24211	2.08475	1.87608	2.60728	1.70445	0.94202	1.43847	1.41465	1.27871	0.75413	0.60835	0.51282	3.75659	3.08400	2.46775
53030	0.30286	0.34202	0.21039	2.23023	2.07245	1.89416	2.56096	1.69488	0.93228	1.45805	1.41379	1.29328	0.73273	0.60416	0.50859	3.73429	3.09765	2.44586
53190	0.29855	0.34104	0.22392	2.23636	2.08508	1.86633	2.55892	1.68577	0.93886	1.43535	1.40501	1.27819	0.74820	0.61563	0.50803	3.72155	3.06658	2.41678
53350	0.31832	0.34093	0.21621	2.20659	2.05722	1.83443	2.54770	1.67825	0.93480	1.40536	1.36624	1.22585	0.73128	0.59296	0.48823	3.77322	3.07177	2.44014
53520	0.28923	0.33428	0.18942	2.20247	2.03798	1.84047	2.51878	1.67850	0.92830	1.40346	1.35397	1.22342	0.73179	0.59957	0.48809	3.72423	3.06518	2.44182
53680	0.29156	0.32735	0.20562	2.18482	2.05555	1.85378	2.53637	1.67899	0.92028	1.39946	1.40571	1.23293	0.72205	0.61191	0.50572	3.69502	3.05543	2.40677
53850	0.28277	0.32123	0.19981	2.18177	2.04245	1.86954	2.54581	1.69230	0.91488	1.42645	1.36642	1.24961	0.73127	0.60256	0.49521	3.74234	3.08715	2.46641
54010	0.31196	0.35701	0.22454	2.26508	2.08277	1.86801	2.56072	1.68712	0.95643	1.43677	1.42730	1.31237	0.74885	0.62118	0.53123	3.81882	3.14021	2.46446
54180	0.34301	0.36964	0.23403	2.29843	2.13540	1.87177	2.58384	1.69424	0.96077	1.43904	1.38876	1.27307	0.74802	0.63890	0.52616	3.72950	3.11356	2.47478	25.33	6.1	0.00	7.31	0.01274	0.01290	0.01671	0.00775	0.00578	0.00633	0.00468	0.01265	0.01686	0.00675	0.00692	0.00894	0.01490	0.01096	0.01197	0.00216	0.00613	0.00863
54340	0.33636	0.34852	0.23020	2.25088	2.07130	1.90538	2.58743	1.70106	0.97249	1.48094	1.41813	1.29689	0.74676	0.62329	0.51362	3.77326	3.12127	2.45104
54500	0.30327	0.33785	0.21206	2.21297	2.06588	1.90736	2.55203	1.69076	0.94030	1.50986	1.43887	1.27895	0.74571	0.62094	0.51725	3.87213	3.12264	2.52520
54670	0.31999	0.37076	0.23334	2.26926	2.09158	1.90710	2.57259	1.70862	0.96924	1.50210	1.43521	1.30813	0.75485	0.64282	0.54182	3.80806	3.20235	2.53265
54830	0.31448	0.36320	0.24682	2.27994	2.15462	1.93268	2.58871	1.70314	0.98333	1.49598	1.48890	1.34019	0.78150	0.63888	0.54460	3.83020	3.23815	2.53116
54990	0.35795	0.39058	0.27077	2.30854	2.25123	1.98197	2.66678	1.77584	0.99273	1.61950	1.54555	1.41974	0.84369	0.68320	0.55893	3.93779	3.23546	2.55151
55160	0.36042	0.43418	0.28258	2.47622	2.25069	2.01941	2.65732	1.76444	0.99043	1.55596	1.52937	1.39615	0.79797	0.64711	0.55149	3.85416	3.18538	2.58643
55320	0.33436	0.42012	0.25958	2.30485	2.16803	1.93444	2.60280	1.74447	0.97455	1.51857	1.49556	1.40269	0.76760	0.66304	0.53270	3.83711	3.15387	2.53908
55490	0.34477	0.37327	0.24017	2.26224	2.10741	1.94298	2.59849	1.72858	0.96708	1.50581	1.46582	1.36450	0.76010	0.65201	0.55093	3.81970	3.17216	2.57095
55650	0.31912	0.37023	0.23471	2.27945	2.23001	1.98253	2.77495	1.73097	0.98212	1.57436	1.55885	1.38467	0.81999	0.67109	0.56847	3.91474	3.25433	2.60968
55820	0.38761	0.41253	0.30034	2.41038	2.22380	1.98709	2.63111	1.80361	1.01510	1.66047	1.56842	1.40162	0.79127	0.67726	0.57340	3.98529	3.24025	2.52989	25.27	6.1	0.00	7.31	0.01274	0.01290	0.01671	0.00775	0.00578	0.00634	0.00468	0.01265	0.01686	0.00675	0.00692	0.00894	0.01490	0.01096	0.01197	0.00216	0.00614	0.00863
55980	0.36467	0.43158	0.29132	2.38342	2.25618	2.01368	2.63114	1.79489	1.03736	1.62345	1.52194	1.37545	0.79061	0.66565	0.54795	3.83545	3.18394	2.54921
56140	0.32371	0.36510	0.22899	2.33598	2.15979	1.97449	2.59749	1.73702	0.96449	1.49083	1.40068	1.26702	0.76067	0.64198	0.51613	3.78373	3.13458	2.46809
56310	0.30413	0.35438	0.22410	2.26024	2.10161	1.89856	2.56866	1.68564	0.94178	1.45201	1.38531	1.26550	0.73107	0.60258	0.51033	3.76433	3.09275	2.47443
56470	0.30372	0.33528	0.20164	2.18675	2.08087	1.90771	2.55006	1.68604	0.92067	1.42889	1.39762	1.25191	0.74497	0.62454	0.50542	3.72718	3.12084	2.52240
56640	0.31645	0.36293	0.25407	2.28107	2.18156	2.01562	2.60156	1.77515	0.98334	1.65237	1.65667	1.51826	0.82010	0.69523	0.59349	3.99804	3.33831	2.72353
56800	0.45415	0.46238	0.35473	2.50593	2.29683	2.14761	2.68051	1.83037	1.08582	1.65407	1.69243	1.56777	0.85903	0.75910	0.65200	3.95151	3.28741	2.62699
56970	0.42514	0.50076	0.31103	2.39942	2.22109	2.00622	2.66418	1.79148	1.04622	1.67401	1.54406	1.39073	0.81085	0.70098	0.58397	3.84884	3.22329	2.59736
57130	0.36244	0.40655	0.29804	2.31337	2.16448	1.99807	2.62705	1.74092	1.00744	1.54884	1.50085	1.33149	0.79338	0.64340	0.55059	3.79617	3.17140	2.50358
57300	0.36322	0.39155	0.23784	2.31679	2.11153	1.91593	2.57795	1.73229	0.99219	1.45680	1.46078	1.27447	0.76454	0.63321	0.55582	3.76236	3.10953	2.47059
57460	0.32275	0.36011	0.21651	2.23540	2.08832	1.94666	2.58633	1.68754	0.92811	1.49124	1.43742	1.33475	0.74333	0.60864	0.52012	3.79985	3.08546	2.46736	25.27	6.1	0.00	7.34	0.01274	0.01290	0.01671	0.00775	0.00578	0.00634	0.00468	0.01265	0.01686	0.00675	0.00692	0.00894	0.01490	0.01096	0.01197	0.00216	0.00614	0.00864
57620	0.31629	0.35328	0.21295	2.19689	2.06024	1.85907	2.55283	1.69417	0.94057	1.46541	1.37091	1.26752	0.74176	0.60798	0.50218	3.74096	3.12049	2.45058
57790	0.31654	0.38619	0.21866	2.26563	2.07165	1.88913	2.55523	1.69817	0.92865	1.43537	1.39828	1.27733	0.73751	0.60541	0.50653	3.75165	3.14082	2.62709
57950	0.30774	0.33059	0.21213	2.20687	2.11816	1.97317	2.56536	1.68033	0.95026	1.53808	1.43681	1.24918	0.74045	0.62471	0.51283	3.77003	3.11729	2.48654
58120	0.32823	0.35338	0.22928	2.27667	2.12840	1.88992	2.59908	1.72097	0.97765	1.45190	1.44529	1.32444	0.79019	0.62197	0.53048	3.81088	3.14424	2.48827
58280	0.34041	0.37668	0.23996	2.27388	2.12195	1.97712	2.56184	1.72047	0.97005	1.49046	1.47848	1.35791	0.76571	0.63180	0.53176	3.76970	3.13646	2.46752
58440	0.31789	0.34540	0.21897	2.26316	2.09191	1.94822	2.57787	1.72281	0.95820	1.51612	1.43182	1.30504	0.76393	0.64521	0.54651	3.79787	3.21553	2.48011
58610	0.31237	0.35224	0.21830	2.22697	2.08550	1.89836	2.58500	1.71644	0.96509	1.45313	1.41021	1.27000	0.77718	0.58885	0.50093	3.69718	3.05477	2.43577
58770	0.30203	0.32908	0.21105	2.19271	2.01939	1.86753	2.55355	1.68667	0.91967	1.41394	1.36607	1.21646	0.77605	0.59978	0.50313	3.71399	3.07472	2.42746
58930	0.29289	0.33567	0.21247	2.25517	2.07747	1.88055	2.57752	1.72276	0.95261	1.48700	1.40613	1.25150	0.74687	0.63074	0.52545	3.76652	3.14197	2.50765
59100	0.32327	0.35311	0.20797	2.21755	2.12083	1.91621	2.54120	1.68605	0.94869	1.44437	1.41658	1.30376	0.74960	0.62671	0.50198	3.78660	3.10958	2.45871	25.33	6.1	0.00	7.34	0.01274	0.01290	0.01671	0.00776	0.00578	0.00634	0.00468	0.01265	0.01686	0.00675	0.00692	0.00894	0.01490	0.01096	0.01197	0.00216	0.00614	0.00864
59260	0.31088	0.34724	0.23996	2.22023	2.06883	1.86485	2.59070	1.70258	0.95279	1.44764	1.41083	1.27278	0.75796	0.64951	0.52499	3.73804	3.05845	2.45242
59420	0.31140	0.33434	0.21644	2.20520	2.09515	1.88066	2.55049	1.68862	0.95101	1.42977	1.41310	1.27756	0.73543	0.59177	0.48865	3.78495	3.11052	2.43765
59590	0.30399	0.34268	0.20321	2.19811	2.03367	1.84694	2.55354	1.67446	0.93607	1.37962	1.36078	1.25401	0.72380	0.60191	0.51079	3.79496	3.08563	2.45143
59750	0.30196	0.34032	0.21017	2.19027	2.04097	1.83850	2.56485	1.68524	0.94338	1.41743	1.38962	1.25488	0.73636	0.60604	0.50402	3.74352	3.07224	2.46570
59910	0.29352	0.33145	0.19047	2.20474	2.04536	1.87089	2.54768	1.67479	0.91768	1.40166	1.40138	1.26475	0.72492	0.59125	0.48234	3.74335	3.09160	2.42690
60080	0.29043	0.33082	0.20354	2.22041	2.07104	1.86065	2.54614	1.69719	0.93197	1.44700	1.42726	1.27991	0.75967	0.60943	0.50373	3.76352	3.06817	2.46512
60240	0.33088	0.34650	0.20612	2.21009	2.07389	1.88345	2.57185	1.68468	0.95035	1.44805	1.38496	1.26846	0.73126	0.59750	0.49353	3.73378	3.08522	2.45917
60400	0.31593	0.34623	0.21050	2.24229	2.04404	1.86218	2.55253	1.67503	0.92342	1.44870	1.36125	1.27419	0.72640	0.59872	0.49625	3.71683	3.09826	2.45927
60570	0.30095	0.34130	0.21122	2.20892	2.05792	1.86820	2.54815	1.67230	0.92878	1.41333	1.36585	1.24411	0.73373	0.60133	0.50104	3.72508	3.07402	2.41604
60730	0.29500	0.32234	0.20227	2.23885	2.06840	1.88194	2.56183	1.69473	0.94361	1.42390	1.40416	1.24975	0.73630	0.61757	0.52507	3.74848	3.12780	2.45422	25.39	6.1	0.00	7.43	0.01274	0.01290	0.01671	0.00775	0.00578	0.00634	0.00468	0.01265	0.01686	0.00675	0.00692	0.00894	0.01490	0.01096	0.01197	0.00216	0.00614	0.00863
60890	0.32717	0.32663	0.20474	2.23405	2.05929	1.90214	2.53715	1.67269	0.92627	1.43335	1.37473	1.24794	0.74433	0.60683	0.49574	3.71282	3.06804	2.40997
61060	0.28016	0.32207	0.19526	2.19330	2.04250	1.85528	2.54706	1.67594	0.92707	1.43875	1.36966	1.27668	0.74210	0.61459	0.49342	3.81341	3.29881	3.01591
61220	0.31169	0.37841	0.26367	2.47263	2.41916	2.22042	2.66337	1.94102	1.14415	1.87739	1.92060	1.90093	1.06255	0.88793	0.81959	4.42610	3.85769	3.10532
61380	0.64565	0.74148	0.57060	3.18045	3.10700	2.84805	3.00385	2.09742	1.40208	2.41562	2.27820	2.21728	1.17531	1.08539	0.98742	4.54471	3.89070	3.28018
61550	0.76082	0.82326	0.69714	3.01199	3.04102	2.61797	3.01293	2.11927	1.36611	2.22608	2.10814	1.91607	1.15863	0.96259	0.88101	4.34935	3.54959	2.88632
61710	0.67704	0.68626	0.51149	2.61935	2.36255	2.21350	2.76786	1.91478	1.12161	1.74148	1.68353	1.51424	0.96005	0.80960	0.61717	3.97038	3.26251	2.60622
61870	0.45382	0.44394	0.33645	2.37886	2.25897	2.05625	2.66169	1.76791	1.02730	1.61927	1.56670	1.44039	0.83799	0.68039	0.58914	3.93274	3.25763	2.62199
62040	0.39479	0.42184	0.28859	2.38862	2.18421	1.98292	2.67103	1.76066	0.97854	1.62125	1.55175	1.44266	0.80831	0.69896	0.57316	3.95985	3.23637	2.73372
62200	0.42760	0.46658	0.30346	2.51080	2.36185	2.18482	2.71059	1.84669	1.09655	1.74402	1.72374	1.53771	0.87443	0.77822	0.70630	3.97049	3.38014	2.79514
62370	0.48582	0.50099	0.38647	2.48628	2.37440	2.15460	2.69523	1.81948	1.09727	1.64505	1.61136	1.50542	0.86774	0.68282	0.59944	3.92675	3.36588	2.63683	25.27	5.9	0.00	7.31	0.01274	0.01290	0.01671	0.00775	0.00578	0.00634	0.00468	0.01265	0.01686	0.00675	0.00692	0.00894	0.01490	0.01096	0.01197	0.00216	0.00614	0.00863
62530	0.36040	0.40565	0.28909	2.39205	2.27310	2.10126	2.66756	1.80054	1.03007	1.56378	1.48721	1.32933	0.81407	0.67696	0.58220	3.76725	3.14693	2.49368
62690	0.34229	0.37628	0.25405	2.29041	2.12203	1.93939	2.62031	1.72478	0.97796	1.52435	1.47409	1.33102	0.78501	0.63072	0.52706	3.81193	3.18933	2.53359
62860	0.34266	0.39433	0.25476	2.26592	2.10327	1.90720	2.58794	1.72600	0.96598	1.49030	1.44109	1.33444	0.75618	0.64074	0.51199	3.78929	3.14779	2.53640
63020	0.34097	0.38728	0.25645	2.30368	2.12833	1.92583	2.60735	1.75004	0.98282	1.50594	1.44917	1.35820	0.81534	0.68390	0.53888	3.85853	3.18042	2.49509
63190	0.34819	0.42006	0.25329	2.24652	2.13130	1.91032	2.60711	1.71282	0.96636	1.57095	1.50231	1.30731	0.78851	0.60962	0.55496	3.74246	3.13282	2.50715
63350	0.31892	0.35669	0.22366	2.25240	2.10005	1.90414	2.56648	1.70301	0.95127	1.43750	1.38427	1.26320	0.73510	0.63247	0.50007	3.77065	3.12758	2.47680
63510	0.31587	0.34883	0.22397	2.26637	2.11285	1.93535	2.56812	1.73072	0.96608	1.52454	1.52445	1.33528	0.78180	0.63966	0.57162	3.87289	3.18840	2.58094
63680	0.35276	0.42565	0.28364	2.39646	2.24826	2.04681	2.65251	1.80086	1.09448	1.59278	1.65299	1.48493	0.88131	0.77491	0.63758	4.00134	3.27243	2.72646
63840	0.41817	0.49317	0.34734	2.51673	2.41197	2.18815	2.69256	1.86682	1.06519	1.70667	1.57957	1.50483	0.85544	0.69955	0.62054	3.86673	3.17997	2.60387
64010	0.39660	0.42852	0.28084	2.34923	2.20711	2.01476	2.62875	1.74041	1.00765	1.56602	1.53282	1.39792	0.78561	0.66459	0.56447	3.82456	3.21146	2.58778	25.33	5.9	0.00	7.43	0.01274	0.01290	0.01671	0.00775	0.00578	0.00634	0.00468	0.01265	0.01686	0.00675	0.00692	0.00894	0.01490	0.01096	0.01197	0.00216	0.00614	0.00863
64170	0.34565	0.36372	0.22300	2.28521	2.12083	1.92138	2.56036	1.72894	0.95708	1.47300	1.43851	1.33111	0.77148	0.63326	0.52026	3.83218	3.14556	2.51201
64340	0.31334	0.36617	0.23027	2.27711	2.14507	1.92017	2.58709	1.72148	0.96163	1.48223	1.43106	1.31869	0.75183	0.61205	0.49472	3.77553	3.13496	2.47563
64500	0.30315	0.33467	0.20091	2.25027	2.05989	1.91874	2.57308	1.70309	0.94189	1.53627	1.45849	1.33073	0.77627	0.61054	0.51473	3.79148	3.12615	2.45849
64660	0.29855	0.33769	0.19655	2.19223	2.06821	1.87877	2.56279	1.68833	0.94041	1.42350	1.37447	1.24956	0.73367	0.60086	0.51160	3.73928	3.05783	2.44611
64830	0.28538	0.33050	0.20096	2.19497	2.07135	1.85272	2.54323	1.69023	0.93312	1.42906	1.37566	1.27244	0.73418	0.61425	0.50429	3.72024	3.12658	2.43638
64990	0.30022	0.34744	0.22723	2.20791	2.06277	1.88954	2.56825	1.70325	0.93372	1.48415	1.43515	1.33875	0.76166	0.63163	0.52593	3.90930	3.26191	2.52562
65150	0.31201	0.35426	0.21453	2.26942	2.13558	1.97227	2.57421	1.71705	0.94826	1.55930	1.46094	1.33147	0.75334	0.65094	0.52767	3.78895	3.12808	2.51015
65320	0.35140	0.37918	0.23275	2.28755	2.14809	1.90234	2.57545	1.71093	0.95986	1.49632	1.42793	1.32885	0.76112	0.63127	0.53239	3.78257	3.20557	2.56205
65480	0.31597	0.35918	0.22455	2.28745	2.11482	1.93668	2.58219	1.69143	0.94869	1.57594	1.55088	1.47616	0.79938	0.66226	0.55076	3.93897	3.28530	2.67131
65640	0.40052	0.46636	0.33589	2.54881	2.35371	2.29706	2.78730	1.83676	1.10414	1.89596	1.81528	1.74427	0.96328	0.82744	0.70381	4.24060	3.63442	2.92562	25.33	6.1	0.00	7.28	0.01274	0.01290	0.01671	0.00775	0.00578	0.00634	0.00468	0.01265	0.01686	0.00675	0.00692	0.00894	0.01490	0.01096	0.01197	0.00216	0.00614	0.00863
65810	0.53023	0.58186	0.46787	2.62432	2.47652	2.35218	2.79109	1.93572	1.16833	1.90714	1.77535	1.69284	0.93242	0.82075	0.74252	4.25944	3.61874	2.94921
65970	0.46945	0.59820	0.41739	2.55412	2.39592	2.26984	2.76258	1.89447	1.14163	1.83360	1.72674	1.57256	0.93197	0.75844	0.66767	4.09836	3.40462	2.73162
66130	0.43826	0.46491	0.31409	2.47732	2.31925	2.11030	2.67674	1.79978	1.06232	1.69420	1.64951	1.51720	0.85070	0.70245	0.60130	3.84613	3.21586	2.58734
66300	0.39714	0.40484	0.29026	2.38647	2.20141	1.99653	2.60666	1.78082	0.99750	1.62600	1.57018	1.43006	0.78340	0.64340	0.54139	3.89351	3.23791	2.49305
66460	0.33730	0.38486	0.24295	2.24127	2.21535	1.93256	2.58686	1.69850	0.93799	1.50456	1.43326	1.29530	0.75404	0.63644	0.50423	3.76860	3.14888	2.52189
66620	0.30286	0.33516	0.20876	2.44606	2.07726	1.91832	2.55774	1.69654	0.93426	1.50398	1.40278	1.26372	0.78248	0.62317	0.50127	3.74244	3.09181	2.42701
66790	0.28813	0.32724	0.19529	2.21819	2.07609	1.85609	2.55392	1.69594	0.92797	1.43771	1.36850	1.25478	0.73353	0.60744	0.48312	3.75280	3.14326	2.45092
66950	0.29394	0.33172	0.20994	2.20266	2.07686	1.87350	2.55117	1.70263	0.92535	1.44436	1.43146	1.30162	0.73556	0.61822	0.50831	3.71673	3.08770	2.52429
67110	0.30099	0.34335	0.20089	2.23957	2.05984	1.89910	2.55549	1.69580	0.94009	1.55697	1.40263	1.27280	0.74582	0.59050	0.49957	3.74167	3.08834	2.47323
67280	0.30037	0.37203	0.22987	2.20306	2.05548	1.85720	2.57484	1.68171	0.93279	1.43710	1.43585	1.29258	0.74540	0.60693	0.49228	3.76691	3.10408	2.44795	25.39	6.1	0.00	6.69	0.01274	0.01290	0.01671	0.00775	0.00578	0.00634	0.00468	0.01265	0.01686	0.00675	0.00692	0.00894	0.01490	0.01096	0.01197	0.00216	0.00613	0.00863
67440	0.29181	0.33064	0.20839	2.24899	2.09397	1.91878	2.55294	1.69460	0.92163	1.42634	1.38307	1.23230	0.72793	0.59567	0.50257	3.75742	3.04721	2.43043
67600	0.30378	0.34969	0.20524	2.22357	2.03359	1.87069	2.55898	1.69570	0.93950	1.44265	1.45603	1.29533	0.74677	0.61862	0.50242	3.79335	3.14233	2.49333
67770	0.31596	0.34867	0.20927	2.20052	2.07437	1.88037	2.56550	1.70950	0.97884	1.53652	1.44324	1.30705	0.77662	0.65599	0.53144	3.80839	3.16078	2.52384
67930	0.30155	0.38505	0.24048	2.28178	2.15718	2.00380	2.56734	1.73207	0.95702	1.56658	1.41307	1.29409	0.76304	0.62521	0.51763	3.78136	3.11212	2.45937
68090	0.31837	0.35190	0.22096	2.20738	2.10121	1.94265	2.56402	1.68525	0.94238	1.44412	1.39110	1.26749	0.75325	0.62344	0.51761	3.77559	3.07804	2.42682
68260	0.30765	0.32734	0.21071	2.20406	2.08842	1.86358	2.54244	1.66904	0.92235	1.44259	1.39075	1.25821	0.74774	0.59923	0.48974	3.79153	3.15667	2.54049
68420	0.28859	0.32437	0.19895	2.30528	2.10240	1.96355	2.55656	1.69390	0.94526	1.54010	1.40315	1.29617	0.73689	0.61268	0.50217	3.80453	3.11125	2.47883
68580	0.31335	0.34423	0.21563	2.28731	2.09762	1.95412	2.56384	1.69039	0.93202	1.50431	1.42737	1.27572	0.73877	0.60504	0.50248	3.77366	3.17718	2.57745
68750	0.30980	0.33600	0.20966	2.24177	2.13616	1.91243	2.57775	1.70184	0.94337	1.42704	1.40194	1.30658	0.73940	0.60219	0.51227	3.78158	3.11407	2.50077
68910	0.31721	0.35588	0.21588	2.23144	2.06988	1.89024	2.57069	1.68484	0.93114	1.43430	1.39473	1.23370	0.74840	0.61625	0.50017	3.74701	3.10537	2.46576	25.39	6.2	0.00	7.28	0.01274	0.01290	0.01671	0.00775	0.00578	0.00634	0.00468	0.01265	0.01686	0.00675	0.00692	0.00894	0.01490	0.01096	0.01197	0.00216	0.00614	0.00864
69070	0.31627	0.33678	0.20949	2.21350	2.07868	1.87933	2.53444	1.69961	0.93781	1.43060	1.40412	1.28763	0.72285	0.61502	0.51351	3.86233	3.15576	2.48700
69240	0.32330	0.35354	0.23966	2.28134	2.19461	2.04089	2.62459	1.71874	0.98714	1.55506	1.55777	1.39974	0.80112	0.67230	0.61384	3.99223	3.28823	2.63159
69400	0.37889	0.45292	0.30007	2.51799	2.34486	2.15317	2.66569	1.83381	1.09987	1.77151	1.72325	1.53610	0.87189	0.74255	0.63576	4.10775	3.48171	2.76700
69570	0.46187	0.50826	0.39294	2.53421	2.46112	2.13748	2.81114	1.88466	1.11916	1.77227	1.84412	1.64475	0.91881	0.77228	0.62457	4.03324	3.43520	2.87110
69730	0.47089	0.50845	0.44415	2.44988	2.26946	2.16007	2.78814	1.91210	1.09310	1.70751	1.72682	1.61481	0.90036	0.73736	0.65223	4.02788	3.37261	2.65274
69900	0.38487	0.46194	0.33024	2.47432	2.37750	2.13445	2.67692	1.76803	1.01522	1.60384	1.55488	1.38727	0.87989	0.70916	0.55999	3.91389	3.27923	2.61353
70060	0.39834	0.41107	0.26976	2.34365	2.14764	2.00780	2.64192	1.77443	0.98455	1.53629	1.46740	1.35276	0.77689	0.67320	0.53505	3.86931	3.21844	2.52629
70220	0.33721	0.37004	0.23362	2.28162	2.16886	1.98662	2.59911	1.71211	0.94955	1.49340	1.44661	1.32485	0.77286	0.62549	0.51077	3.76302	3.11885	2.41833
70390	0.32193	0.34847	0.22611	2.21173	2.08292	1.86641	2.57870	1.70912	0.95559	1.42033	1.42411	1.27570	0.74999	0.61339	0.50905	3.76483	3.12035	2.46265
70550	0.29523	0.34316	0.20530	2.23069	2.09409	1.87574	2.58592	1.69169	0.92965	1.42976	1.40571	1.25625	0.74494	0.61082	0.50501	3.78136	3.11748	2.51464	25.33	6.0	0.00	7.32	0.01274	0.01290	0.01671	0.00775	0.00578	0.00633	0.00468	0.01265	0.01686	0.00675	0.00692	0.00893	0.01490	0.01096	0.01197	0.00216	0.00613	0.00863
70720	0.29923	0.34150	0.20735	2.29174	2.10073	1.89425	2.56940	1.69493	0.95170	1.47562	1.40932	1.28754	0.73885	0.63604	0.51061	3.80068	3.08771	2.41352
70880	0.30493	0.33255	0.20511	2.24099	2.13544	1.92392	2.56080	1.70326	0.96542	1.48058	1.92198	1.38580	0.83006	0.64201	0.55618	3.99037	3.27308	2.97738
71050	0.38876	0.45538	0.31830	2.54342	2.34408	2.09649	2.71747	1.84375	1.08669	1.76837	1.69299	1.54456	0.91913	0.71337	0.62589	3.96928	3.28565	2.67211
71210	0.39812	0.46402	0.30275	2.36215	2.23363	2.02429	2.67816	1.80498	1.00396	1.63503	1.59044	1.48426	0.84033	0.70591	0.57004	3.90356	3.27594	2.57590
71380	0.36781	0.41133	0.25608	2.40409	2.16990	1.97171	2.63587	1.73473	0.99660	1.52665	1.46916	1.33321	0.81298	0.65458	0.52831	3.80371	3.15705	2.47765
71540	0.34666	0.34811	0.22485	2.24251	2.10437	1.97127	2.57987	1.71763	0.95628	1.44468	1.40962	1.30041	0.75027	0.61310	0.52359	3.78378	3.13677	2.48442
71700	0.31729	0.33949	0.22566	2.30569	2.11629	1.88273	2.56611	1.71783	0.95840	1.47247	1.42433	1.29939	0.75800	0.62182	0.55759	3.77674	3.13888	2.51687
71870	0.29798	0.35170	0.24439	2.23129	2.07670	1.86802	2.56593	1.70944	0.92757	1.45288	1.44173	1.29639	0.74186	0.61521	0.51190	3.78169	3.11646	2.45111
72030	0.30431	0.34426	0.21768	2.24088	2.09191	1.92442	2.56433	1.70039	0.95588	1.43002	1.38572	1.28766	0.75742	0.62744	0.52203	3.83124	3.07306	2.44197
72200	0.28850	0.33898	0.20710	2.25076	2.07562	1.86311	2.56026	1.71151	0.93910	1.46102	1.37021	1.26320	0.74088	0.61907	0.48920	3.76876	3.08233	2.46642	25.39	6.2	0.00	6.42	0.01274	0.01290	0.01671	0.00775	0.00578	0.00633	0.00468	0.01265	0.01686	0.00675	0.00692	0.00893	0.01490	0.01096	0.01197	0.00216	0.00614	0.00863
72360	0.30161	0.33474	0.20470	2.20038	2.08220	1.91181	2.54842	1.67985	0.91546	1.41005	1.36251	1.23083	0.77170	0.60685	0.50275	3.72011	3.09742	2.44361
72530	0.30373	0.33551	0.19918	2.18611	2.03982	1.84497	2.55005	1.67761	0.92359	1.39181	1.37050	1.22015	0.74146	0.60719	0.50210	3.72580	3.07526	2.42024
72690	0.29917	0.34235	0.19867	2.20686	2.04235	1.86238	2.57028	1.68891	0.91859	1.39355	1.36128	1.26121	0.74871	0.61533	0.50234	3.75109	3.09319	2.41996
72860	0.29543	0.33217	0.19625	2.19768	2.06582	1.87185	2.54171	1.68584	0.92681	1.39386	1.39630	1.24487	0.75117	0.59353	0.50091	3.74600	3.11389	2.50398
73020	0.29341	0.32304	0.20842	2.22972	2.06103	1.87316	2.54898	1.70536	0.94105	1.44046	1.41998	1.26397	0.73973	0.61286	0.51504	3.81749	3.11348	2.47033
73180	0.30309	0.34065	0.21519	2.21247	2.06977	1.90554	2.56269	1.69348	0.94577	1.48920	1.43682	1.35601	0.75450	0.61677	0.50893	3.75389	3.10384	2.46079
73350	0.29875	0.34067	0.20753	2.25779	2.10308	1.90281	2.57161	1.69979	0.93772	1.43150	1.43589	1.28447	0.74912	0.65719	0.53101	3.74742	3.12160	2.45789
73510	0.31696	0.34953	0.21282	2.31388	2.15301	1.94200	2.58603	1.72327	0.95676	1.51970	1.44070	1.31711	0.76126	0.61754	0.50134	3.85337	3.10640	2.44726
73680	0.31688	0.36500	0.21311	2.22715	2.15199	1.90046	2.57511	1.69339	0.94186	1.47622	1.43540	1.28133	0.75817	0.62923	0.51216	3.77277	3.15782	2.47840
73840	0.30169	0.35281	0.21140	2.25898	2.06281	1.91371	2.57102	1.70778	0.93972	1.44545	1.42866	1.30730	0.74104	0.60505	0.51317	3.75622	3.07930	2.53207	25.39	6.2	0.00	7.40	0.01274	0.01290	0.01671	0.00775	0.00578	0.00634	0.00468	0.01265	0.01686	0.00675	0.00692	0.00893	0.01490	0.01096	0.01197	0.00216	0.00614	0.00863
74000	0.31278	0.35732	0.23759	2.26520	2.14865	1.92092	2.60937	1.72972	0.97567	1.44870	1.49369	1.30382	0.78446	0.64231	0.53567	3.82058	3.13338	2.46131
74170	0.35189	0.36275	0.24040	2.31475	2.11854	1.90177	2.60039	1.71244	0.97059	1.53775	1.58078	1.34401	0.77365	0.63509	0.53684	3.80596	3.16352	2.48571
74330	0.33543	0.37872	0.24114	2.26126	2.09415	1.92007	2.58951	1.71729	0.96633	1.50394	1.44590	1.30218	0.75950	0.64147	0.53150	3.76741	3.14091	2.48567
74490	0.30496	0.35327	0.23423	2.27001	2.10579	1.89615	2.56844	1.70138	0.95310	1.49454	1.44310	1.28642	0.74747	0.61550	0.51428	3.76719	3.16047	2.51096
74660	0.30624	0.34606	0.21610	2.25694	2.11369	1.94248	2.57710	1.70269	0.93178	1.50181	1.54305	1.30479	0.73971	0.60111	0.51195	3.75276	3.11463	2.46084
74820	0.29200	0.34868	0.22397	2.24212	2.09756	1.93331	2.56545	1.69646	0.94897	1.48766	1.43803	1.34490	0.75362	0.61145	0.51045	3.78389	3.14881	2.44515
74990	0.31014	0.35540	0.22399	2.26863	2.13237	1.91778	2.57838	1.71137	0.94348	1.48960	1.45679	1.32794	0.75724	0.61091	0.52579	3.79644	3.17199	2.51083
75150	0.31523	0.35983	0.22642	2.26939	2.13985	2.00259	2.57550	1.73134	0.96866	1.54760	1.49083	1.29104	0.75840	0.63535	0.51555	3.76329	3.10930	2.45194
75310	0.31334	0.34697	0.23094	2.29369	2.12185	1.93679	2.61148	1.73001	0.95404	1.42920	1.41211	1.31668	0.77501	0.64739	0.50561	3.75128	3.10655	2.45192
75480	0.30746	0.36239	0.23544	2.24426	2.13677	1.94328	2.59220	1.72554	1.00572	1.48499	1.45166	1.39245	0.77328	0.63755	0.53915	3.79912	3.18333	2.56298	25.45	6.3	0.00	7.46	0.01274	0.01290	0.01671	0.00775	0.00578	0.00634	0.00468	0.01265	0.01686	0.00675	0.00692	0.00893	0.01490	0.01096	0.01197	0.00216	0.00613	0.00863
75640	0.34957	0.41262	0.26126	2.29956	2.22492	2.03088	2.62366	1.79238	1.01654	1.58749	1.58689	1.42462	0.78997	0.67026	0.60296	3.86954	3.25174	2.57387
75810	0.39032	0.43587	0.29948	2.36769	2.19357	1.97021	2.63866	1.79517	1.05593	1.62210	1.58975	1.46983	0.83958	0.73666	0.59409	3.95416	3.30398	2.74011
75970	0.38032	0.40763	0.29659	2.39760	2.33528	2.08742	2.69029	1.78348	1.02717	1.61039	1.55755	1.51479	0.84529	0.70671	0.60426	3.96463	3.24002	2.56080
76130	0.40835	0.43915	0.29521	2.38206	2.24007	2.05030	2.65587	1.77013	0.97761	1.54556	1.50559	1.37417	0.80870	0.66021	0.57085	3.85984	3.24870	2.56861
76300	0.40974	0.39988	0.28388	2.33035	2.19636	1.98572	2.61031	1.74665	0.99627	1.51376	1.48488	1.39269	0.76700	0.64966	0.54907	3.90622	3.24432	2.54396
76460	0.33221	0.36835	0.24995	2.28568	2.17597	2.00810	2.62321	1.76975	0.98895	1.56011	1.54716	1.37947	0.82837	0.72636	0.63944	3.89882	3.28847	2.55661
76630	0.38810	0.44941	0.30876	2.40553	2.25584	2.05483	2.65653	1.80017	1.01736	1.59742	1.51473	1.37412	0.82930	0.66515	0.61625	3.86522	3.20080	2.63501
76790	0.38914	0.39752	0.27266	2.36142	2.20379	2.03555	2.64777	1.75701	1.06957	1.56010	1.53358	1.43935	0.80319	0.69856	0.59780	3.91525	3.25772	2.58753
76950	0.37362	0.43604	0.26688	2.38243	2.21704	2.03505	2.61847	1.73984	0.99035	1.61480	1.57008	1.46435	0.81556	0.68937	0.59620	3.85458	3.24246	2.53681
77120	0.34576	0.37968	0.27476	2.42078	2.22852	2.09515	2.58222	1.72308	0.96353	1.57703	1.48455	1.38900	0.77208	0.64795	0.56979	3.83240	3.18580	2.53882	25.39	6.2	0.00	7.43	0.01274	0.01290	0.01671	0.00775	0.00578	0.00633	0.00468	0.01265	0.01686	0.00675	0.00692	0.00893	0.01490	0.01096	0.01197	0.00216	0.00613	0.00863
77280	0.34540	0.36418	0.24071	2.28217	2.19557	1.96344	2.58392	1.70488	0.95498	1.51729	1.54129	1.34181	0.76938	0.64154	0.52533	3.83991	3.20874	2.66133
77450	0.31976	0.36991	0.24465	2.31448	2.14134	1.95501	2.55720	1.71540	0.95080	1.45239	1.40249	1.30895	0.76982	0.65073	0.53916	3.80073	3.13182	2.46990
77610	0.35689	0.37480	0.23995	2.23408	2.10089	1.94174	2.57670	1.73649	0.97502	1.50089	1.42143	1.35483	0.78113	0.67308	0.55677	3.85059	3.19029	2.55396
77780	0.34940	0.39947	0.27294	2.32751	2.18817	2.05781	2.61809	1.77192	1.00231	1.59383	1.55133	1.39831	0.79887	0.66922	0.58099	3.79990	3.18844	2.53450
77940	0.34886	0.37679	0.23206	2.29806	2.19150	1.96663	2.61922	1.76693	1.00417	1.50102	1.45605	1.32531	0.77949	0.67005	0.57803	3.96182	3.28640	2.62951
78110	0.38982	0.43115	0.30689	2.43735	2.33338	2.11340	2.67925	1.79819	1.07242	1.76161	1.68907	1.46678	0.90314	0.71658	0.58275	3.98239	3.30689	2.70513
78270	0.40418	0.44868	0.31700	2.45900	2.33458	2.08013	2.72236	1.81833	1.04111	1.62730	1.61221	1.51819	0.83620	0.68038	0.57586	3.93086	3.29114	2.63437
78440	0.37198	0.41351	0.28625	2.35478	2.15983	1.98270	2.65692	1.77881	0.99706	1.54029	1.52324	1.37233	0.79507	0.65739	0.54233	3.79638	3.22667	2.53885
78600	0.32117	0.35107	0.24383	2.30807	2.18626	1.99104	2.56621	1.71784	0.95575	1.52933	1.47455	1.40950	0.78353	0.62901	0.56215	3.79406	3.14344	2.50048
78770	0.32187	0.34862	0.22967	2.29344	2.11269	1.96081	2.61052	1.74247	0.96969	1.60850	1.57824	1.45596	0.80068	0.67664	0.57953	3.98170	3.24958	2.66512	25.39	6.2	0.00	7.36	0.01274	0.01290	0.01671	0.00775	0.00578	0.00633	0.00468	0.01265	0.01686	0.00675	0.00692	0.00893	0.01490	0.01096	0.01197	0.00216	0.00613	0.00863
78930	0.42900	0.45765	0.35711	2.42880	2.29939	2.13115	2.71177	1.84334	1.04291	1.62464	1.63044	1.46630	0.84659	0.75774	0.63111	3.95761	3.35626	2.74995
79090	0.44977	0.47637	0.40370	2.58346	2.49244	2.16922	2.72519	1.91011	1.17413	1.90778	1.89548	1.71856	0.93590	0.77343	0.70678	4.38073	3.51999	2.96771
79260	0.51000	0.54686	0.39331	2.69064	2.49675	2.32162	2.75420	1.95917	1.11832	1.83201	1.74770	1.59722	0.93463	0.81230	0.66269	4.07624	3.52851	2.82824
79420	0.45649	0.52445	0.42321	2.53587	2.43395	2.22314	2.68555	1.81154	1.12465	1.77332	1.64575	1.52580	0.91864	0.72006	0.62307	3.93563	3.24023	2.69670
79590	0.43831	0.52481	0.35416	2.40193	2.20149	2.05310	2.65608	1.77385	1.03302	1.65826	1.57554	1.49500	0.80246	0.67512	0.57924	3.94250	3.26504	2.62686
79750	0.37843	0.41150	0.25548	2.40663	2.16457	1.99045	2.63508	1.73017	0.95800	1.48964	1.48536	1.34053	0.79594	0.63949	0.54117	3.85354	3.16767	2.48762
79920	0.34731	0.37288	0.23068	2.24703	2.08147	1.90796	2.62565	1.71169	0.94986	1.48472	1.46596	1.31509	0.76800	0.63858	0.53826	3.84645	3.15417	2.49010
80080	0.31688	0.33795	0.20756	2.28010	2.14548	1.92563	2.57575	1.68739	0.95222	1.49002	1.44814	1.34895	0.76155	0.60798	0.51757	3.91861	3.21080	2.49569
80250	0.32651	0.35311	0.22023	2.28848	2.15111	1.94871	2.59345	1.71022	0.96054	1.54821	1.48492	1.29129	0.76321	0.64468	0.52170	3.79109	3.13452	2.48349
80410	0.30919	0.35863	0.21927	2.29861	2.12443	1.90343	2.58384	1.70924	0.99459	1.47681	1.43715	1.31858	0.74621	0.61186	0.54032	3.83113	3.14700	2.45054	25.45	6.1	0.00	7.39	0.01274	0.01290	0.01671	0.00775	0.00578	0.00633	0.00468	0.01265	0.01686	0.00675	0.00692	0.00893	0.01490	0.01096	0.01197	0.00216	0.00613	0.00863
80570	0.31197	0.35021	0.24488	2.22257	2.09420	1.92412	2.56835	1.69637	0.96040	1.46910	1.46698	1.33514	0.76242	0.62058	0.51818	3.85249	3.11859	2.51526
80740	0.33798	0.36328	0.24233	2.28781	2.14229	1.95750	2.58407	1.73324	0.96340	1.48894	1.45295	1.34723	0.77043	0.63775	0.54084	3.79019	3.12814	2.52452
80900	0.36953	0.40878	0.25939	2.28580	2.10251	1.97779	2.59852	1.71019	0.96053	1.50404	1.42021	1.31033	0.76365	0.64975	0.52216	3.77951	3.13499	2.49454
81070	0.31292	0.37310	0.22955	2.26549	2.07764	1.86529	2.59296	1.70116	0.96452	1.46985	1.43011	1.30100	0.74460	0.62724	0.52814	3.74629	3.10577	2.44073
81230	0.30869	0.35327	0.22316	2.22981	2.07073	1.88382	2.57553	1.69068	0.93500	1.46500	1.40991	1.30296	0.76027	0.63897	0.50931	3.74799	3.13134	2.50225
81390	0.31139	0.35909	0.22185	2.27958	2.24047	1.89132	2.57173	1.68556	0.96245	1.41922	1.43530	1.29128	0.75859	0.63401	0.50397	3.72904	3.14433	2.46085
81560	0.32168	0.33494	0.19936	2.22420	2.06648	1.92186	2.56915	1.67683	0.95430	1.45260	1.43200	1.26569	0.74497	0.61603	0.50660	3.81373	3.12210	2.47185
81720	0.30019	0.33321	0.22668	2.25092	2.05828	1.93376	2.59420	1.71060	0.94183	1.44632	1.43356	1.37994	0.76843	0.62579	0.53070	3.75869	3.08211	2.45009
81890	0.30633	0.34911	0.22741	2.24718	2.09182	1.95733	2.57523	1.70387	0.93989	1.44513	1.41159	1.34638	0.74374	0.60487	0.49554	3.74958	3.08255	2.50335
82050	0.29899	0.33960	0.22446	2.23167	2.10288	1.91782	2.57531	1.73707	0.96256	1.45276	1.43472	1.30194	0.77485	0.61887	0.52558	3.78007	3.13347	2.48413	25.39	6.2	0.00	7.28	0.01274	0.01290	0.01670	0.00775	0.00578	0.00633	0.00468	0.01265	0.01686	0.00675	0.00692	0.00893	0.01490	0.01096	0.01197	0.00216	0.00613	0.00863
82210	0.31637	0.36820	0.22950	2.27902	2.16003	1.90048	2.57314	1.71703	0.94972	1.46932	1.41705	1.30134	0.77817	0.63675	0.50604	3.76858	3.08368	2.47016
82380	0.31406	0.34563	0.21391	2.26549	2.08814	1.89654	2.57160	1.68990	0.93600	1.44238	1.40990	1.28671	0.74813	0.61351	0.50543	3.74784	3.12706	2.48381
82540	0.32711	0.35932	0.21898	2.23743	2.08088	1.89910	2.54959	1.71489	0.94721	1.42657	1.42507	1.29030	0.73270	0.59906	0.49366	3.72528	3.10389	2.48062
82710	0.30295	0.35030	0.21536	2.19222	2.04307	1.83441	2.54140	1.67776	0.92835	1.40493	1.36162	1.23419	0.72679	0.60091	0.49725	3.73540	3.08654	2.43932
82870	0.28744	0.33912	0.20709	2.21197	2.05850	1.88460	2.55231	1.68448	0.94254	1.42247	1.36671	1.26518	0.74121	0.60784	0.51598	3.77342	3.13197	2.50988
83040	0.30633	0.36151	0.26333	2.34157	2.23122	1.98124	2.62233	1.73244	1.10311	1.69035	1.70354	1.64564	0.87888	0.81898	0.68937	4.17744	3.52710	2.86568
83200	0.53368	0.65281	0.43801	2.73613	2.58506	2.34101	2.95788	2.03506	1.20402	2.07766	2.16745	1.84130	0.97740	0.85742	0.79378	4.37143	3.73074	3.15792
83360	0.52000	0.59801	0.50456	2.82871	2.71832	2.49117	2.85651	1.94101	1.17217	1.83895	1.87674	1.76067	1.05764	0.93346	0.79557	4.19193	3.59723	2.95928
83530	0.56334	0.58299	0.45051	2.64103	2.51722	2.35888	2.77189	1.97488	1.21179	1.98200	1.92701	1.63558	0.96718	0.79521	0.68908	4.09923	3.45311	2.89747
83690	0.47317	0.60062	0.48406	2.61219	2.39023	2.31333	2.83262	2.04246	1.25599	1.86977	1.78266	1.58127	0.90924	0.75565	0.67651	4.12631	3.44296	2.78062	25.45	6.2	0.00	7.27	0.01274	0.01290	0.01670	0.00775	0.00578	0.00633	0.00468	0.01265	0.01686	0.00675	0.00692	0.00893	0.01490	0.01096	0.01197	0.00216	0.00613	0.00863
83860	0.45373	0.46732	0.32781	2.56843	2.47854	2.20615	2.70670	1.80505	1.05046	1.73581	1.60853	1.43026	0.85898	0.74992	0.61333	3.91678	3.40874	2.63329
84020	0.41364	0.43746	0.35250	2.44867	2.33106	2.13023	2.68850	1.77527	1.04125	1.71710	1.60429	1.45786	0.82808	0.70716	0.63578	3.89149	3.26728	2.62600
84180	0.38531	0.43756	0.28744	2.39235	2.29241	2.08285	2.62193	1.75869	1.01029	1.60479	1.58025	1.45606	0.80210	0.66997	0.60632	3.87514	3.23102	2.61619
84350	0.36252	0.40693	0.26343	2.39417	2.24441	2.06520	2.64219	1.73599	0.97903	1.50630	1.45169	1.32928	0.79220	0.65695	0.56432	3.79387	3.15163	2.55737
84510	0.32342	0.37125	0.23755	2.27382	2.12982	1.93161	2.58206	1.71811	0.96423	1.48518	1.42893	1.29395	0.75813	0.62345	0.53059	3.76344	3.13327	2.45170
84670	0.33398	0.35291	0.22316	2.27379	2.09126	1.90610	2.60212	1.68534	0.95450	1.44918	1.43700	1.28079	0.73623	0.59847	0.51067	3.73782	3.11174	2.44918
84840	0.28900	0.33918	0.19993	2.21881	2.06568	1.87332	2.56752	1.68068	0.93173	1.41943	1.36865	1.25174	0.74330	0.60403	0.48822	3.72818	3.05399	2.40192
85000	0.29412	0.34602	0.20722	2.20967	2.06002	1.84563	2.55973	1.68862	0.92396	1.42718	1.37970	1.26781	0.72124	0.58995	0.50991	3.74895	3.07847	2.43923
85170	0.29552	0.32797	0.21466	2.23951	2.06751	1.86399	2.57500	1.69971	0.93628	1.43679	1.39106	1.27406	0.74181	0.60517	0.48864	3.78335	3.14667	2.49461
85330	0.29770	0.33473	0.22798	2.19474	2.05104	1.88319	2.54791	1.68191	0.92805	1.42417	1.37677	1.24536	0.72930	0.59516	0.50917	3.73390	3.08791	2.45830	25.45	6.2	0.00	7.36	0.01274	0.01290	0.01670	0.00775	0.00578	0.00633	0.00468	0.01265	0.01686	0.00675	0.00692	0.00893	0.01490	0.01096	0.01197	0.00216	0.00613	0.00863
85490	0.31144	0.32718	0.21069	2.23883	2.09631	1.87271	2.57217	1.69672	0.93228	1.46919	1.39738	1.25755	0.76406	0.59288	0.49326	3.72635	3.07290	2.50017
85660	0.29725	0.33548	0.21524	2.21332	2.08770	1.86511	2.54681	1.68996	0.94570	1.45293	1.44785	1.31286	0.74418	0.61728	0.50575	3.79096	3.14330	2.55756
85820	0.33120	0.35567	0.22436	2.28759	2.16357	1.94659	2.56580	1.73918	0.96010	1.56479	1.53826	1.38555	0.80353	0.67393	0.57168	3.88958	3.31787	2.63379
85990	0.35153	0.41125	0.27674	2.42768	2.20726	2.18268	2.64702	1.81295	1.02824	1.66798	1.58281	1.51784	0.87591	0.73017	0.61886	4.03304	3.40405	2.73598
86150	0.44389	0.45714	0.35750	2.48530	2.51086	2.17406	2.66691	1.82858	1.06786	1.64601	1.64500	1.49012	0.87326	0.74430	0.58748	3.93311	3.36011	2.71654
86320	0.40185	0.43911	0.28315	2.40121	2.28526	2.07115	2.65820	1.77971	1.01934	1.62128	1.57809	1.47516	0.83375	0.70577	0.60263	3.89069	3.30011	2.63171
86480	0.36614	0.41573	0.25180	2.37550	2.19074	2.01757	2.63710	1.75881	0.99572	1.50923	1.49739	1.37081	0.79273	0.67178	0.56174	3.80666	3.16992	2.59095
86650	0.35176	0.37603	0.26918	2.27487	2.12131	1.94056	2.61155	1.73092	0.95107	1.49064	1.43995	1.27994	0.78211	0.63738	0.54180	3.79680	3.12101	2.47734
86810	0.31249	0.34312	0.23879	2.26610	2.10952	1.87181	2.57986	1.69377	0.94551	1.47362	1.41731	1.30287	0.75909	0.62404	0.51960	3.81754	3.13917	2.59460
86970	0.29990	0.35717	0.24799	2.35638	2.13680	1.96261	2.58395	1.70759	0.97224	1.49216	1.43367	1.30852	0.81274	0.64386	0.54328	3.84818	3.23180	2.59872	25.45	6.0	0.00	7.30	0.01274	0.01290	0.01670	0.00775	0.00578	0.00633	0.00468	0.01265	0.01686	0.00675	0.00692	0.00893	0.01490	0.01096	0.01197	0.00216	0.00613	0.00863
87140	0.35562	0.37205	0.27118	2.40937	2.18488	2.00421	2.60839	1.77204	1.01814	1.68795	1.57552	1.46724	0.79253	0.70577	0.57851	3.97102	3.27548	2.72437
87300	0.38220	0.45174	0.30020	2.41101	2.29242	2.05106	2.64188	1.78661	1.03088	1.63185	1.62602	1.49723	0.84477	0.68884	0.54319	3.87319	3.20309	2.58866
87470	0.35280	0.38621	0.29034	2.36461	2.17395	1.96043	2.61512	1.73949	1.00197	1.60153	1.46751	1.38569	0.77503	0.64715	0.56899	3.78358	3.11842	2.46393
87630	0.32309	0.35714	0.23205	2.24816	2.07936	1.88814	2.56431	1.72086	0.95227	1.47270	1.42836	1.32026	0.81371	0.61670	0.50077	3.78110	3.11951	2.45030
87790	0.34416	0.36578	0.22478	2.22786	2.09853	1.86610	2.56277	1.70447	0.93466	1.42397	1.41808	1.27304	0.73988	0.61349	0.51531	3.73537	3.13286	2.49229
87960	0.30642	0.36756	0.23096	2.31934	2.12970	2.04262	2.59578	1.75744	1.03276	1.68976	1.64469	1.66920	0.90664	0.74335	0.65299	4.12843	3.39943	2.94777
88120	0.51352	0.63468	0.48852	2.83217	2.63633	2.42949	2.89250	2.02198	1.26229	2.06258	2.17267	1.99556	1.12595	0.94101	0.90599	4.40493	3.72366	3.19383
88280	0.68440	0.76072	0.52290	2.92622	2.68047	2.54359	2.89572	2.09717	1.30470	2.15825	2.00182	1.83653	1.06948	0.90076	0.80968	4.26720	3.55802	2.96725
88450	0.58913	0.68361	0.54767	2.65236	2.51290	2.21035	2.81215	1.99854	1.18346	1.82002	1.78063	1.65241	0.93298	0.77723	0.67308	4.04238	3.30211	2.68455
88610	0.45865	0.50053	0.35924	2.42559	2.26794	2.07594	2.68940	1.78554	1.04201	1.55925	1.52096	1.40992	0.82086	0.70109	0.56070	3.86964	3.22282	2.56887	25.45	6.2	0.00	7.26	0.01274	0.01290	0.01670	0.00775	0.00578	0.00633	0.00468	0.01265	0.01686	0.00675	0.00692	0.00893	0.01490	0.01096	0.01197	0.00216	0.00613	0.00863
88770	0.35197	0.39714	0.26784	2.24330	2.12668	1.91258	2.61095	1.76499	0.99389	1.48862	1.43329	1.38366	0.78904	0.63559	0.53057	3.79277	3.11507	2.52487
88940	0.32156	0.35223	0.21922	2.25030	2.12223	1.92871	2.58781	1.74986	0.95805	1.51060	1.43666	1.31156	0.75415	0.63641	0.53435	3.76807	3.13693	2.51440
89100	0.33545	0.37417	0.22547	2.25133	2.06267	1.87005	2.57780	1.72215	0.95267	1.41502	1.37439	1.23025	0.74641	0.60839	0.51235	3.74600	3.09635	2.50341
89270	0.30815	0.36793	0.22849	2.24898	2.09687	1.87134	2.55382	1.76729	0.94548	1.47925	1.48821	1.30173	0.76968	0.61000	0.50851	3.75648	3.08960	2.45004
89430	0.30740	0.34145	0.21276	2.24371	2.15145	1.89091	2.55894	1.70136	0.92871	1.44242	1.43128	1.28881	0.73876	0.62772	0.51107	3.76845	3.13661	2.46646
89600	0.31684	0.35986	0.19838	2.22114	2.07317	1.88894	2.54752	1.67843	0.93324	1.51336	1.44980	1.28780	0.74861	0.62435	0.50638	3.84652	3.15460	2.47581
89760	0.30730	0.36260	0.26239	2.34018	2.15484	2.00161	2.59283	1.72906	0.98763	1.53586	1.54417	1.36926	0.78678	0.66127	0.55187	3.87503	3.18312	2.59623
89920	0.35261	0.39375	0.26564	2.28980	2.13701	2.01857	2.61304	1.74829	1.01323	1.58329	1.50228	1.42312	0.77708	0.65934	0.57186	3.86348	3.18379	2.55104
90090	0.36364	0.39704	0.27092	2.29304	2.22546	1.98158	2.60327	1.74092	0.97901	1.49957	1.48334	1.31445	0.79013	0.64141	0.52202	3.78000	3.17391	2.58367
90250	0.32234	0.36969	0.24661	2.31842	2.15706	1.94021	2.58951	1.73739	0.98472	1.56248	1.46529	1.31142	0.75583	0.63736	0.53650	3.77114	3.16473	2.46905	25.45	6.2	0.00	7.33	0.01274	0.01290	0.01670	0.00775	0.00578	0.00634	0.00468	0.01265	0.01686	0.00675	0.00692	0.00893	0.01490	0.01096	0.01197	0.00216	0.00613	0.00863
90410	0.31784	0.37593	0.23036	2.26344	2.10976	1.93323	2.60527	1.71618	0.95966	1.48528	1.46794	1.33503	0.78584	0.63508	0.51931	3.87058	3.20857	2.53692
90580	0.33388	0.38645	0.24641	2.32367	2.14717	1.91800	2.60825	1.72054	0.94884	1.46992	1.45413	1.31656	0.76532	0.63587	0.54355	3.72973	3.13008	2.50843
90740	0.32693	0.36440	0.23795	2.22173	2.07868	1.91954	2.59762	1.73680	0.96136	1.47446	1.40933	1.25465	0.75002	0.61604	0.54465	3.75862	3.11779	2.50141
90900	0.30832	0.36405	0.21112	2.21253	2.07291	1.92277	2.58152	1.70513	0.93709	1.45996	1.43346	1.29130	0.74649	0.59612	0.50369	3.73811	3.12513	2.46949
91070	0.29790	0.33090	0.21038	2.22865	2.06287	1.89347	2.55483	1.70482	0.92402	1.43479	1.39043	1.26175	0.76995	0.63253	0.49315	3.77213	3.11112	2.45994
91230	0.29690	0.32570	0.19786	2.20135	2.05560	1.86085	2.55288	1.68875	0.92937	1.58843	1.34738	1.23091	0.72401	0.60792	0.49657	3.69562	3.09757	2.49063
91390	0.28574	0.32716	0.19591	2.28714	2.05451	1.87465	2.54705	1.67622	0.93249	1.42122	1.37774	1.26015	0.73649	0.60818	0.49339	3.72814	3.05946	2.41931
91560	0.28965	0.32656	0.19592	2.22614	2.07722	1.91558	2.54548	1.67390	0.93615	1.54151	1.35217	1.22735	0.72467	0.59627	0.49307	3.72464	3.13285	2.44622
91720	0.29103	0.32902	0.19464	2.21574	2.04266	1.84291	2.55442	1.68632	0.91925	1.42956	1.38448	1.34914	0.72676	0.59789	0.49366	3.79095	3.09573	2.48367
91890	0.28859	0.34709	0.20765	2.22088	2.05947	1.85348	2.54815	1.70034	0.94516	1.41397	1.36149	1.26218	0.72815	0.59596	0.47996	3.71353	3.08580	2.41459	25.45	5.9	0.00	7.18	0.01274	0.01290	0.01670	0.00775	0.00578	0.00634	0.00468	0.01265	0.01686	0.00675	0.00692	0.00893	0.01490	0.01096	0.01197	0.00216	0.00613	0.00863
92050	0.28962	0.32994	0.20577	2.19075	2.07481	1.87329	2.57209	1.68159	0.92774	1.42536	1.35896	1.27984	0.74264	0.60709	0.51791	3.73257	3.07043	2.44027
92220	0.31179	0.33704	0.22198	2.23612	2.09094	1.86132	2.55617	1.67376	0.93024	1.40743	1.35371	1.22224	0.74553	0.61469	0.49693	3.74857	3.10049	2.44738
92380	0.29659	0.34088	0.20529	2.25191	2.04762	1.85881	2.54557	1.70050	0.92370	1.53245	1.40372	1.27285	0.73295	0.59868	0.49263	3.75022	3.08298	2.46098
92540	0.29300	0.32328	0.19541	2.19140	2.06971	1.85847	2.55996	1.67547	0.92422	1.45669	1.37853	1.26775	0.74345	0.61356	0.51057	3.72759	3.09174	2.44374
92710	0.30408	0.34027	0.21405	2.25368	2.07083	1.90018	2.55442	1.70117	0.93324	1.45866	1.39133	1.31214	0.77820	0.63623	0.51451	3.76235	3.08153	2.42695
92870	0.31267	0.34231	0.22117	2.24522	2.09548	1.96127	2.59204	1.70458	0.94861	1.44584	1.40149	1.27875	0.75731	0.62886	0.49487	3.74759	3.11956	2.49747
93030	0.30614	0.34418	0.21566	2.20273	2.08582	1.90645	2.56838	1.71184	0.94972	1.43341	1.40349	1.28143	0.76058	0.62302	0.50444	3.74441	3.07806	2.44173
93200	0.32227	0.35060	0.22008	2.24280	2.07909	1.89272	2.56275	1.70396	0.92958	1.45600	1.37411	1.28077	0.73668	0.60137	0.49943	3.74364	3.09055	2.47391
93360	0.31201	0.33613	0.20437	2.19423	2.07466	1.90242	2.58722	1.70648	0.96607	1.45866	1.40767	1.39620	0.76583	0.62675	0.55881	3.95763	3.33498	2.72200
93530	0.36479	0.45833	0.37832	2.54786	2.45679	2.48190	2.79582	1.94742	1.20881	2.04154	1.90619	1.77440	0.97232	0.94121	0.81898	4.15647	3.62319	3.03613	25.51	6.2	0.00	7.30	0.01273	0.01290	0.01670	0.00775	0.00578	0.00634	0.00468	0.01265	0.01686	0.00675	0.00692	0.00893	0.01490	0.01096	0.01197	0.00216	0.00613	0.00863
93690	0.65827	0.69034	0.51317	2.91785	2.76844	2.66395	3.00772	2.01851	1.24188	2.15403	2.04410	1.95516	1.08458	0.98271	0.80815	4.33470	3.72082	3.15286
93850	0.59968	0.68467	0.54272	2.85802	2.74469	2.42042	2.88944	1.94049	1.18081	2.07084	1.94685	1.74390	0.97981	0.82042	0.76316	4.22319	3.57458	2.95697
94010	0.53621	0.57900	0.39944	2.64524	2.53550	2.25568	2.75067	1.85316	1.09040	1.86688	1.72056	1.61094	0.89435	0.74526	0.64929	3.97984	3.31678	2.63608
94170	0.43723	0.44976	0.32023	2.41635	2.27671	2.11130	2.67025	1.79969	1.05456	1.59596	1.56093	1.35200	0.83589	0.69442	0.58093	3.88586	3.23811	2.54555
94340	0.38383	0.41124	0.24860	2.35892	2.16804	1.97762	2.62783	1.75616	0.97485	1.49060	1.43971	1.28614	0.77453	0.63214	0.51672	3.81074	3.14708	2.49166
94500	0.31670	0.37722	0.22600	2.27229	2.10957	1.92729	2.64802	1.74074	0.99148	1.46608	1.43883	1.33184	0.74998	0.61087	0.52082	3.72966	3.10985	2.44312
94660	0.32038	0.34234	0.22341	2.24956	2.11984	1.90081	2.55064	1.69346	0.94825	1.45737	1.37745	1.26204	0.74436	0.60382	0.49262	3.75164	3.08605	2.44038
94830	0.29119	0.34065	0.20439	2.21454	2.06549	1.86491	2.56566	1.68877	0.95813	1.44118	1.43813	1.32030	0.75675	0.62538	0.50927	3.76520	3.10443	2.46339
94990	0.31679	0.35623	0.21310	2.23458	2.10012	1.89217	2.58584	1.69889	0.94523	1.47898	1.43915	1.29523	0.76412	0.63025	0.51767	3.77103	3.10980	2.49439
95160	0.30314	0.34151	0.21432	2.25863	2.06056	1.87980	2.55814	1.67981	0.93070	1.43723	1.40464	1.26688	0.75785	0.62501	0.51745	3.75686	3.11007	2.53961	25.51	6.1	0.00	7.33	0.01273	0.01290	0.01670	0.00775	0.00578	0.00634	0.00468	0.01265	0.01686	0.00675	0.00692	0.00893	0.01490	0.01096	0.01197	0.00216	0.00613	0.00863
95320	0.30204	0.33923	0.21038	2.23298	2.07081	1.84658	2.58127	1.68061	0.93635	1.41307	1.37372	1.26214	0.74495	0.60251	0.50854	3.71425	3.09027	2.43184
