WetView ver 7.1	08-16-2018	11:57:33
AC9 Absorption and Attenuation Meter
00000266		; Serial number
2	; structure version number
Reserved
0.000000	0.000000		; Depth calibration
19200			; Baud rate
0.100000			; Path length (meters)
31			; number of temperature calibration bins
				12.59339	13.44920	14.48425	15.49668	16.50852	17.49564	18.50545	19.52458	20.50176	21.48889	22.47318	23.48707	24.50962	25.49370	26.49784	27.51372	28.50746	29.47237	30.47938	31.50214	32.50470	33.49235	34.50337	35.50914	36.50618	37.52058	38.51018	39.51308	40.49994	41.49866	42.47204	; temperature bins
a650	Blue	20.34952		-0.00383	-0.00415	-0.00430	-0.00391	-0.00363	-0.00317	-0.00269	-0.00237	-0.00179	-0.00130	-0.00099	-0.00071	-0.00015	0.00000	0.00004	-0.00001	0.00015	0.00036	0.00058	0.00101	0.00161	0.00132	0.00160	0.00169	0.00242	0.00273	0.00336	0.00365	0.00427	0.00566	0.00670		; offset and temperature correction info
a676	Green	20.51193		-0.00398	-0.00384	-0.00360	-0.00306	-0.00302	-0.00255	-0.00235	-0.00212	-0.00163	-0.00136	-0.00118	-0.00089	-0.00029	0.00000	0.00068	0.00082	0.00099	0.00137	0.00145	0.00212	0.00260	0.00252	0.00321	0.00354	0.00457	0.00535	0.00617	0.00648	0.00742	0.00887	0.01002		; offset and temperature correction info
a715	Brown	20.23230		-0.00421	-0.00394	-0.00391	-0.00291	-0.00264	-0.00192	-0.00204	-0.00179	-0.00188	-0.00239	-0.00180	-0.00187	-0.00099	0.00000	0.00084	0.00162	0.00188	0.00224	0.00321	0.00381	0.00466	0.00528	0.00588	0.00696	0.00859	0.01041	0.01148	0.01282	0.01333	0.01456	0.01617		; offset and temperature correction info
c510	Red	20.40042		-0.00261	-0.00247	-0.00258	-0.00225	-0.00203	-0.00197	-0.00199	-0.00203	-0.00154	-0.00103	-0.00069	-0.00019	-0.00007	0.00000	0.00011	-0.00021	-0.00042	-0.00056	-0.00040	0.00011	0.00036	0.00050	0.00077	0.00079	0.00050	0.00042	0.00043	0.00092	0.00147	0.00200	0.00232		; offset and temperature correction info
c532	Magenta	20.40760		-0.00248	-0.00265	-0.00278	-0.00279	-0.00296	-0.00292	-0.00238	-0.00206	-0.00129	-0.00096	-0.00092	-0.00052	-0.00009	0.00000	0.00007	-0.00049	-0.00136	-0.00107	-0.00079	-0.00065	-0.00074	-0.00105	-0.00152	-0.00192	-0.00236	-0.00269	-0.00252	-0.00233	-0.00172	-0.00128	-0.00067		; offset and temperature correction info
c555	Black	20.50654		-0.00053	-0.00063	-0.00106	-0.00094	-0.00068	-0.00055	-0.00053	-0.00039	-0.00028	-0.00025	-0.00011	-0.00035	-0.00007	0.00000	-0.00037	-0.00055	-0.00036	-0.00014	0.00019	0.00044	0.00032	0.00040	0.00050	0.00028	0.00014	0.00013	0.00030	0.00073	0.00117	0.00176	0.00241		; offset and temperature correction info
a412	LtBlue	17.15231		-0.01972	-0.01823	-0.01612	-0.01381	-0.01272	-0.01080	-0.00959	-0.00866	-0.00710	-0.00532	-0.00354	-0.00148	-0.00028	0.00000	0.00176	0.00297	0.00394	0.00440	0.00453	0.00487	0.00804	0.00856	0.01065	0.01248	0.01388	0.01439	0.01659	0.01881	0.02256	0.02450	0.02719		; offset and temperature correction info
a440	LtGreen	18.00171		-0.00729	-0.00642	-0.00581	-0.00502	-0.00426	-0.00349	-0.00244	-0.00218	-0.00179	-0.00101	-0.00046	-0.00006	0.00036	0.00000	0.00040	0.00045	0.00030	-0.00015	-0.00024	-0.00035	0.00012	-0.00013	-0.00033	-0.00089	-0.00142	-0.00189	-0.00231	-0.00205	-0.00140	-0.00140	-0.00146		; offset and temperature correction info
a488	Yellow	18.86491		-0.00113	-0.00102	-0.00106	-0.00064	-0.00027	-0.00020	-0.00030	-0.00037	-0.00047	-0.00059	-0.00052	-0.00012	0.00008	0.00000	0.00025	0.00012	-0.00013	-0.00043	-0.00065	-0.00076	-0.00025	0.00010	0.00090	0.00111	0.00113	0.00104	0.00073	0.00068	0.00120	0.00186	0.00258		; offset and temperature correction info
c650	Blue	20.46075		-0.00145	-0.00097	-0.00092	-0.00139	-0.00185	-0.00196	-0.00237	-0.00266	-0.00238	-0.00163	-0.00083	-0.00041	-0.00010	0.00000	0.00005	-0.00001	0.00015	0.00034	0.00029	0.00065	0.00101	0.00164	0.00126	0.00156	0.00175	0.00270	0.00287	0.00371	0.00407	0.00473	0.00534		; offset and temperature correction info
c676	Green	20.10118		-0.00170	-0.00144	-0.00149	-0.00177	-0.00188	-0.00194	-0.00198	-0.00196	-0.00177	-0.00156	-0.00140	-0.00091	-0.00033	0.00000	0.00050	0.00092	0.00110	0.00141	0.00167	0.00199	0.00216	0.00265	0.00269	0.00289	0.00315	0.00374	0.00367	0.00408	0.00486	0.00561	0.00646		; offset and temperature correction info
c715	Brown	19.91219		-0.01201	-0.01097	-0.00859	-0.00680	-0.00651	-0.00592	-0.00535	-0.00440	-0.00387	-0.00303	-0.00222	-0.00153	-0.00028	0.00000	0.00093	0.00149	0.00247	0.00322	0.00330	0.00427	0.00373	0.00464	0.00536	0.00551	0.00643	0.00733	0.00779	0.00884	0.00899	0.01021	0.01120		; offset and temperature correction info
a510	Red	19.21192		0.00201	0.00193	0.00158	0.00098	0.00089	0.00049	0.00011	-0.00016	-0.00016	-0.00005	0.00028	0.00025	0.00006	0.00000	0.00035	-0.00022	-0.00023	-0.00080	-0.00144	-0.00154	-0.00153	-0.00204	-0.00220	-0.00219	-0.00190	-0.00128	-0.00069	-0.00018	0.00068	0.00152	0.00241		; offset and temperature correction info
a532	Magenta	19.41084		-0.00097	-0.00072	-0.00060	-0.00081	-0.00062	-0.00071	-0.00040	0.00020	0.00028	0.00043	0.00000	-0.00035	0.00007	0.00000	-0.00011	-0.00059	-0.00080	-0.00098	-0.00137	-0.00162	-0.00163	-0.00130	-0.00073	-0.00018	0.00090	0.00185	0.00175	0.00247	0.00291	0.00327	0.00349		; offset and temperature correction info
a555	Black	19.69776		0.00171	0.00183	0.00183	0.00186	0.00191	0.00170	0.00115	0.00131	0.00097	0.00073	0.00060	0.00013	0.00015	0.00000	0.00014	-0.00029	-0.00066	-0.00082	-0.00116	-0.00139	-0.00134	-0.00167	-0.00119	-0.00093	-0.00048	0.00053	0.00111	0.00095	0.00178	0.00206	0.00273		; offset and temperature correction info
c412	LtBlue	19.91180		-0.02051	-0.01853	-0.01589	-0.01311	-0.01059	-0.00877	-0.00705	-0.00581	-0.00413	-0.00231	-0.00098	-0.00066	-0.00011	0.00000	-0.00013	-0.00085	-0.00170	-0.00170	-0.00302	-0.00330	-0.00429	-0.00551	-0.00626	-0.00775	-0.00978	-0.01181	-0.01113	-0.01108	-0.01116	-0.01192	-0.01291		; offset and temperature correction info
c440	LtGreen	20.06241		-0.01064	-0.00992	-0.00892	-0.00766	-0.00639	-0.00531	-0.00478	-0.00384	-0.00287	-0.00187	-0.00102	-0.00063	-0.00023	0.00000	-0.00007	-0.00053	-0.00090	-0.00119	-0.00169	-0.00197	-0.00226	-0.00257	-0.00260	-0.00289	-0.00394	-0.00470	-0.00481	-0.00493	-0.00520	-0.00580	-0.00620		; offset and temperature correction info
c488	Yellow	20.35984		-0.01125	-0.01082	-0.00966	-0.00833	-0.00726	-0.00661	-0.00579	-0.00500	-0.00389	-0.00278	-0.00167	-0.00113	-0.00041	0.00000	0.00055	0.00121	0.00187	0.00226	0.00222	0.00251	0.00281	0.00359	0.00414	0.00427	0.00401	0.00404	0.00486	0.00563	0.00638	0.00684	0.00718		; offset and temperature correction info
0.003500	0.004000	0.015000	0.020000	0.015000	0.020000	2500.000000	2000.000000	1000.000000	; maxANoise	maxCNoise	maxADifference	maxCDifference	minACounts	minCCounts	minRCounts	maxTempSdev	maxDepthSdev
0			; auxilliary capabilities
1			; acquisition binsize
0	0.25433	0.27011	0.21928	0.33557	0.39599	0.34699	0.91950	0.63812	0.44678	0.33600	0.34083	0.31435	0.39446	0.38051	0.33968	0.16102	0.24660	0.34563	28.51	6.1	0.00	7.36	0.01267	0.01286	0.01640	0.00760	0.00566	0.00620	0.00465	0.01261	0.01677	0.00661	0.00681	0.00862	0.01484	0.01091	0.01192	0.00210	0.00599	0.00844
160	0.25209	0.26956	0.21810	0.32815	0.39266	0.34361	0.92312	0.64880	0.45093	0.33940	0.34778	0.32203	0.39439	0.38363	0.34006	0.16946	0.25404	0.35264
320	0.25562	0.27089	0.22062	0.33652	0.40029	0.34958	0.93137	0.64541	0.45093	0.33932	0.34417	0.31677	0.39253	0.37872	0.33639	0.15964	0.24550	0.34468
490	0.25080	0.26573	0.21581	0.32492	0.38517	0.33632	0.91591	0.63961	0.44662	0.33185	0.34050	0.31471	0.38919	0.37513	0.33411	0.15894	0.24649	0.34655
650	0.25433	0.26840	0.21786	0.33147	0.39381	0.34298	0.92254	0.64313	0.44919	0.33211	0.33919	0.31367	0.39080	0.37547	0.33449	0.15259	0.23952	0.33927
810	0.24954	0.26557	0.21518	0.32101	0.38311	0.33479	0.91229	0.63824	0.44257	0.32938	0.33580	0.31098	0.38953	0.37468	0.33566	0.15066	0.24065	0.34053
980	0.25324	0.26891	0.21697	0.32540	0.38758	0.33821	0.91315	0.64408	0.44792	0.33126	0.33864	0.31345	0.39200	0.37796	0.33428	0.15551	0.24542	0.34641
1140	0.25297	0.26810	0.21708	0.32862	0.38833	0.33622	0.92330	0.63698	0.44528	0.32904	0.33646	0.31244	0.39076	0.37632	0.33638	0.15362	0.24295	0.34309
1300	0.25429	0.27042	0.21913	0.32672	0.38751	0.33628	0.91978	0.63971	0.44696	0.32773	0.33514	0.30968	0.38799	0.37644	0.33873	0.15023	0.23978	0.34111
1470	0.25257	0.26684	0.21494	0.32305	0.38241	0.33110	0.92021	0.63469	0.44447	0.32501	0.33472	0.30944	0.39209	0.37742	0.33653	0.15208	0.23900	0.34021
1630	0.25595	0.26977	0.22149	0.32880	0.39116	0.34055	0.91972	0.64479	0.44948	0.33360	0.34176	0.31561	0.39184	0.37913	0.33497	0.15794	0.24200	0.34122	28.46	6.1	0.00	7.36	0.01267	0.01286	0.01641	0.00760	0.00566	0.00621	0.00465	0.01261	0.01677	0.00661	0.00681	0.00863	0.01485	0.01091	0.01192	0.00210	0.00599	0.00844
1790	0.25227	0.26602	0.21652	0.32215	0.38475	0.33497	0.91633	0.63812	0.44537	0.32924	0.33683	0.31178	0.38838	0.38006	0.33609	0.15542	0.24165	0.34211
1960	0.25535	0.26628	0.21713	0.32576	0.38746	0.33521	0.91135	0.64090	0.44524	0.32771	0.33537	0.31014	0.38986	0.37685	0.33724	0.15298	0.23965	0.34047
2120	0.25146	0.26532	0.21571	0.32154	0.38372	0.33305	0.91762	0.63590	0.44355	0.32688	0.33341	0.30920	0.38762	0.37635	0.33281	0.15062	0.23753	0.33795
2280	0.24923	0.26738	0.21557	0.32011	0.38406	0.33361	0.91698	0.64022	0.44675	0.32760	0.33570	0.30995	0.39059	0.37922	0.33490	0.15266	0.24088	0.34103
2450	0.25167	0.26614	0.21608	0.32255	0.38389	0.33396	0.91094	0.63749	0.44363	0.32719	0.33464	0.30844	0.38796	0.37471	0.33384	0.14794	0.23558	0.33714
2610	0.24878	0.26541	0.21765	0.32046	0.38544	0.33583	0.91782	0.64183	0.44844	0.32961	0.33718	0.31154	0.39209	0.37823	0.33723	0.15416	0.24154	0.34103
2770	0.25367	0.26693	0.21637	0.32187	0.38371	0.33380	0.91334	0.63735	0.44389	0.32773	0.33639	0.30984	0.39046	0.37711	0.33375	0.15026	0.23868	0.33964
2940	0.25603	0.26927	0.21958	0.32621	0.38816	0.33705	0.91744	0.64344	0.44929	0.33111	0.33956	0.31301	0.39336	0.38200	0.34231	0.15963	0.24440	0.34580
3100	0.25571	0.26863	0.21709	0.32862	0.39016	0.33729	0.91658	0.64089	0.44869	0.33037	0.33831	0.31186	0.38843	0.37856	0.33505	0.15420	0.24070	0.34109
3260	0.25592	0.27201	0.22104	0.33219	0.39453	0.34420	0.92621	0.64867	0.45269	0.33616	0.34367	0.31761	0.39741	0.38179	0.33810	0.16598	0.25258	0.35002	28.51	6.2	0.00	7.40	0.01267	0.01286	0.01641	0.00761	0.00567	0.00621	0.00465	0.01261	0.01678	0.00662	0.00681	0.00863	0.01485	0.01091	0.01193	0.00210	0.00600	0.00845
3430	0.25751	0.26993	0.21902	0.33164	0.39274	0.34249	0.92078	0.64403	0.44808	0.33302	0.34079	0.31575	0.38800	0.38168	0.33480	0.15953	0.24773	0.34586
3590	0.25672	0.26858	0.21983	0.33115	0.39364	0.34374	0.91943	0.64447	0.45147	0.33418	0.34193	0.31550	0.38981	0.38170	0.33889	0.16350	0.24933	0.34685
3750	0.25544	0.26552	0.21723	0.32908	0.39091	0.34015	0.91334	0.64115	0.44797	0.33194	0.33953	0.31387	0.38962	0.37872	0.33650	0.15937	0.24711	0.34494
3910	0.25253	0.26787	0.21765	0.32758	0.38866	0.33777	0.91729	0.63615	0.44320	0.33012	0.33788	0.31221	0.39214	0.37963	0.33996	0.16232	0.24955	0.34883
4080	0.25635	0.26877	0.21947	0.33152	0.39259	0.34101	0.92710	0.64160	0.44960	0.33242	0.34018	0.31344	0.39149	0.38090	0.33818	0.15976	0.24901	0.34758
4240	0.25486	0.26943	0.21742	0.32973	0.39250	0.34050	0.92267	0.64024	0.44635	0.33215	0.34003	0.31384	0.39493	0.38395	0.34207	0.16539	0.25324	0.35150
4410	0.25747	0.27215	0.21967	0.33272	0.39399	0.34239	0.92869	0.64508	0.44915	0.33265	0.34151	0.31564	0.39218	0.37877	0.33986	0.16193	0.24881	0.34677
4570	0.25687	0.27092	0.22043	0.33218	0.39571	0.34359	0.92497	0.64839	0.45260	0.33513	0.34315	0.31668	0.39462	0.38197	0.34227	0.16417	0.24944	0.34778
4730	0.25516	0.26984	0.21953	0.32942	0.38991	0.33817	0.91582	0.64057	0.44669	0.33035	0.33833	0.31225	0.39040	0.37988	0.33862	0.15819	0.24641	0.34445
4900	0.25602	0.27098	0.22017	0.33253	0.39368	0.34158	0.91669	0.64418	0.44817	0.33301	0.34199	0.31449	0.39078	0.38107	0.33994	0.16315	0.24909	0.34747	28.51	6.2	0.00	7.45	0.01267	0.01286	0.01641	0.00761	0.00567	0.00621	0.00465	0.01261	0.01678	0.00662	0.00681	0.00863	0.01485	0.01091	0.01193	0.00210	0.00600	0.00845
5060	0.25237	0.26774	0.21933	0.32978	0.39177	0.33978	0.91932	0.64309	0.44655	0.33326	0.34138	0.31450	0.39306	0.37966	0.33978	0.16551	0.25125	0.35027
5230	0.25798	0.26852	0.21787	0.33228	0.39516	0.34283	0.92349	0.64520	0.44736	0.33453	0.34287	0.31594	0.39724	0.38009	0.34242	0.16854	0.25505	0.35284
5390	0.25835	0.27247	0.22303	0.33618	0.39850	0.34519	0.92779	0.64463	0.44998	0.33671	0.34347	0.31715	0.39461	0.38351	0.33924	0.16756	0.25175	0.34934
5560	0.25797	0.26820	0.21951	0.33210	0.39414	0.34315	0.92645	0.64647	0.45017	0.33480	0.34251	0.31569	0.39516	0.38430	0.33923	0.16401	0.25077	0.34880
5720	0.25595	0.26928	0.22093	0.33154	0.39338	0.34103	0.92056	0.64245	0.44736	0.33193	0.34088	0.31384	0.39043	0.37837	0.33784	0.16165	0.24710	0.34370
5880	0.25312	0.26703	0.21934	0.32953	0.39299	0.34287	0.92036	0.64838	0.44949	0.33448	0.34254	0.31510	0.39339	0.38126	0.33840	0.16114	0.24887	0.34692
6050	0.25619	0.26939	0.21812	0.33031	0.39164	0.34017	0.92086	0.64171	0.44622	0.33203	0.34040	0.31340	0.39099	0.37865	0.33480	0.15890	0.24542	0.34455
6210	0.25304	0.26690	0.21966	0.32876	0.39373	0.34358	0.93010	0.64605	0.45329	0.33599	0.34406	0.31721	0.39598	0.38386	0.34088	0.16775	0.25158	0.34972
6370	0.25744	0.27141	0.21868	0.33195	0.39373	0.34130	0.92041	0.64376	0.44757	0.33172	0.33959	0.31384	0.39314	0.38248	0.33913	0.16405	0.24990	0.34863
6540	0.25681	0.26895	0.21933	0.33363	0.39458	0.34290	0.92310	0.64329	0.44717	0.33468	0.34065	0.31582	0.38990	0.37872	0.33837	0.16057	0.24723	0.34592	28.51	6.2	0.00	7.39	0.01268	0.01286	0.01641	0.00761	0.00567	0.00621	0.00465	0.01262	0.01678	0.00662	0.00681	0.00863	0.01485	0.01091	0.01193	0.00210	0.00600	0.00845
6700	0.25438	0.26823	0.21761	0.32986	0.39214	0.34047	0.92255	0.63842	0.44773	0.33156	0.33979	0.31336	0.39214	0.37927	0.33817	0.16254	0.24934	0.34811
6860	0.25478	0.26971	0.21758	0.33202	0.39406	0.34283	0.91605	0.64224	0.44907	0.33311	0.34051	0.31484	0.39224	0.37823	0.33631	0.15892	0.24797	0.34591
7030	0.25389	0.26605	0.21741	0.32929	0.39102	0.33929	0.91289	0.63866	0.44740	0.33123	0.33978	0.31341	0.39219	0.38035	0.34158	0.16356	0.25129	0.35009
7190	0.25715	0.27003	0.22114	0.33306	0.39393	0.34290	0.92578	0.64384	0.44984	0.33412	0.34115	0.31515	0.39248	0.37684	0.33565	0.15880	0.24674	0.34615
7360	0.25676	0.27105	0.22055	0.33260	0.39577	0.34347	0.92045	0.64418	0.45093	0.33435	0.34125	0.31551	0.39218	0.38063	0.33906	0.16419	0.24903	0.34701
7520	0.25469	0.26858	0.21904	0.33029	0.39215	0.34098	0.92801	0.64108	0.44796	0.33225	0.34037	0.31448	0.39197	0.38023	0.34017	0.16403	0.25030	0.34891
7690	0.25807	0.27197	0.22097	0.33212	0.39420	0.34247	0.92232	0.64435	0.44968	0.33323	0.34173	0.31437	0.39265	0.37943	0.33994	0.15986	0.24768	0.34662
7850	0.25481	0.26845	0.21811	0.33033	0.39210	0.34109	0.91395	0.64074	0.44597	0.33109	0.33962	0.31351	0.39706	0.38543	0.34408	0.16478	0.25262	0.35060
8020	0.25840	0.27207	0.22141	0.33343	0.39501	0.34372	0.92078	0.64572	0.45033	0.33441	0.34304	0.31687	0.39371	0.38250	0.34166	0.16336	0.25116	0.34939
8180	0.25788	0.27056	0.21879	0.33410	0.39542	0.34434	0.92574	0.64566	0.44788	0.33440	0.34249	0.31532	0.39315	0.37841	0.33956	0.16065	0.25104	0.34950	28.51	6.2	0.00	7.45	0.01268	0.01286	0.01641	0.00761	0.00567	0.00622	0.00465	0.01262	0.01678	0.00662	0.00682	0.00863	0.01485	0.01091	0.01193	0.00210	0.00600	0.00845
8340	0.25360	0.26992	0.21763	0.33249	0.39435	0.34158	0.91636	0.64053	0.44604	0.33166	0.34152	0.31345	0.39210	0.37927	0.33847	0.16029	0.24963	0.34860
8510	0.25513	0.26851	0.22036	0.33250	0.39459	0.34380	0.92167	0.64335	0.44922	0.33433	0.34338	0.31552	0.39580	0.38264	0.34277	0.16808	0.25714	0.35570
8670	0.26038	0.27378	0.22353	0.33897	0.40023	0.34844	0.92233	0.64825	0.45244	0.33754	0.34599	0.31850	0.39470	0.38261	0.33969	0.16391	0.25242	0.35101
8840	0.25690	0.27072	0.22256	0.33538	0.39940	0.34817	0.92635	0.64626	0.45299	0.33790	0.34584	0.31986	0.39846	0.38420	0.34107	0.16741	0.25549	0.35277
9000	0.25744	0.27071	0.21868	0.33469	0.39556	0.34536	0.92122	0.64231	0.44822	0.33403	0.34157	0.31708	0.39168	0.38142	0.33754	0.16269	0.25044	0.34928
9160	0.25287	0.26826	0.22047	0.33293	0.39675	0.34588	0.92650	0.64279	0.45287	0.33711	0.34469	0.31828	0.39536	0.38234	0.33944	0.16383	0.25085	0.34990
9320	0.25541	0.26863	0.21876	0.33201	0.39276	0.34149	0.91975	0.63935	0.44662	0.33057	0.34015	0.31374	0.39327	0.37944	0.33729	0.15703	0.24863	0.34792
9490	0.25638	0.26909	0.21860	0.33343	0.39459	0.34397	0.91871	0.63978	0.44577	0.33281	0.34152	0.31563	0.39472	0.38159	0.34222	0.16450	0.25336	0.35252
9650	0.25790	0.27038	0.22026	0.33657	0.39766	0.34695	0.92354	0.64769	0.45356	0.33654	0.34561	0.31870	0.39474	0.38019	0.33798	0.16623	0.25270	0.35112
9810	0.25563	0.26940	0.21953	0.33434	0.39546	0.34483	0.92564	0.64497	0.44910	0.33528	0.34365	0.31659	0.39566	0.38309	0.33847	0.16713	0.25623	0.35403	28.51	6.1	0.00	7.34	0.01268	0.01286	0.01641	0.00761	0.00567	0.00622	0.00465	0.01262	0.01678	0.00662	0.00682	0.00863	0.01485	0.01091	0.01193	0.00210	0.00600	0.00845
9980	0.25753	0.27104	0.22110	0.33688	0.39701	0.34681	0.92870	0.64521	0.45052	0.33801	0.34547	0.31995	0.39316	0.38046	0.33797	0.16567	0.25508	0.35194
10140	0.25518	0.26964	0.21763	0.33574	0.39547	0.34546	0.92055	0.64277	0.44930	0.33609	0.34341	0.31790	0.39418	0.38202	0.34001	0.16725	0.25825	0.35609
10300	0.25916	0.27163	0.22132	0.33976	0.40006	0.34816	0.92973	0.64452	0.45060	0.33765	0.34470	0.31885	0.39306	0.38173	0.34033	0.16552	0.25429	0.35132
10470	0.25689	0.26893	0.21959	0.33595	0.39570	0.34560	0.92596	0.64144	0.44847	0.33686	0.34365	0.31882	0.39447	0.38380	0.34658	0.17280	0.26391	0.36054
10630	0.26200	0.27533	0.22329	0.34367	0.40293	0.35037	0.92571	0.64811	0.45416	0.34009	0.34776	0.32083	0.39597	0.38171	0.34110	0.16709	0.25668	0.35379
10800	0.25906	0.27456	0.22291	0.34081	0.40043	0.35108	0.93386	0.64906	0.45315	0.34048	0.34746	0.32187	0.39690	0.38425	0.34024	0.17111	0.25848	0.35587
10960	0.25819	0.26977	0.22061	0.33779	0.39766	0.34819	0.92164	0.64784	0.44989	0.33736	0.34337	0.31849	0.39183	0.37928	0.33780	0.16363	0.25273	0.35036
11120	0.25721	0.27059	0.22130	0.33898	0.39972	0.34941	0.92480	0.64280	0.45381	0.33988	0.34670	0.31996	0.39548	0.38129	0.34087	0.16697	0.25599	0.35291
11290	0.25667	0.27248	0.21954	0.33701	0.39750	0.34565	0.92604	0.64553	0.44962	0.33641	0.34338	0.31681	0.39398	0.37897	0.33537	0.16477	0.25262	0.34949
11450	0.25962	0.27404	0.22174	0.33805	0.40004	0.34893	0.93113	0.64907	0.45086	0.33848	0.34521	0.31998	0.39371	0.38355	0.34013	0.17045	0.25696	0.35357	28.51	6.1	0.00	7.34	0.01268	0.01286	0.01641	0.00761	0.00567	0.00622	0.00465	0.01262	0.01678	0.00662	0.00682	0.00863	0.01485	0.01091	0.01193	0.00210	0.00600	0.00845
11610	0.25580	0.27302	0.22132	0.33623	0.39733	0.34597	0.92104	0.64543	0.44990	0.33760	0.34338	0.31881	0.39088	0.38129	0.33751	0.16620	0.25390	0.35084
11780	0.25711	0.27192	0.22247	0.33806	0.39886	0.34794	0.91992	0.64802	0.45227	0.33893	0.34680	0.32115	0.39535	0.38421	0.33997	0.17254	0.25777	0.35527
11940	0.25767	0.27015	0.21997	0.33716	0.39752	0.34611	0.92794	0.64476	0.45173	0.33754	0.34358	0.31879	0.39336	0.37957	0.34030	0.16845	0.25388	0.35118
12100	0.25544	0.26939	0.21870	0.33437	0.39459	0.34288	0.92918	0.64283	0.44676	0.33422	0.34189	0.31646	0.39698	0.38625	0.34421	0.17175	0.26077	0.35810
12270	0.26101	0.27540	0.22376	0.34099	0.40214	0.35007	0.92953	0.64742	0.45426	0.34012	0.34686	0.32085	0.39907	0.38321	0.34256	0.17364	0.25956	0.35619
12430	0.25896	0.27088	0.22548	0.34082	0.40194	0.35097	0.92301	0.64952	0.45289	0.34054	0.34755	0.32173	0.39478	0.38373	0.34095	0.17317	0.25770	0.35428
12590	0.25684	0.27065	0.22088	0.33661	0.39712	0.34619	0.92511	0.64308	0.44950	0.33757	0.34552	0.32019	0.39573	0.38333	0.34151	0.17423	0.26060	0.35724
12760	0.26006	0.27318	0.22221	0.34035	0.40031	0.34789	0.92488	0.64458	0.45256	0.33750	0.34422	0.31954	0.39467	0.38061	0.34015	0.16868	0.25445	0.35162
12920	0.25623	0.26740	0.22011	0.33522	0.39675	0.34549	0.92248	0.64603	0.45049	0.33665	0.34417	0.31935	0.39248	0.38063	0.33678	0.16904	0.25431	0.35093
13080	0.25641	0.27143	0.22271	0.33582	0.39951	0.34830	0.93645	0.64993	0.45443	0.34037	0.34600	0.32064	0.39624	0.38311	0.34016	0.16845	0.25570	0.35275	28.51	6.1	0.00	7.36	0.01268	0.01286	0.01641	0.00761	0.00567	0.00622	0.00465	0.01262	0.01678	0.00662	0.00682	0.00863	0.01485	0.01091	0.01193	0.00210	0.00600	0.00845
13250	0.25742	0.27178	0.21909	0.33565	0.39624	0.34501	0.93009	0.64673	0.45134	0.33684	0.34501	0.32023	0.39389	0.38061	0.34007	0.16758	0.25605	0.35325
13410	0.25481	0.27130	0.22314	0.33588	0.40012	0.34830	0.92311	0.64821	0.45335	0.33943	0.34606	0.32089	0.39895	0.38338	0.34243	0.16931	0.25712	0.35416
13570	0.25702	0.26886	0.21949	0.33588	0.39600	0.34448	0.92311	0.64291	0.44936	0.33513	0.34141	0.31712	0.39220	0.37916	0.33807	0.16553	0.25366	0.35072
13740	0.25858	0.27364	0.22375	0.33745	0.40035	0.34899	0.93032	0.64866	0.45460	0.33957	0.34653	0.32148	0.39696	0.38278	0.34250	0.17352	0.25838	0.35621
13900	0.25886	0.27127	0.21929	0.33799	0.39882	0.34673	0.92428	0.64589	0.45161	0.33753	0.34367	0.31923	0.39200	0.38206	0.33834	0.16612	0.25445	0.35083
14060	0.25771	0.27080	0.22319	0.33645	0.40017	0.34719	0.92875	0.64564	0.45352	0.33875	0.34567	0.32027	0.39583	0.38148	0.34339	0.16876	0.25616	0.35346
14230	0.25738	0.27061	0.22128	0.33548	0.39805	0.34556	0.92812	0.64389	0.44863	0.33650	0.34313	0.31867	0.39331	0.38119	0.33783	0.16514	0.25477	0.35013
14390	0.25867	0.27325	0.22315	0.33688	0.39872	0.34851	0.92387	0.64967	0.45301	0.33769	0.34440	0.32010	0.39508	0.38100	0.34081	0.16691	0.25500	0.35264
14550	0.25682	0.27235	0.22113	0.33655	0.39694	0.34614	0.92767	0.64330	0.45045	0.33714	0.34295	0.31803	0.39249	0.38160	0.33920	0.16341	0.25367	0.35042
14720	0.25797	0.27360	0.22146	0.33669	0.39859	0.34746	0.93356	0.64656	0.45259	0.33518	0.34235	0.31807	0.39435	0.38248	0.33794	0.16432	0.25347	0.35006	28.51	6.1	0.00	7.40	0.01268	0.01286	0.01641	0.00761	0.00567	0.00622	0.00465	0.01262	0.01678	0.00662	0.00682	0.00863	0.01485	0.01091	0.01193	0.00210	0.00600	0.00845
14880	0.25536	0.26969	0.21912	0.33402	0.39427	0.34313	0.92084	0.64469	0.45212	0.33572	0.34170	0.31842	0.39422	0.38073	0.34059	0.16401	0.25396	0.35131
15040	0.25887	0.27252	0.22349	0.33771	0.40037	0.34856	0.92721	0.64978	0.45442	0.33944	0.34546	0.31966	0.39474	0.38287	0.34000	0.16849	0.25385	0.35123
15210	0.25642	0.27061	0.21963	0.33334	0.39446	0.34362	0.92620	0.64321	0.45030	0.33610	0.34216	0.31954	0.39361	0.38322	0.33959	0.16499	0.25451	0.35103
15370	0.25761	0.27406	0.22180	0.33818	0.40044	0.34828	0.92696	0.65057	0.45442	0.33855	0.34543	0.32093	0.39798	0.38455	0.34309	0.16971	0.25630	0.35471
15530	0.25746	0.27009	0.22146	0.33690	0.39745	0.34646	0.92569	0.64773	0.45178	0.33681	0.34386	0.31945	0.39317	0.38214	0.34169	0.16841	0.25628	0.35300
15700	0.25917	0.27362	0.22420	0.34021	0.40230	0.35096	0.93541	0.65199	0.45627	0.34110	0.34732	0.32231	0.39809	0.38537	0.34381	0.17341	0.25969	0.35584
15860	0.25854	0.27155	0.22056	0.33816	0.39794	0.34625	0.92036	0.64729	0.45093	0.33725	0.34404	0.32002	0.39370	0.38187	0.34060	0.16818	0.25599	0.35280
16020	0.25792	0.27584	0.22382	0.34059	0.40213	0.35014	0.93113	0.65510	0.45488	0.34001	0.34706	0.32089	0.39926	0.38617	0.34294	0.16995	0.25830	0.35602
16190	0.25963	0.27189	0.22213	0.33761	0.39882	0.34671	0.92845	0.64746	0.45201	0.33729	0.34464	0.31900	0.39640	0.38337	0.34317	0.17093	0.25792	0.35545
16350	0.25739	0.27275	0.22152	0.33810	0.40056	0.34884	0.92691	0.65097	0.45456	0.33947	0.34653	0.32187	0.39338	0.38552	0.34038	0.16890	0.25559	0.35096	28.46	6.2	0.00	7.51	0.01268	0.01286	0.01641	0.00761	0.00567	0.00621	0.00465	0.01262	0.01678	0.00662	0.00682	0.00863	0.01485	0.01091	0.01193	0.00210	0.00600	0.00845
16510	0.25700	0.26912	0.21857	0.33245	0.39360	0.34232	0.92493	0.64361	0.44927	0.33376	0.34124	0.31625	0.39146	0.37910	0.33904	0.16339	0.25055	0.34797
16680	0.25476	0.27073	0.22348	0.33417	0.39795	0.34860	0.92714	0.64952	0.45438	0.33884	0.34562	0.32033	0.39833	0.38288	0.34164	0.17110	0.25880	0.35634
16840	0.25910	0.27233	0.22414	0.34063	0.40250	0.34942	0.93270	0.64882	0.45364	0.34029	0.34722	0.32083	0.39546	0.38235	0.33985	0.17177	0.25675	0.35409
17000	0.25664	0.27160	0.22441	0.33761	0.40100	0.34891	0.93017	0.65029	0.45685	0.34041	0.34786	0.32329	0.39670	0.38451	0.34236	0.17465	0.26104	0.35811
17170	0.26189	0.27187	0.22116	0.34110	0.40093	0.34923	0.91957	0.64707	0.45200	0.33789	0.34381	0.31995	0.39483	0.38037	0.33614	0.17000	0.25486	0.35202
17330	0.25484	0.27138	0.22182	0.33629	0.39822	0.34916	0.92959	0.64926	0.45600	0.33901	0.34666	0.32172	0.39754	0.38494	0.34334	0.17614	0.26117	0.35727
17490	0.25897	0.27191	0.22026	0.33882	0.39964	0.34658	0.92595	0.64607	0.45189	0.33673	0.34348	0.31972	0.39387	0.38017	0.34011	0.17075	0.25661	0.35338
17660	0.25951	0.27616	0.22211	0.34107	0.40294	0.35108	0.93204	0.65070	0.45614	0.34207	0.34771	0.32402	0.39840	0.38546	0.33924	0.17591	0.26158	0.35684
17820	0.25965	0.27254	0.22192	0.33957	0.39924	0.34783	0.92696	0.64682	0.45229	0.33758	0.34542	0.32041	0.39385	0.38149	0.33999	0.17185	0.25949	0.35557
17980	0.25750	0.27466	0.22308	0.34273	0.40230	0.35013	0.93299	0.64928	0.45468	0.33999	0.34589	0.32117	0.39791	0.38572	0.34275	0.17329	0.26068	0.35688	28.46	6.1	0.00	7.38	0.01267	0.01286	0.01641	0.00761	0.00567	0.00622	0.00465	0.01261	0.01678	0.00662	0.00682	0.00863	0.01485	0.01091	0.01193	0.00210	0.00600	0.00845
18150	0.25829	0.27412	0.22184	0.33996	0.39914	0.34769	0.92859	0.64717	0.44995	0.33698	0.34302	0.31841	0.39377	0.37921	0.33891	0.16786	0.25534	0.35097
18310	0.26017	0.27380	0.22231	0.33962	0.40006	0.34832	0.92808	0.64784	0.45226	0.33841	0.34513	0.31987	0.39562	0.38101	0.34318	0.16987	0.25693	0.35325
18470	0.25996	0.27385	0.22149	0.33708	0.39589	0.34525	0.92806	0.64694	0.45013	0.33669	0.34284	0.31844	0.39515	0.38178	0.33931	0.16920	0.25504	0.35147
18640	0.26011	0.27225	0.22204	0.33896	0.39982	0.34865	0.93003	0.65032	0.45288	0.33859	0.34473	0.31956	0.39502	0.38366	0.34073	0.17239	0.25821	0.35446
18800	0.25963	0.27190	0.21947	0.33766	0.39718	0.34556	0.92072	0.64602	0.45132	0.33532	0.34285	0.31895	0.39406	0.38251	0.33858	0.17030	0.25524	0.35128
18960	0.25968	0.27435	0.22275	0.33758	0.39805	0.34745	0.92750	0.65075	0.45509	0.33867	0.34468	0.32034	0.39758	0.38424	0.34295	0.17353	0.25910	0.35568
19130	0.25804	0.26891	0.21936	0.33749	0.39735	0.34536	0.92937	0.64183	0.44840	0.33461	0.34275	0.31722	0.39048	0.37716	0.33550	0.16644	0.25255	0.34882
19290	0.25747	0.27114	0.22061	0.33751	0.39736	0.34750	0.92558	0.64702	0.45151	0.33671	0.34502	0.32125	0.39673	0.38319	0.34301	0.17695	0.26269	0.35805
19450	0.25984	0.27282	0.22314	0.34154	0.40041	0.34898	0.93048	0.64608	0.45023	0.33793	0.34452	0.32049	0.39566	0.38231	0.34038	0.17329	0.25866	0.35486
19620	0.25795	0.27533	0.22359	0.34191	0.40281	0.35038	0.92728	0.65095	0.45526	0.34127	0.34680	0.32321	0.39989	0.38661	0.34079	0.17546	0.26431	0.35994	28.51	6.1	0.00	6.53	0.01267	0.01286	0.01641	0.00761	0.00567	0.00621	0.00465	0.01261	0.01678	0.00662	0.00681	0.00863	0.01485	0.01091	0.01193	0.00210	0.00600	0.00845
19780	0.25918	0.27184	0.22161	0.34160	0.40148	0.34893	0.92306	0.64713	0.45263	0.33947	0.34571	0.32098	0.39355	0.38339	0.33848	0.17112	0.25865	0.35706
19940	0.26005	0.27315	0.22406	0.34350	0.40429	0.35185	0.93505	0.65072	0.45578	0.34164	0.34731	0.32322	0.39954	0.38668	0.34575	0.17731	0.26309	0.35841
20110	0.25755	0.27255	0.22197	0.34054	0.39980	0.34787	0.93136	0.64602	0.45108	0.33903	0.34340	0.31998	0.39715	0.38573	0.34514	0.17471	0.26139	0.35913
20270	0.25808	0.27272	0.22390	0.34209	0.40220	0.34997	0.92715	0.64913	0.45237	0.34022	0.34658	0.32152	0.39778	0.38401	0.34204	0.17286	0.25899	0.35627
20430	0.25882	0.27314	0.22114	0.33980	0.40038	0.34822	0.93644	0.64815	0.45200	0.33872	0.34548	0.32103	0.39541	0.38236	0.34073	0.17124	0.25813	0.35570
20600	0.25841	0.27342	0.22460	0.33845	0.40162	0.35004	0.93893	0.64965	0.45530	0.34129	0.34524	0.32093	0.39887	0.38523	0.34374	0.17053	0.25850	0.35635
20760	0.25894	0.27194	0.22293	0.34039	0.40044	0.34941	0.93095	0.64959	0.45280	0.34013	0.34622	0.32077	0.39592	0.38465	0.34167	0.17211	0.25763	0.35520
20920	0.25741	0.27225	0.22176	0.33999	0.40175	0.34968	0.92766	0.65083	0.45768	0.34170	0.34800	0.32373	0.40018	0.38809	0.34631	0.17837	0.26450	0.36077
21090	0.26096	0.27424	0.22234	0.34235	0.40195	0.34845	0.93128	0.64900	0.45211	0.33992	0.34578	0.32037	0.39484	0.38239	0.34026	0.17120	0.25803	0.35504
21250	0.25785	0.27067	0.22340	0.33777	0.40178	0.35066	0.92966	0.64973	0.45680	0.34003	0.34844	0.32288	0.39951	0.38633	0.34452	0.17507	0.26179	0.35873	28.51	6.2	0.00	7.47	0.01267	0.01286	0.01641	0.00761	0.00567	0.00621	0.00465	0.01261	0.01678	0.00662	0.00681	0.00863	0.01485	0.01091	0.01192	0.00210	0.00600	0.00845
21410	0.26106	0.27156	0.22223	0.34051	0.40023	0.34816	0.93027	0.64648	0.45345	0.33874	0.34575	0.32082	0.39573	0.38317	0.34211	0.17184	0.25809	0.35617
21580	0.26158	0.27655	0.22491	0.34426	0.40533	0.35431	0.94199	0.65285	0.45702	0.34356	0.34864	0.32415	0.40216	0.38912	0.34697	0.17905	0.26376	0.35984
21740	0.25999	0.27386	0.22290	0.34319	0.40220	0.35023	0.93482	0.65034	0.45504	0.33941	0.34608	0.32211	0.39755	0.38741	0.34124	0.17369	0.25898	0.35666
21900	0.26180	0.27678	0.22493	0.34361	0.40577	0.35307	0.92946	0.65338	0.45773	0.34251	0.34796	0.32408	0.40015	0.39003	0.34540	0.17905	0.26374	0.36084
22060	0.26185	0.27438	0.22300	0.34143	0.40192	0.34698	0.92035	0.64106	0.44838	0.33631	0.34212	0.31733	0.39178	0.37925	0.33558	0.16589	0.25163	0.34992
22230	0.25478	0.26902	0.21644	0.33244	0.39372	0.34181	0.92098	0.63883	0.44566	0.33203	0.33916	0.31520	0.39488	0.38193	0.34154	0.17117	0.25750	0.35561
22390	0.25862	0.27086	0.22149	0.33801	0.39876	0.34657	0.92741	0.64482	0.45025	0.33680	0.34260	0.31823	0.39265	0.38108	0.33911	0.16830	0.25425	0.35230
22560	0.25674	0.26917	0.21797	0.33478	0.39558	0.34385	0.92389	0.64230	0.44745	0.33366	0.34086	0.31669	0.39549	0.38598	0.34433	0.17389	0.25975	0.35742
22720	0.26065	0.27337	0.22160	0.34057	0.40074	0.34825	0.92607	0.64602	0.45126	0.33780	0.34565	0.32034	0.39610	0.38247	0.34164	0.17125	0.25670	0.35409
22880	0.25802	0.26939	0.22032	0.33569	0.39589	0.34358	0.91841	0.64459	0.44838	0.33458	0.34022	0.31651	0.39639	0.38459	0.34126	0.17213	0.26023	0.35798	28.51	6.1	0.00	7.39	0.01267	0.01286	0.01641	0.00761	0.00567	0.00621	0.00465	0.01261	0.01678	0.00662	0.00681	0.00863	0.01485	0.01091	0.01192	0.00210	0.00600	0.00845
23050	0.25897	0.27336	0.22210	0.34109	0.40047	0.34755	0.92423	0.64761	0.45145	0.33815	0.34371	0.31894	0.39331	0.38250	0.34039	0.17063	0.25528	0.35383
23210	0.25757	0.27378	0.22169	0.33931	0.40027	0.34772	0.92420	0.64799	0.45409	0.33890	0.34492	0.32047	0.39782	0.38756	0.34248	0.17209	0.25867	0.35518
23370	0.25753	0.27224	0.22174	0.33740	0.39818	0.34587	0.92534	0.64452	0.45052	0.33610	0.34206	0.31858	0.39645	0.38207	0.33821	0.16989	0.25508	0.35281
23540	0.25966	0.27300	0.22465	0.33832	0.39967	0.34825	0.92607	0.64794	0.45480	0.33855	0.34360	0.32056	0.39543	0.38412	0.34075	0.17059	0.25798	0.35486
23700	0.25841	0.27230	0.21950	0.33852	0.39923	0.34654	0.91955	0.64439	0.45052	0.33678	0.34360	0.31874	0.39584	0.38178	0.34077	0.17059	0.25491	0.35336
23860	0.25563	0.26988	0.21947	0.33687	0.39760	0.34519	0.92281	0.64484	0.44777	0.33429	0.34102	0.31649	0.39539	0.38397	0.33878	0.17008	0.25723	0.35559
24030	0.25817	0.27080	0.22117	0.33886	0.39918	0.34790	0.92410	0.64529	0.45179	0.33865	0.34299	0.31870	0.39957	0.38403	0.34423	0.17453	0.26119	0.35846
24190	0.26269	0.27564	0.22521	0.34278	0.40303	0.35054	0.93055	0.64851	0.45557	0.34075	0.34607	0.32198	0.39733	0.38811	0.34619	0.17489	0.26018	0.35810
24350	0.25859	0.27462	0.22316	0.34079	0.40102	0.34834	0.92742	0.64579	0.45076	0.33853	0.34327	0.31938	0.39564	0.38454	0.33989	0.17044	0.25708	0.35424
24520	0.25636	0.26932	0.21940	0.33820	0.39759	0.34590	0.92292	0.64387	0.44912	0.33493	0.34229	0.31732	0.39432	0.38230	0.33882	0.17125	0.25530	0.35254	28.51	6.3	0.00	6.57	0.01267	0.01286	0.01641	0.00761	0.00567	0.00621	0.00465	0.01261	0.01678	0.00662	0.00681	0.00863	0.01485	0.01091	0.01192	0.00210	0.00600	0.00845
24680	0.25625	0.26916	0.22020	0.33698	0.39672	0.34484	0.92001	0.64284	0.44871	0.33449	0.34100	0.31712	0.39700	0.38371	0.34490	0.17531	0.25908	0.35690
24840	0.26009	0.27061	0.22271	0.34131	0.40083	0.34909	0.92963	0.65036	0.45300	0.33818	0.34597	0.32015	0.39689	0.38464	0.33888	0.17310	0.25546	0.35335
25010	0.25810	0.26921	0.22041	0.33612	0.39676	0.34459	0.92510	0.64277	0.44881	0.33455	0.34158	0.31698	0.39512	0.38311	0.34314	0.17597	0.25886	0.35587
25170	0.25990	0.27271	0.22013	0.34026	0.39986	0.34724	0.92272	0.64878	0.45536	0.33627	0.34414	0.31919	0.39598	0.38558	0.34043	0.17274	0.25670	0.35310
25330	0.25532	0.26944	0.21894	0.33646	0.39674	0.34438	0.91779	0.64397	0.44927	0.33431	0.34049	0.31744	0.39657	0.38285	0.34112	0.17534	0.25844	0.35619
25500	0.25843	0.27291	0.22241	0.33941	0.39904	0.34770	0.92560	0.64724	0.45292	0.33630	0.34295	0.31865	0.39459	0.38248	0.34182	0.17314	0.25611	0.35330
25660	0.25649	0.27041	0.21928	0.33719	0.39679	0.34415	0.92371	0.64523	0.44974	0.33473	0.34153	0.31707	0.39486	0.38260	0.34100	0.17404	0.25760	0.35559
25820	0.25881	0.27298	0.22129	0.33902	0.39959	0.34685	0.92484	0.64734	0.45305	0.33669	0.34390	0.31951	0.39642	0.38261	0.34192	0.17558	0.25682	0.35475
25990	0.25749	0.26979	0.22022	0.33744	0.39827	0.34462	0.92712	0.64400	0.44898	0.33456	0.34178	0.31776	0.39920	0.38632	0.34409	0.17830	0.26158	0.35982
26150	0.26095	0.27569	0.22190	0.34137	0.40218	0.35117	0.93284	0.64892	0.45592	0.33853	0.34519	0.32066	0.39539	0.38243	0.34012	0.17464	0.25743	0.35439	28.51	6.0	0.00	7.46	0.01267	0.01286	0.01641	0.00761	0.00567	0.00621	0.00465	0.01261	0.01677	0.00662	0.00681	0.00863	0.01484	0.01091	0.01192	0.00210	0.00600	0.00845
26320	0.25704	0.27429	0.22376	0.34026	0.40181	0.34970	0.93661	0.64961	0.45494	0.33814	0.34514	0.32026	0.39773	0.38493	0.34254	0.17516	0.25892	0.35689
26480	0.25894	0.27341	0.22174	0.33960	0.40068	0.34823	0.92264	0.64760	0.45079	0.33643	0.34390	0.31955	0.39584	0.38220	0.34030	0.17382	0.25490	0.35278
26640	0.26082	0.27381	0.22351	0.34079	0.40309	0.34988	0.93038	0.65136	0.45697	0.33952	0.34604	0.32152	0.39760	0.38305	0.34232	0.17516	0.25866	0.35514
26810	0.25858	0.27167	0.22320	0.33909	0.40000	0.34678	0.92036	0.64622	0.45210	0.33588	0.34204	0.31878	0.39430	0.38134	0.33830	0.17295	0.25462	0.35290
26970	0.25784	0.27080	0.22376	0.34022	0.40189	0.34977	0.92752	0.64821	0.45404	0.33773	0.34485	0.32098	0.39580	0.38343	0.33978	0.17527	0.25894	0.35670
27130	0.25852	0.27246	0.22132	0.33910	0.39866	0.34528	0.92702	0.64651	0.45131	0.33428	0.34138	0.31755	0.39149	0.38095	0.33995	0.17149	0.25367	0.35174
27300	0.25598	0.26955	0.21821	0.33616	0.39635	0.34556	0.91563	0.64328	0.44845	0.33397	0.34106	0.31661	0.39567	0.38450	0.33957	0.17378	0.25825	0.35532
27460	0.25856	0.27136	0.22252	0.33869	0.39932	0.34809	0.92211	0.64617	0.45038	0.33647	0.34388	0.31966	0.39621	0.38281	0.33647	0.17472	0.25702	0.35365
27620	0.25835	0.26874	0.21993	0.33650	0.39663	0.34451	0.92494	0.64118	0.44658	0.33371	0.34151	0.31655	0.39530	0.38310	0.34323	0.17437	0.25903	0.35700
27790	0.25865	0.27370	0.22004	0.33991	0.40010	0.34701	0.91934	0.64810	0.45077	0.33646	0.34256	0.31897	0.39477	0.38325	0.34405	0.17150	0.25692	0.35541	28.51	6.0	0.00	7.32	0.01267	0.01286	0.01641	0.00761	0.00567	0.00621	0.00465	0.01261	0.01677	0.00662	0.00681	0.00863	0.01484	0.01091	0.01192	0.00210	0.00600	0.00845
27950	0.25875	0.27268	0.22236	0.33964	0.40053	0.34875	0.93212	0.64889	0.45213	0.33779	0.34406	0.31949	0.39721	0.38201	0.34084	0.17233	0.25477	0.35415
28110	0.25726	0.27104	0.22106	0.33702	0.39662	0.34516	0.91977	0.64426	0.45025	0.33489	0.34163	0.31747	0.39756	0.38374	0.34191	0.17457	0.25810	0.35647
28280	0.25920	0.27239	0.22451	0.34092	0.40049	0.34731	0.92602	0.64747	0.45405	0.33707	0.34411	0.31960	0.39454	0.38233	0.34204	0.17453	0.25673	0.35421
28440	0.25742	0.27065	0.21947	0.33773	0.39746	0.34415	0.92369	0.64233	0.45106	0.33489	0.34111	0.31573	0.39635	0.38391	0.34359	0.17296	0.25710	0.35616
28600	0.26010	0.27481	0.22331	0.34124	0.40101	0.34926	0.92837	0.64896	0.45260	0.33808	0.34453	0.31943	0.39545	0.38453	0.34105	0.16989	0.25570	0.35414
28770	0.25707	0.27175	0.22090	0.33676	0.39750	0.34416	0.91684	0.64202	0.44882	0.33406	0.34159	0.31676	0.39740	0.38599	0.34557	0.17398	0.25860	0.35642
28930	0.25945	0.27340	0.22357	0.34072	0.40087	0.34934	0.92557	0.64960	0.45238	0.33734	0.34428	0.31991	0.39610	0.38150	0.34182	0.17221	0.25687	0.35507
29090	0.25729	0.27067	0.22021	0.33782	0.39794	0.34637	0.93091	0.64479	0.44966	0.33473	0.34285	0.31797	0.39571	0.38309	0.34300	0.17363	0.25724	0.35573
29260	0.25738	0.27268	0.22062	0.33946	0.39864	0.34648	0.92192	0.64626	0.45166	0.33573	0.34330	0.31761	0.39485	0.38142	0.34171	0.17079	0.25480	0.35266
29420	0.25534	0.27116	0.21818	0.33427	0.39396	0.34370	0.91878	0.64283	0.44737	0.33378	0.33962	0.31572	0.39744	0.38294	0.34186	0.17325	0.25722	0.35627	28.51	6.1	0.00	7.45	0.01267	0.01286	0.01640	0.00761	0.00567	0.00621	0.00465	0.01261	0.01677	0.00662	0.00681	0.00863	0.01484	0.01091	0.01192	0.00210	0.00600	0.00845
29580	0.25834	0.27177	0.22058	0.33853	0.39868	0.34646	0.91961	0.64317	0.45129	0.33668	0.34184	0.31880	0.39694	0.38315	0.33958	0.17159	0.25689	0.35460
29750	0.25670	0.27040	0.22004	0.33579	0.39531	0.34448	0.92285	0.64460	0.44898	0.33355	0.34105	0.31600	0.39727	0.38252	0.34513	0.17613	0.25961	0.35651
29910	0.26073	0.27176	0.22218	0.33828	0.39801	0.34728	0.93191	0.64955	0.45141	0.33618	0.34302	0.31828	0.39497	0.38258	0.34199	0.17360	0.25612	0.35377
30080	0.25996	0.27367	0.22356	0.33993	0.40164	0.35025	0.92715	0.65049	0.45458	0.33873	0.34423	0.31937	0.39719	0.38413	0.34304	0.17664	0.25870	0.35641
30240	0.25675	0.27193	0.22216	0.33952	0.39847	0.34770	0.92548	0.64916	0.45106	0.33745	0.34317	0.31811	0.39557	0.37936	0.34064	0.17104	0.25511	0.35360
30400	0.25812	0.27481	0.22520	0.34161	0.40175	0.35138	0.92538	0.65219	0.45551	0.34097	0.34626	0.32122	0.39829	0.38540	0.34212	0.17624	0.26077	0.35779
30570	0.26048	0.27201	0.22183	0.33920	0.39885	0.34869	0.92837	0.64532	0.45160	0.33783	0.34444	0.32009	0.39614	0.38052	0.34150	0.17656	0.25693	0.35420
30730	0.26012	0.27516	0.22287	0.34135	0.40256	0.35177	0.93039	0.65180	0.45589	0.34052	0.34588	0.32237	0.39855	0.38635	0.34243	0.17837	0.26014	0.35771
30890	0.25892	0.27170	0.22264	0.34063	0.40040	0.34853	0.91994	0.64267	0.44791	0.33619	0.34231	0.31807	0.38950	0.38215	0.33569	0.17124	0.25280	0.35142
31060	0.25371	0.26827	0.21815	0.33313	0.39402	0.34322	0.91732	0.64178	0.44551	0.33414	0.34053	0.31594	0.39297	0.38418	0.33970	0.17189	0.25676	0.35526	28.51	6.1	0.00	7.50	0.01267	0.01286	0.01640	0.00761	0.00567	0.00621	0.00465	0.01261	0.01677	0.00662	0.00681	0.00863	0.01484	0.01091	0.01192	0.00210	0.00600	0.00845
31220	0.25697	0.27188	0.22097	0.33794	0.39851	0.34686	0.92319	0.64446	0.45100	0.33825	0.34435	0.31940	0.39364	0.38085	0.34017	0.17103	0.25608	0.35408
31380	0.25718	0.26921	0.22171	0.33554	0.39605	0.34421	0.91910	0.64357	0.44656	0.33442	0.34057	0.31597	0.39519	0.38340	0.34223	0.17036	0.25590	0.35504
31550	0.25776	0.27101	0.22164	0.33738	0.39881	0.34666	0.92125	0.64374	0.44921	0.33606	0.34203	0.31771	0.39270	0.38181	0.33875	0.16941	0.25372	0.35150
31710	0.25371	0.26854	0.21807	0.33314	0.39416	0.34312	0.91657	0.64075	0.44595	0.33337	0.34148	0.31569	0.39565	0.38255	0.34093	0.17099	0.25623	0.35417
31870	0.25811	0.27240	0.22134	0.33747	0.39770	0.34617	0.92165	0.64600	0.44911	0.33625	0.34441	0.31804	0.39803	0.38434	0.34464	0.17737	0.25912	0.35690
32040	0.26118	0.27445	0.22394	0.33975	0.40094	0.34791	0.92347	0.64614	0.45277	0.33813	0.34551	0.31978	0.39595	0.38538	0.34331	0.17154	0.25746	0.35452
32200	0.25827	0.27250	0.22338	0.33775	0.40036	0.34908	0.93243	0.65237	0.45419	0.33910	0.34629	0.32034	0.39769	0.38421	0.34228	0.17260	0.25771	0.35508
32370	0.25893	0.27142	0.22164	0.33723	0.39824	0.34602	0.92145	0.64514	0.44875	0.33518	0.34303	0.31744	0.39685	0.38357	0.34297	0.17426	0.25756	0.35584
32530	0.26045	0.27118	0.22357	0.33995	0.40059	0.34833	0.92416	0.64754	0.45041	0.33704	0.34394	0.31848	0.39628	0.38307	0.33809	0.17260	0.25464	0.35247
32700	0.25611	0.27144	0.22097	0.33655	0.39835	0.34597	0.92187	0.64669	0.45049	0.33611	0.34344	0.31803	0.39556	0.38167	0.34328	0.17089	0.25701	0.35405	28.51	6.1	0.00	7.36	0.01267	0.01286	0.01640	0.00761	0.00567	0.00621	0.00465	0.01261	0.01677	0.00662	0.00681	0.00863	0.01484	0.01091	0.01192	0.00210	0.00600	0.00845
32860	0.25555	0.27037	0.21934	0.33608	0.39827	0.34522	0.91727	0.64525	0.44945	0.33600	0.34283	0.31670	0.39390	0.38199	0.33912	0.17120	0.25548	0.35296
33020	0.25643	0.27118	0.22047	0.33738	0.39908	0.34679	0.92175	0.64684	0.45083	0.33693	0.34300	0.31862	0.39654	0.38266	0.33972	0.17159	0.25649	0.35393
33190	0.25500	0.27065	0.22204	0.33646	0.39756	0.34624	0.91848	0.64622	0.45062	0.33639	0.34291	0.31745	0.39672	0.38095	0.34112	0.17053	0.25520	0.35329
33350	0.25863	0.27513	0.22434	0.34141	0.40259	0.35125	0.93083	0.65009	0.45479	0.33947	0.34605	0.32147	0.39844	0.38435	0.34437	0.17739	0.26038	0.35719
33510	0.25737	0.27101	0.22176	0.33931	0.39956	0.34757	0.91909	0.64809	0.45259	0.33734	0.34504	0.31949	0.39700	0.38209	0.34022	0.17443	0.25842	0.35568
33680	0.25631	0.27054	0.21965	0.33831	0.39855	0.34644	0.91982	0.64425	0.45008	0.33669	0.34308	0.31845	0.39492	0.38171	0.34006	0.17301	0.25618	0.35354
33840	0.25399	0.26814	0.21734	0.33648	0.39777	0.34524	0.91955	0.64260	0.44984	0.33546	0.34192	0.31709	0.39074	0.37887	0.33780	0.16868	0.25351	0.35130
34000	0.25749	0.27364	0.22198	0.33949	0.40185	0.35092	0.92228	0.64997	0.45500	0.33976	0.34689	0.32090	0.39713	0.38325	0.34323	0.17380	0.25979	0.35642
34170	0.25737	0.27114	0.22046	0.33954	0.39946	0.34702	0.92671	0.64615	0.45147	0.33673	0.34423	0.31850	0.39435	0.38147	0.34125	0.17104	0.25569	0.35226
34330	0.25719	0.27266	0.22338	0.34139	0.40377	0.35126	0.93570	0.65017	0.45319	0.34066	0.34548	0.32127	0.39664	0.38459	0.34256	0.17558	0.25974	0.35756	28.51	6.1	0.00	7.45	0.01267	0.01286	0.01640	0.00761	0.00567	0.00621	0.00465	0.01261	0.01677	0.00662	0.00681	0.00863	0.01484	0.01091	0.01192	0.00210	0.00600	0.00845
34490	0.25619	0.27012	0.22085	0.33902	0.39989	0.34698	0.92542	0.64318	0.44951	0.33589	0.34059	0.31759	0.39263	0.38109	0.33840	0.16947	0.25484	0.35265
34660	0.25696	0.26856	0.22059	0.33815	0.40046	0.34858	0.91963	0.64841	0.45305	0.33748	0.34382	0.31893	0.39693	0.38309	0.34049	0.17129	0.25782	0.35501
34820	0.25557	0.26926	0.21905	0.33737	0.39734	0.34577	0.92077	0.64262	0.44739	0.33491	0.34177	0.31666	0.39340	0.37802	0.33650	0.16857	0.25343	0.35130
34980	0.25383	0.26691	0.21665	0.33389	0.39460	0.34394	0.91915	0.64196	0.44560	0.33343	0.33945	0.31602	0.39496	0.38109	0.34153	0.17479	0.25772	0.35569
35150	0.25542	0.27094	0.22161	0.33848	0.39932	0.34722	0.92646	0.64741	0.44887	0.33630	0.34206	0.31713	0.39479	0.38333	0.34028	0.17235	0.25850	0.35590
35310	0.25617	0.27049	0.22104	0.33910	0.40084	0.34833	0.92274	0.64789	0.45004	0.33675	0.34328	0.31771	0.39415	0.38007	0.34013	0.16979	0.25533	0.35315
35470	0.25429	0.26696	0.21731	0.33704	0.39767	0.34513	0.91518	0.64136	0.44810	0.33367	0.34038	0.31612	0.39787	0.38354	0.33842	0.17330	0.25926	0.35616
35640	0.25683	0.26958	0.22042	0.34027	0.40100	0.34873	0.92380	0.64880	0.44994	0.33782	0.34370	0.31930	0.39548	0.37929	0.33790	0.17444	0.25706	0.35543
35800	0.25352	0.27125	0.22018	0.33830	0.39839	0.34577	0.91819	0.64382	0.44695	0.33540	0.34017	0.31645	0.39577	0.38342	0.33966	0.17286	0.25917	0.35687
35970	0.25756	0.27117	0.22062	0.34102	0.40072	0.34890	0.93232	0.64759	0.45190	0.33684	0.34354	0.31843	0.39469	0.38307	0.33961	0.17268	0.25625	0.35472	28.57	6.3	0.00	7.38	0.01267	0.01286	0.01640	0.00761	0.00566	0.00621	0.00465	0.01261	0.01677	0.00661	0.00681	0.00863	0.01484	0.01091	0.01192	0.00210	0.00600	0.00845
36130	0.25550	0.26843	0.21771	0.33726	0.39617	0.34492	0.92222	0.64319	0.44788	0.33389	0.34039	0.31544	0.39700	0.38386	0.34265	0.17465	0.25936	0.35798
36290	0.25695	0.27202	0.22132	0.34121	0.40129	0.34895	0.92890	0.64632	0.45117	0.33785	0.34511	0.31985	0.39738	0.38283	0.34119	0.17382	0.25762	0.35530
36450	0.25582	0.27063	0.22093	0.33905	0.39900	0.34786	0.92123	0.64614	0.45001	0.33554	0.34379	0.31822	0.39507	0.38066	0.33776	0.16969	0.25589	0.35440
36620	0.25432	0.26787	0.21831	0.33678	0.39764	0.34578	0.92586	0.64305	0.44854	0.33420	0.34194	0.31717	0.39355	0.38052	0.33865	0.17004	0.25447	0.35241
36780	0.25314	0.26719	0.21701	0.33511	0.39497	0.34317	0.92356	0.64228	0.44692	0.33296	0.34069	0.31578	0.39547	0.38276	0.34073	0.17390	0.25947	0.35798
36950	0.25837	0.27160	0.22011	0.34049	0.40139	0.34859	0.91905	0.64670	0.45249	0.33704	0.34404	0.31793	0.39290	0.38324	0.33969	0.17260	0.25807	0.35417
37110	0.25729	0.27032	0.21855	0.33998	0.39961	0.34695	0.92328	0.64368	0.45059	0.33620	0.34348	0.31757	0.39289	0.38031	0.33807	0.17272	0.25451	0.35252
37270	0.25437	0.26779	0.21820	0.33709	0.39740	0.34555	0.91984	0.64362	0.44669	0.33379	0.34068	0.31632	0.39088	0.37764	0.33420	0.16776	0.25290	0.35147
37440	0.25697	0.27095	0.22086	0.33884	0.40012	0.34804	0.92619	0.64714	0.45130	0.33667	0.34393	0.31861	0.39509	0.38351	0.34041	0.17430	0.25724	0.35558
37600	0.25618	0.27052	0.21804	0.33648	0.39683	0.34413	0.92062	0.64235	0.44876	0.33297	0.34075	0.31583	0.39054	0.37711	0.33614	0.16442	0.25147	0.35066	28.51	6.0	0.00	7.37	0.01267	0.01286	0.01640	0.00760	0.00566	0.00621	0.00465	0.01261	0.01677	0.00661	0.00681	0.00863	0.01484	0.01091	0.01192	0.00210	0.00600	0.00844
37760	0.25508	0.26964	0.22075	0.33837	0.40033	0.34966	0.92075	0.64671	0.45351	0.33657	0.34401	0.31985	0.39426	0.38355	0.33958	0.17384	0.25669	0.35425
37930	0.25565	0.26963	0.21831	0.33622	0.39792	0.34493	0.91951	0.64608	0.45023	0.33419	0.34152	0.31652	0.39121	0.37822	0.33547	0.16754	0.25215	0.35162
38090	0.25630	0.27029	0.22146	0.33943	0.40148	0.35031	0.92282	0.64985	0.45353	0.33790	0.34576	0.31989	0.39485	0.38186	0.33963	0.17163	0.25880	0.35712
38250	0.25484	0.27010	0.21814	0.33855	0.39929	0.34744	0.92148	0.64335	0.44952	0.33584	0.34258	0.31663	0.38951	0.37904	0.33395	0.16777	0.25234	0.35127
38420	0.25337	0.26761	0.21624	0.33395	0.39596	0.34261	0.90871	0.64123	0.44614	0.33235	0.33975	0.31521	0.39266	0.38361	0.34091	0.17463	0.25865	0.35584
38580	0.25674	0.27310	0.21996	0.33757	0.39899	0.34687	0.92234	0.64434	0.45076	0.33591	0.34379	0.31916	0.39474	0.38188	0.33979	0.17396	0.25998	0.35803
38740	0.25533	0.26974	0.21877	0.33984	0.39983	0.34711	0.91506	0.64310	0.44865	0.33624	0.34311	0.31899	0.39341	0.38300	0.34222	0.17735	0.26220	0.35974
38910	0.25555	0.27183	0.22054	0.34153	0.40213	0.34853	0.92928	0.64377	0.44915	0.33670	0.34336	0.31970	0.39288	0.38046	0.34090	0.17455	0.26058	0.35907
39070	0.25416	0.26866	0.21990	0.34046	0.40145	0.34983	0.92080	0.64375	0.44721	0.33685	0.34208	0.31755	0.39447	0.38175	0.33768	0.17100	0.25656	0.35493
39240	0.25497	0.26846	0.21944	0.33664	0.39787	0.34745	0.91876	0.64400	0.44847	0.33502	0.34344	0.31844	0.39504	0.38572	0.34182	0.17616	0.26324	0.36107	28.51	6.0	0.00	7.37	0.01267	0.01286	0.01640	0.00760	0.00566	0.00621	0.00465	0.01261	0.01677	0.00661	0.00681	0.00863	0.01484	0.01091	0.01192	0.00210	0.00599	0.00844
39400	0.25898	0.27235	0.22267	0.34458	0.40497	0.35378	0.92536	0.64646	0.45189	0.33974	0.34651	0.32067	0.39560	0.38242	0.33856	0.17419	0.25981	0.35782
39560	0.25568	0.27185	0.22194	0.34162	0.40362	0.35314	0.92837	0.64854	0.45364	0.34169	0.34953	0.32317	0.39513	0.38599	0.34198	0.17849	0.26275	0.36097
39730	0.25747	0.27085	0.22256	0.34211	0.40345	0.35172	0.92546	0.64578	0.45209	0.34070	0.34677	0.32103	0.39842	0.38485	0.34195	0.17675	0.26121	0.35879
39890	0.25636	0.27098	0.22092	0.34075	0.40084	0.35016	0.91931	0.64512	0.45040	0.33872	0.34586	0.32000	0.39612	0.38223	0.34470	0.17762	0.26245	0.35932
40060	0.25646	0.27106	0.21986	0.34024	0.39969	0.34829	0.91739	0.64313	0.44757	0.33692	0.34399	0.31793	0.39595	0.38514	0.34224	0.17608	0.26256	0.35979
40220	0.25896	0.27350	0.22216	0.34307	0.40393	0.35322	0.92650	0.64528	0.45087	0.34054	0.34660	0.32050	0.39433	0.38308	0.34078	0.17332	0.26014	0.35576
40380	0.25682	0.27286	0.22256	0.34029	0.40140	0.35099	0.92650	0.64886	0.45458	0.33989	0.34781	0.32075	0.39696	0.38532	0.34135	0.17565	0.26096	0.35889
40550	0.25745	0.27165	0.21873	0.34130	0.40099	0.34984	0.91863	0.64488	0.45051	0.33818	0.34579	0.31991	0.39105	0.38356	0.33822	0.17474	0.25937	0.35680
40710	0.25728	0.27419	0.22345	0.34389	0.40422	0.35313	0.92974	0.64833	0.45379	0.33847	0.34531	0.31960	0.39704	0.38268	0.34073	0.17277	0.25903	0.35715
40870	0.25568	0.26817	0.21871	0.33722	0.39650	0.34634	0.91438	0.64453	0.44764	0.33388	0.34196	0.31688	0.39200	0.37979	0.34015	0.16956	0.25386	0.35243	28.51	6.1	0.00	7.43	0.01267	0.01286	0.01640	0.00760	0.00566	0.00621	0.00465	0.01261	0.01677	0.00661	0.00681	0.00863	0.01484	0.01091	0.01192	0.00210	0.00599	0.00844
41030	0.25445	0.27021	0.22137	0.33644	0.39870	0.34722	0.92238	0.64613	0.44914	0.33315	0.34153	0.31555	0.39256	0.38049	0.33677	0.16716	0.25397	0.35234
41200	0.25583	0.26936	0.21790	0.33548	0.39675	0.34511	0.92316	0.64153	0.44808	0.33318	0.34148	0.31665	0.39296	0.37941	0.33796	0.16708	0.25310	0.35108
41360	0.25363	0.26790	0.21811	0.33311	0.39419	0.34207	0.91438	0.63810	0.44492	0.33201	0.34018	0.31535	0.39504	0.38444	0.34118	0.17185	0.25956	0.35746
41520	0.25673	0.27249	0.22133	0.33944	0.40039	0.34844	0.92364	0.64509	0.44984	0.33596	0.34290	0.31850	0.39250	0.38045	0.33879	0.16932	0.25428	0.35260
41690	0.25609	0.26947	0.22009	0.33523	0.39639	0.34357	0.92172	0.64075	0.44735	0.33231	0.34018	0.31541	0.39369	0.38139	0.34050	0.17110	0.25886	0.35653
41850	0.25790	0.27133	0.22124	0.33880	0.39921	0.34740	0.92336	0.64680	0.44958	0.33515	0.34311	0.31705	0.39317	0.38159	0.34037	0.16913	0.25689	0.35473
42020	0.25938	0.27337	0.22325	0.33973	0.40104	0.34978	0.93580	0.64739	0.45311	0.33802	0.34465	0.31986	0.39490	0.38215	0.34204	0.17189	0.25774	0.35540
42180	0.26014	0.27244	0.22058	0.33869	0.39991	0.34837	0.92830	0.64590	0.45150	0.33663	0.34500	0.31898	0.39598	0.37962	0.34177	0.17358	0.25642	0.35452
42350	0.25956	0.27454	0.22229	0.34189	0.40419	0.35275	0.93871	0.64729	0.45593	0.33955	0.34739	0.32164	0.39645	0.38491	0.34369	0.17307	0.26000	0.35869
42510	0.25720	0.26988	0.21981	0.33847	0.39776	0.34644	0.91828	0.64377	0.44937	0.33494	0.34362	0.31683	0.39288	0.38136	0.33900	0.16914	0.25542	0.35477	28.51	6.1	0.00	7.50	0.01267	0.01286	0.01640	0.00760	0.00566	0.00621	0.00465	0.01261	0.01677	0.00661	0.00681	0.00862	0.01484	0.01091	0.01192	0.00210	0.00599	0.00844
42670	0.25530	0.27035	0.21888	0.33711	0.39785	0.34723	0.93393	0.64481	0.44976	0.33651	0.34490	0.31869	0.39273	0.37995	0.33877	0.17119	0.25649	0.35541
42840	0.25482	0.26857	0.22433	0.33835	0.40077	0.35100	0.92623	0.65051	0.45317	0.33937	0.34778	0.32057	0.39875	0.38507	0.34094	0.17462	0.26041	0.35864
43000	0.25645	0.27212	0.21846	0.33951	0.39933	0.34863	0.92061	0.64592	0.45070	0.33797	0.34541	0.31882	0.39368	0.38113	0.33846	0.16922	0.25719	0.35585
43160	0.25583	0.27182	0.22094	0.33892	0.40182	0.35043	0.92423	0.64904	0.45309	0.33956	0.34796	0.32134	0.39442	0.38356	0.34126	0.17525	0.26085	0.36008
43330	0.25654	0.26844	0.21995	0.34072	0.40094	0.34984	0.92322	0.64228	0.44966	0.33706	0.34506	0.31941	0.39265	0.37909	0.33548	0.17064	0.25699	0.35646
43490	0.25492	0.27229	0.22051	0.33951	0.40104	0.35196	0.93145	0.64724	0.45391	0.34073	0.34794	0.32192	0.39611	0.38214	0.34034	0.17620	0.26181	0.36040
43650	0.25713	0.27143	0.22002	0.34191	0.40151	0.35089	0.91823	0.64482	0.44933	0.33862	0.34641	0.31995	0.39212	0.38297	0.33978	0.17036	0.25773	0.35683
43820	0.25776	0.27095	0.22273	0.34239	0.40360	0.35224	0.92319	0.64611	0.45386	0.34054	0.34837	0.32154	0.39572	0.38470	0.34213	0.17379	0.26122	0.35999
43980	0.25579	0.27051	0.21965	0.34157	0.40067	0.34937	0.91550	0.64467	0.44889	0.33770	0.34579	0.31895	0.39192	0.37973	0.33899	0.17072	0.25799	0.35631
44140	0.25587	0.27240	0.22005	0.34064	0.40139	0.34987	0.92064	0.64521	0.45083	0.33942	0.34779	0.32055	0.39378	0.38313	0.33964	0.17551	0.25997	0.35831	28.51	6.1	0.00	7.43	0.01267	0.01286	0.01640	0.00760	0.00566	0.00621	0.00465	0.01260	0.01677	0.00661	0.00681	0.00862	0.01484	0.01091	0.01192	0.00210	0.00599	0.00844
44310	0.25407	0.26977	0.21996	0.33885	0.39857	0.34777	0.91801	0.64350	0.44643	0.33590	0.34458	0.31799	0.38994	0.37855	0.33691	0.17011	0.25566	0.35455
44470	0.25545	0.27123	0.22052	0.34043	0.40064	0.34954	0.92350	0.64526	0.44905	0.33814	0.34697	0.31993	0.39456	0.38010	0.33834	0.17189	0.25886	0.35698
44630	0.25530	0.26975	0.21819	0.33855	0.39776	0.34731	0.92024	0.64240	0.44720	0.33671	0.34494	0.31863	0.39063	0.38013	0.33745	0.16881	0.25726	0.35472
44800	0.25627	0.27171	0.22138	0.34028	0.40142	0.34964	0.92545	0.64484	0.44969	0.33886	0.34696	0.32066	0.39542	0.38475	0.34110	0.17236	0.25901	0.35788
44960	0.25779	0.27066	0.22169	0.33991	0.39973	0.34924	0.91993	0.64216	0.44934	0.33793	0.34664	0.32011	0.39439	0.38108	0.33950	0.17224	0.25859	0.35622
45120	0.25806	0.27194	0.22232	0.34098	0.40267	0.35160	0.92900	0.64766	0.45243	0.34018	0.34869	0.32224	0.39763	0.38434	0.34230	0.17445	0.26221	0.36059
45290	0.25689	0.27312	0.21918	0.34244	0.40407	0.35023	0.92120	0.64445	0.45031	0.33824	0.34726	0.32074	0.39255	0.38245	0.34118	0.17271	0.26055	0.35882
45450	0.25800	0.27363	0.22306	0.34361	0.40469	0.35318	0.93090	0.64930	0.45187	0.34144	0.35071	0.32215	0.39682	0.38464	0.34123	0.17895	0.26457	0.36167
45610	0.25608	0.27095	0.22155	0.34237	0.40230	0.35094	0.92282	0.64309	0.44985	0.33933	0.34760	0.32059	0.39546	0.38099	0.33932	0.17121	0.25934	0.35815
45780	0.25840	0.27345	0.22019	0.34221	0.40349	0.35063	0.92572	0.64625	0.45066	0.33992	0.34868	0.32143	0.39611	0.38232	0.34145	0.17476	0.26280	0.36049	28.57	6.1	0.00	7.43	0.01267	0.01286	0.01640	0.00760	0.00566	0.00621	0.00465	0.01260	0.01677	0.00661	0.00681	0.00862	0.01484	0.01091	0.01192	0.00210	0.00599	0.00844
45940	0.25781	0.27018	0.22037	0.34113	0.40135	0.34857	0.92149	0.64417	0.45019	0.33837	0.34653	0.32014	0.39352	0.38116	0.33906	0.17342	0.25920	0.35791
46100	0.25401	0.26786	0.21909	0.33867	0.40082	0.34806	0.91698	0.64263	0.44835	0.33722	0.34592	0.31777	0.39815	0.38628	0.34557	0.17803	0.26517	0.36283
46270	0.25960	0.27274	0.22108	0.34483	0.40456	0.35163	0.92574	0.64616	0.45055	0.33967	0.34823	0.32146	0.39674	0.38414	0.34318	0.17819	0.26332	0.36126
46430	0.25875	0.27442	0.22338	0.34407	0.40514	0.35199	0.92417	0.64940	0.45230	0.34099	0.35019	0.32196	0.39739	0.38380	0.34314	0.17637	0.26223	0.36090
46590	0.25563	0.27186	0.22188	0.34222	0.40295	0.34825	0.91797	0.64007	0.44767	0.33717	0.34561	0.31924	0.39603	0.38527	0.34070	0.17527	0.26207	0.36093
46760	0.26000	0.27383	0.22110	0.34344	0.40440	0.35090	0.91868	0.64493	0.44969	0.34014	0.34900	0.32190	0.39499	0.38328	0.33911	0.17460	0.25996	0.35837
46920	0.25546	0.26888	0.21954	0.33948	0.40101	0.34835	0.91498	0.64406	0.44634	0.33757	0.34551	0.31904	0.39230	0.37979	0.33918	0.17168	0.25709	0.35560
47080	0.25591	0.27117	0.22390	0.33955	0.40359	0.35277	0.91984	0.65195	0.45516	0.34318	0.35147	0.32427	0.39719	0.38633	0.34393	0.17768	0.26530	0.36313
47250	0.25959	0.27216	0.22276	0.34413	0.40527	0.35114	0.92022	0.64440	0.45364	0.34074	0.34818	0.32109	0.39399	0.38344	0.34248	0.17689	0.26263	0.35958
47410	0.25682	0.27068	0.22036	0.34195	0.40312	0.34872	0.91944	0.64682	0.45148	0.33997	0.34794	0.32102	0.39625	0.38350	0.33992	0.17722	0.26164	0.35946	28.51	6.2	0.00	7.44	0.01267	0.01286	0.01640	0.00760	0.00566	0.00621	0.00465	0.01260	0.01677	0.00661	0.00681	0.00862	0.01484	0.01091	0.01192	0.00210	0.00599	0.00844
47570	0.25383	0.27068	0.21897	0.34095	0.40235	0.34740	0.91579	0.64101	0.44601	0.33673	0.34520	0.31763	0.39151	0.37974	0.33706	0.17039	0.25516	0.35396
47740	0.25696	0.27134	0.22291	0.34221	0.40495	0.35095	0.92397	0.64918	0.45291	0.34114	0.34918	0.32217	0.39678	0.38362	0.34285	0.17619	0.26098	0.35910
47900	0.25696	0.27133	0.22122	0.34113	0.40230	0.34905	0.91084	0.64121	0.44894	0.33790	0.34551	0.31882	0.39192	0.38238	0.33936	0.17103	0.25738	0.35651
48060	0.25728	0.27076	0.22025	0.34295	0.40462	0.35093	0.91470	0.64555	0.45219	0.34042	0.34878	0.32085	0.39732	0.38559	0.34007	0.17596	0.26220	0.35989
48230	0.25836	0.26995	0.21966	0.34248	0.40197	0.34833	0.91592	0.64470	0.44955	0.33756	0.34690	0.31966	0.39401	0.38088	0.33970	0.17193	0.25798	0.35563
48390	0.25460	0.27286	0.21870	0.34187	0.40258	0.35023	0.92766	0.64686	0.45050	0.34023	0.34908	0.32132	0.39657	0.38141	0.34191	0.17619	0.25932	0.35821
48550	0.25349	0.27012	0.22069	0.34000	0.40166	0.34813	0.91584	0.64500	0.44828	0.33782	0.34642	0.31927	0.39228	0.38010	0.33820	0.17162	0.25742	0.35577
48720	0.25392	0.26712	0.21761	0.33789	0.39837	0.34604	0.91099	0.63990	0.44518	0.33567	0.34322	0.31721	0.39478	0.38362	0.34003	0.17560	0.26414	0.36142
48880	0.25816	0.27107	0.22239	0.34420	0.40415	0.35023	0.92240	0.64390	0.45025	0.34020	0.34804	0.32123	0.39546	0.38212	0.34209	0.17497	0.25973	0.35829
49040	0.25602	0.27224	0.22172	0.34115	0.40325	0.35013	0.91696	0.64343	0.44989	0.33931	0.34844	0.32041	0.39583	0.38175	0.34113	0.17512	0.26033	0.35873	28.57	6.1	0.00	7.39	0.01267	0.01286	0.01640	0.00760	0.00566	0.00621	0.00465	0.01260	0.01676	0.00661	0.00681	0.00862	0.01484	0.01091	0.01192	0.00210	0.00599	0.00844
49210	0.25433	0.27197	0.22130	0.34141	0.40207	0.34955	0.92154	0.64497	0.44993	0.34000	0.34812	0.32138	0.39432	0.38304	0.34199	0.17697	0.26136	0.35829
49370	0.25754	0.27360	0.22184	0.34286	0.40438	0.35166	0.92473	0.64911	0.45181	0.34068	0.34886	0.32260	0.39857	0.38381	0.34318	0.17816	0.26278	0.35955
49530	0.25705	0.27313	0.22267	0.34109	0.40240	0.34974	0.92169	0.64462	0.44949	0.33934	0.34742	0.32078	0.39354	0.38209	0.34108	0.17579	0.25961	0.35780
49700	0.25744	0.27318	0.22274	0.34224	0.40395	0.35099	0.92192	0.64895	0.45186	0.34015	0.34862	0.32197	0.39666	0.38319	0.34206	0.17784	0.26153	0.36017
49860	0.25512	0.26995	0.22139	0.34178	0.40231	0.34877	0.91891	0.64381	0.44949	0.33908	0.34670	0.32054	0.39634	0.38258	0.33888	0.17405	0.25853	0.35723
50020	0.25814	0.27125	0.22222	0.34221	0.40327	0.35069	0.91602	0.64586	0.45250	0.34045	0.34906	0.32193	0.39408	0.38448	0.34223	0.17729	0.26191	0.35891
50190	0.25566	0.27001	0.21903	0.33963	0.40089	0.34774	0.92318	0.64399	0.44814	0.33675	0.34572	0.31869	0.39443	0.38398	0.34267	0.17615	0.26050	0.35845
50350	0.25633	0.26902	0.22181	0.34108	0.40267	0.34916	0.92253	0.64821	0.44949	0.33919	0.34609	0.32127	0.39498	0.38312	0.34098	0.17674	0.26053	0.35766
50510	0.25516	0.27090	0.21978	0.34033	0.40019	0.34780	0.92263	0.64208	0.44666	0.33709	0.34565	0.31863	0.39584	0.38321	0.34069	0.17690	0.26061	0.35934
50680	0.25651	0.27070	0.22040	0.34084	0.40172	0.34862	0.92616	0.64201	0.44931	0.33833	0.34593	0.31912	0.39492	0.38224	0.34108	0.17492	0.25897	0.35679	28.51	6.2	0.00	7.40	0.01266	0.01286	0.01640	0.00760	0.00566	0.00620	0.00465	0.01260	0.01676	0.00661	0.00681	0.00862	0.01484	0.01091	0.01192	0.00210	0.00599	0.00844
50840	0.25567	0.26857	0.21965	0.33913	0.40018	0.34722	0.92403	0.64146	0.44721	0.33703	0.34512	0.31815	0.39649	0.38361	0.34219	0.17615	0.26169	0.35834
51000	0.25718	0.27037	0.21880	0.34063	0.40186	0.34962	0.92087	0.64632	0.44846	0.33916	0.34618	0.31939	0.39321	0.38163	0.34046	0.17618	0.25954	0.35818
51170	0.25631	0.26932	0.21853	0.33984	0.39998	0.34777	0.93013	0.64250	0.44693	0.33824	0.34544	0.31910	0.39628	0.38329	0.34410	0.17922	0.26385	0.36234
51330	0.25924	0.27266	0.22257	0.34295	0.40282	0.35065	0.92092	0.64595	0.44952	0.33989	0.34769	0.32102	0.39856	0.38610	0.34141	0.17899	0.26230	0.36066
51490	0.25671	0.27183	0.22040	0.34255	0.40428	0.35068	0.92742	0.64321	0.45259	0.34021	0.34855	0.32145	0.39464	0.38358	0.34139	0.17989	0.26360	0.36064
51660	0.25683	0.27124	0.22028	0.34253	0.40362	0.34948	0.91899	0.64643	0.44887	0.33974	0.34582	0.31977	0.39209	0.37963	0.34024	0.17674	0.25940	0.35759
51820	0.25738	0.27067	0.22159	0.34198	0.40334	0.35040	0.92398	0.64629	0.45222	0.34006	0.34740	0.32038	0.39685	0.38167	0.34100	0.17950	0.26179	0.36046
51990	0.25651	0.26902	0.22161	0.34150	0.40268	0.34981	0.92451	0.64489	0.44943	0.33962	0.34723	0.32001	0.39427	0.38296	0.33927	0.17618	0.25995	0.35790
52150	0.25705	0.27364	0.22110	0.34238	0.40446	0.35204	0.92378	0.64858	0.45260	0.34166	0.34932	0.32212	0.39934	0.38545	0.34294	0.18222	0.26348	0.36056
52310	0.25441	0.27161	0.21995	0.33848	0.39950	0.34650	0.91768	0.63992	0.44688	0.33768	0.34472	0.31840	0.39302	0.38273	0.33824	0.17469	0.26029	0.35726	28.57	6.0	0.00	7.43	0.01266	0.01285	0.01640	0.00760	0.00566	0.00620	0.00465	0.01260	0.01676	0.00661	0.00681	0.00862	0.01484	0.01090	0.01192	0.00210	0.00599	0.00844
52480	0.25750	0.27272	0.22455	0.34274	0.40372	0.35036	0.92386	0.64942	0.45281	0.34100	0.34862	0.32091	0.39786	0.38388	0.34077	0.17911	0.26296	0.36038
52640	0.25814	0.27080	0.22033	0.34197	0.40247	0.34903	0.91740	0.64360	0.45057	0.33908	0.34624	0.31978	0.39459	0.38217	0.34192	0.17402	0.26124	0.35887
52800	0.25763	0.27412	0.22318	0.34479	0.40760	0.35445	0.92981	0.64922	0.45277	0.34402	0.35075	0.32374	0.39731	0.38924	0.34372	0.18507	0.26787	0.36452
52970	0.26050	0.27092	0.22181	0.34356	0.40462	0.35050	0.91920	0.64311	0.45181	0.34137	0.34742	0.32111	0.39437	0.38348	0.34114	0.18191	0.26549	0.36267
53130	0.25776	0.27027	0.22355	0.34648	0.40799	0.35383	0.92290	0.64841	0.45317	0.34386	0.34941	0.32369	0.39630	0.38414	0.34280	0.18282	0.26833	0.36566
53290	0.25566	0.26849	0.22025	0.34648	0.40751	0.35422	0.92133	0.64576	0.45201	0.34402	0.35109	0.32437	0.39664	0.38591	0.34319	0.18555	0.26803	0.36551
53450	0.25635	0.26963	0.22008	0.34647	0.40651	0.35241	0.92100	0.64299	0.44974	0.34114	0.34798	0.32170	0.39525	0.38619	0.34150	0.18472	0.27009	0.36775
53620	0.25961	0.27061	0.22134	0.34858	0.40915	0.35558	0.92581	0.64604	0.45097	0.34381	0.34957	0.32314	0.39497	0.38216	0.34165	0.18373	0.26847	0.36537
53780	0.25735	0.27125	0.21998	0.34561	0.40666	0.35187	0.92343	0.64509	0.44821	0.34149	0.34930	0.32165	0.39415	0.38114	0.34041	0.18021	0.26333	0.36086
53940	0.25726	0.27250	0.22331	0.34505	0.40726	0.35438	0.92899	0.64908	0.45442	0.34255	0.34933	0.32270	0.39615	0.38493	0.34349	0.17894	0.26506	0.36172	28.51	6.2	0.00	7.37	0.01266	0.01285	0.01640	0.00760	0.00566	0.00620	0.00465	0.01260	0.01676	0.00661	0.00680	0.00862	0.01484	0.01090	0.01192	0.00210	0.00599	0.00843
54110	0.25494	0.27092	0.22226	0.34283	0.40396	0.34901	0.91785	0.64350	0.44896	0.33802	0.34543	0.31990	0.39429	0.38467	0.34355	0.18278	0.26743	0.36355
54270	0.25926	0.27240	0.22345	0.34517	0.40613	0.35363	0.92742	0.65036	0.45515	0.34270	0.34996	0.32359	0.39467	0.38589	0.34348	0.18238	0.26704	0.36310
54430	0.25565	0.27062	0.22078	0.34364	0.40439	0.35009	0.92435	0.64700	0.45005	0.33997	0.34674	0.32087	0.39513	0.38187	0.33983	0.18033	0.26490	0.36092
54590	0.25579	0.26996	0.22222	0.34354	0.40422	0.35060	0.91572	0.64398	0.44943	0.34030	0.34613	0.32004	0.39073	0.38152	0.33692	0.17527	0.26021	0.35672
54760	0.25491	0.26938	0.21776	0.33926	0.40089	0.34722	0.92106	0.64288	0.44697	0.33773	0.34512	0.32008	0.39285	0.38254	0.33842	0.17764	0.26392	0.36048
54920	0.25685	0.26821	0.21756	0.34125	0.40154	0.34733	0.91580	0.64086	0.44600	0.33651	0.34493	0.31865	0.39389	0.38336	0.34373	0.17851	0.26789	0.36392
55080	0.25977	0.27230	0.22345	0.34596	0.40639	0.35100	0.92162	0.64502	0.45266	0.34122	0.34939	0.32346	0.39520	0.38469	0.34301	0.18076	0.26704	0.36315
55250	0.25909	0.27083	0.22028	0.34284	0.40268	0.34896	0.92048	0.64361	0.44808	0.33745	0.34392	0.31776	0.39319	0.38094	0.34005	0.17606	0.26142	0.35916
55410	0.25625	0.27118	0.22099	0.34172	0.40295	0.34998	0.92689	0.64401	0.45236	0.33980	0.34643	0.32059	0.39143	0.38038	0.34124	0.17397	0.26020	0.35653
55570	0.25372	0.26647	0.21704	0.33624	0.39663	0.34402	0.92199	0.63957	0.44740	0.33477	0.34318	0.31774	0.39444	0.38163	0.34212	0.17833	0.26516	0.36111	28.51	6.1	0.00	7.43	0.01266	0.01285	0.01639	0.00759	0.00566	0.00620	0.00465	0.01260	0.01676	0.00661	0.00680	0.00862	0.01483	0.01090	0.01192	0.00210	0.00599	0.00843
55740	0.25755	0.27155	0.21887	0.34179	0.40223	0.34881	0.92242	0.64363	0.44953	0.33969	0.34635	0.31977	0.39319	0.38109	0.34023	0.17537	0.26207	0.35830
55900	0.25457	0.26931	0.21704	0.33736	0.39891	0.34599	0.91094	0.64015	0.44657	0.33515	0.34430	0.31733	0.39286	0.38296	0.34027	0.17687	0.26419	0.36104
56070	0.25855	0.27001	0.22218	0.34187	0.40309	0.34922	0.92106	0.64262	0.44850	0.33886	0.34552	0.31995	0.39190	0.38029	0.33849	0.17355	0.26023	0.35697
56230	0.25767	0.27175	0.22102	0.34155	0.40294	0.35050	0.92240	0.64570	0.45127	0.34030	0.34795	0.32151	0.39679	0.38128	0.33821	0.17758	0.26353	0.36026
56390	0.25662	0.26965	0.22086	0.34110	0.40249	0.34835	0.92349	0.64308	0.44590	0.33838	0.34624	0.31907	0.39386	0.38093	0.33736	0.17367	0.25969	0.35581
56560	0.25639	0.27324	0.22363	0.34277	0.40468	0.35244	0.92572	0.65159	0.45409	0.34296	0.35048	0.32393	0.39650	0.38749	0.34219	0.18161	0.26643	0.36290
56720	0.25696	0.27078	0.22018	0.34273	0.40259	0.34932	0.92194	0.64531	0.44864	0.33823	0.34432	0.31973	0.39202	0.37986	0.33854	0.17706	0.26281	0.35965
56880	0.25596	0.27014	0.21959	0.34013	0.40152	0.34824	0.92458	0.64452	0.44907	0.33739	0.34523	0.32058	0.39244	0.38185	0.34003	0.17663	0.26266	0.35908
57050	0.25634	0.26955	0.21879	0.34071	0.40125	0.34854	0.92719	0.64278	0.44887	0.33872	0.34585	0.31999	0.39120	0.37917	0.33744	0.17529	0.26113	0.35791
57210	0.25930	0.27239	0.22183	0.34154	0.40393	0.35090	0.91483	0.64655	0.45126	0.34116	0.34589	0.32176	0.39566	0.38385	0.34085	0.17860	0.26355	0.36109	28.57	6.2	0.00	7.40	0.01266	0.01285	0.01639	0.00759	0.00566	0.00620	0.00465	0.01260	0.01676	0.00661	0.00680	0.00862	0.01483	0.01090	0.01192	0.00210	0.00599	0.00843
57370	0.25985	0.26857	0.22057	0.34186	0.40276	0.34966	0.91412	0.64641	0.44850	0.33964	0.34454	0.32039	0.39350	0.37931	0.33488	0.17323	0.26046	0.35701
57540	0.25545	0.26962	0.22075	0.34271	0.40460	0.35174	0.92238	0.64813	0.45299	0.34107	0.34652	0.32213	0.39682	0.38544	0.34064	0.17781	0.26323	0.35986
57700	0.25725	0.26923	0.22136	0.34142	0.40341	0.35013	0.91833	0.64463	0.45034	0.33885	0.34465	0.31970	0.39138	0.38091	0.33795	0.17414	0.25876	0.35684
57860	0.25205	0.26710	0.21939	0.33792	0.39989	0.34633	0.91139	0.64156	0.44548	0.33697	0.34177	0.31775	0.39453	0.38438	0.34466	0.17967	0.26470	0.36282
58030	0.25761	0.27085	0.22157	0.34359	0.40448	0.35154	0.92645	0.64744	0.45008	0.34126	0.34685	0.32196	0.39419	0.38200	0.34322	0.17825	0.26377	0.36017
58190	0.25451	0.26968	0.22096	0.34146	0.40287	0.35026	0.92503	0.64344	0.44874	0.34012	0.34604	0.32099	0.39260	0.37931	0.33623	0.17667	0.26081	0.35679
58350	0.25458	0.26735	0.21778	0.33781	0.39998	0.34711	0.91405	0.64006	0.44516	0.33722	0.34259	0.31818	0.38981	0.38096	0.34040	0.17663	0.26094	0.35828
58520	0.25477	0.26893	0.21854	0.33917	0.40082	0.34781	0.92172	0.64338	0.44778	0.33847	0.34434	0.31950	0.39006	0.38064	0.33781	0.17442	0.26088	0.35688
58680	0.25573	0.26856	0.21938	0.33906	0.39888	0.34651	0.91359	0.64262	0.44594	0.33783	0.34322	0.31932	0.39389	0.38142	0.33960	0.17703	0.26304	0.36028
58850	0.25761	0.26952	0.22213	0.34111	0.40031	0.34984	0.92397	0.64573	0.45009	0.33872	0.34414	0.31972	0.39396	0.38061	0.34008	0.17585	0.25901	0.35567	28.57	6.3	0.00	7.45	0.01266	0.01285	0.01639	0.00759	0.00566	0.00620	0.00465	0.01260	0.01676	0.00661	0.00680	0.00862	0.01483	0.01090	0.01192	0.00210	0.00599	0.00843
59010	0.25409	0.27012	0.21898	0.33774	0.39818	0.34665	0.92169	0.63950	0.44667	0.33463	0.34346	0.31614	0.39638	0.38366	0.34019	0.17763	0.26331	0.36017
59170	0.25901	0.27358	0.22239	0.34151	0.40255	0.35113	0.92979	0.64714	0.45345	0.34038	0.34727	0.32239	0.39370	0.38396	0.33997	0.17735	0.26236	0.35840
59340	0.25834	0.27255	0.22336	0.34050	0.40173	0.35094	0.92526	0.64741	0.45033	0.33910	0.34522	0.32083	0.39442	0.38301	0.33943	0.17644	0.26142	0.35687
59500	0.25639	0.27093	0.22047	0.33758	0.39869	0.34642	0.91521	0.64369	0.44763	0.33591	0.34308	0.31741	0.39279	0.37887	0.33666	0.17154	0.25674	0.35460
59660	0.25199	0.26696	0.21892	0.33531	0.39497	0.34469	0.91526	0.63940	0.44405	0.33483	0.34197	0.31559	0.39320	0.38347	0.34281	0.17585	0.26339	0.36038
59830	0.25960	0.27175	0.22115	0.34038	0.39900	0.34785	0.92257	0.64371	0.44829	0.33737	0.34483	0.31967	0.39223	0.38180	0.33839	0.17285	0.25918	0.35555
59990	0.25628	0.27151	0.22108	0.33875	0.39923	0.34850	0.92698	0.64623	0.44929	0.33844	0.34484	0.31954	0.39182	0.38475	0.33694	0.17526	0.26096	0.35764
60150	0.25607	0.26834	0.22033	0.33846	0.39876	0.34839	0.92186	0.64581	0.44883	0.33646	0.34423	0.31892	0.39323	0.37853	0.34028	0.17111	0.25760	0.35498
60320	0.25819	0.26982	0.22264	0.33959	0.39952	0.35013	0.92619	0.64801	0.45284	0.33881	0.34630	0.32085	0.39386	0.38451	0.33977	0.17565	0.26188	0.35755
60480	0.25535	0.27016	0.21883	0.33681	0.39639	0.34546	0.91991	0.64185	0.44885	0.33527	0.34214	0.31720	0.39244	0.37862	0.33665	0.17390	0.25813	0.35469	28.51	6.0	0.00	7.50	0.01266	0.01285	0.01639	0.00759	0.00565	0.00620	0.00465	0.01260	0.01676	0.00661	0.00680	0.00861	0.01483	0.01090	0.01191	0.00210	0.00599	0.00843
60640	0.25586	0.27104	0.22003	0.33926	0.40064	0.34864	0.92216	0.64716	0.45068	0.33891	0.34543	0.32026	0.39387	0.38218	0.34132	0.17816	0.26220	0.35871
60810	0.25780	0.26990	0.21912	0.33967	0.39888	0.34828	0.91996	0.64726	0.45012	0.33714	0.34401	0.31921	0.39242	0.38040	0.33849	0.17721	0.25928	0.35650
60970	0.25862	0.27139	0.22374	0.34148	0.40217	0.35137	0.92725	0.64570	0.45316	0.34000	0.34698	0.32153	0.39702	0.38300	0.33980	0.17860	0.26498	0.35986
61130	0.25787	0.26877	0.22116	0.34001	0.39860	0.34761	0.91814	0.64546	0.44819	0.33638	0.34286	0.31808	0.38961	0.38013	0.34000	0.17488	0.25942	0.35559
61300	0.25681	0.27048	0.22245	0.34145	0.40189	0.35111	0.93057	0.64805	0.45189	0.34114	0.34650	0.32239	0.39426	0.38451	0.34164	0.18041	0.26434	0.36041
61460	0.25800	0.27036	0.22300	0.34006	0.39954	0.34837	0.92059	0.64445	0.44880	0.33861	0.34444	0.31985	0.39218	0.37917	0.33621	0.17433	0.25884	0.35462
61620	0.25479	0.27010	0.21987	0.34036	0.40133	0.34933	0.92376	0.64384	0.45283	0.33961	0.34442	0.32088	0.39051	0.38244	0.33911	0.17864	0.26165	0.35792
61790	0.25478	0.26897	0.21783	0.33808	0.39841	0.34708	0.91849	0.64074	0.44672	0.33643	0.34226	0.31798	0.39384	0.37831	0.33979	0.17583	0.26141	0.35829
61950	0.25836	0.27087	0.22005	0.33897	0.39844	0.34695	0.91991	0.64507	0.44737	0.33746	0.34319	0.31912	0.39346	0.38051	0.33706	0.17619	0.25949	0.35596
62110	0.25632	0.26989	0.21937	0.33746	0.39675	0.34436	0.91283	0.64233	0.44698	0.33587	0.34144	0.31648	0.38879	0.37798	0.34121	0.17111	0.25647	0.35348	28.57	6.3	0.00	7.43	0.01266	0.01285	0.01639	0.00759	0.00565	0.00620	0.00465	0.01260	0.01676	0.00661	0.00680	0.00861	0.01483	0.01090	0.01191	0.00210	0.00598	0.00843
62280	0.25404	0.27047	0.22090	0.33521	0.39899	0.34821	0.92853	0.64822	0.45144	0.33982	0.34525	0.32072	0.39460	0.38426	0.34004	0.17775	0.26206	0.35780
62440	0.25639	0.26948	0.21956	0.33868	0.39796	0.34554	0.91833	0.64097	0.44728	0.33660	0.34246	0.31788	0.38939	0.37828	0.33566	0.17001	0.25803	0.35458
62600	0.25400	0.27055	0.22228	0.33633	0.39895	0.34755	0.92286	0.64697	0.45160	0.33874	0.34553	0.32020	0.39290	0.38221	0.34008	0.17794	0.26197	0.35844
62770	0.25800	0.26862	0.22034	0.33878	0.39838	0.34597	0.91380	0.64285	0.44735	0.33643	0.34237	0.31789	0.39152	0.37744	0.33904	0.17099	0.25713	0.35405
62930	0.25412	0.26820	0.22123	0.33551	0.39835	0.34797	0.92610	0.64376	0.44942	0.33844	0.34412	0.31887	0.39298	0.38173	0.33888	0.17447	0.25956	0.35690
63090	0.25555	0.26986	0.21687	0.33761	0.39722	0.34446	0.91964	0.64122	0.44718	0.33668	0.34261	0.31704	0.39204	0.37717	0.33605	0.17166	0.25608	0.35308
63250	0.25581	0.27057	0.22016	0.33778	0.39828	0.34642	0.91739	0.64576	0.44872	0.33745	0.34432	0.31831	0.39290	0.38093	0.33946	0.17502	0.25916	0.35583
63420	0.25434	0.26929	0.21867	0.33760	0.39748	0.34542	0.91567	0.64200	0.44706	0.33582	0.34227	0.31738	0.38989	0.37821	0.33567	0.17261	0.25743	0.35422
63580	0.25388	0.26657	0.21759	0.33497	0.39507	0.34307	0.91757	0.63791	0.44356	0.33362	0.33983	0.31515	0.39376	0.38284	0.34272	0.17794	0.26340	0.36051
63750	0.25843	0.27201	0.22016	0.34006	0.39940	0.34743	0.92463	0.64731	0.45056	0.33734	0.34362	0.31869	0.39369	0.38010	0.33901	0.17313	0.25855	0.35611	28.57	6.0	0.00	7.39	0.01266	0.01285	0.01639	0.00759	0.00565	0.00620	0.00465	0.01260	0.01676	0.00660	0.00680	0.00861	0.01483	0.01090	0.01191	0.00210	0.00598	0.00843
63910	0.25626	0.27130	0.22142	0.33987	0.39997	0.34966	0.92493	0.64477	0.45037	0.33889	0.34558	0.31943	0.39410	0.38223	0.34012	0.17582	0.26063	0.35906
64070	0.25701	0.27181	0.21979	0.34025	0.39982	0.34769	0.92346	0.64396	0.44830	0.33684	0.34427	0.31782	0.39101	0.37737	0.33706	0.17132	0.25548	0.35330
64240	0.25692	0.27055	0.22206	0.33868	0.40041	0.34974	0.92508	0.64897	0.45299	0.34075	0.34712	0.32191	0.39622	0.38569	0.34184	0.17953	0.26326	0.36042
64400	0.25757	0.26910	0.21936	0.33888	0.39903	0.34701	0.91427	0.64234	0.44902	0.33702	0.34350	0.31865	0.39191	0.37829	0.33830	0.17483	0.25829	0.35673
64560	0.25622	0.27019	0.22252	0.34114	0.40173	0.34963	0.92437	0.64349	0.45011	0.33911	0.34681	0.32051	0.39532	0.38112	0.33875	0.17858	0.26188	0.35949
64730	0.25636	0.27198	0.22035	0.34141	0.40209	0.34935	0.92354	0.64265	0.44982	0.33842	0.34626	0.31943	0.39296	0.38033	0.34079	0.17684	0.26067	0.35743
64890	0.25648	0.26723	0.21924	0.33822	0.39865	0.34671	0.91485	0.64127	0.44814	0.33609	0.34366	0.31760	0.39524	0.38371	0.34253	0.18008	0.26489	0.36137
65050	0.25761	0.26993	0.22001	0.33793	0.39552	0.34710	0.92397	0.64443	0.44965	0.33981	0.34554	0.31910	0.39212	0.38122	0.34015	0.17424	0.25941	0.35722
65220	0.25685	0.27015	0.22194	0.34051	0.40004	0.34933	0.92103	0.64261	0.45132	0.33834	0.34609	0.32016	0.39370	0.38159	0.33920	0.17728	0.26173	0.35800
65380	0.25544	0.27008	0.22072	0.33965	0.39933	0.34805	0.92374	0.64162	0.44716	0.33634	0.34455	0.31823	0.39215	0.38035	0.33838	0.17339	0.25929	0.35646	28.57	6.0	0.00	7.41	0.01266	0.01285	0.01639	0.00759	0.00565	0.00620	0.00465	0.01260	0.01676	0.00660	0.00680	0.00861	0.01483	0.01090	0.01191	0.00210	0.00598	0.00843
65540	0.25924	0.27139	0.22181	0.34090	0.40117	0.34977	0.91905	0.64627	0.45235	0.33910	0.34673	0.32008	0.39756	0.38374	0.33988	0.17837	0.26277	0.35942
65710	0.25827	0.27100	0.22049	0.33931	0.40026	0.34774	0.92558	0.64228	0.44906	0.33645	0.34363	0.31770	0.39532	0.38549	0.34016	0.17936	0.26369	0.36230
65870	0.25841	0.27375	0.22214	0.34312	0.40335	0.35128	0.92862	0.64889	0.45445	0.34020	0.34754	0.32127	0.39470	0.38572	0.34320	0.17944	0.26350	0.36097
66030	0.25531	0.27009	0.21961	0.34025	0.39996	0.34765	0.92619	0.64351	0.45013	0.33709	0.34422	0.31846	0.39601	0.38651	0.34279	0.17762	0.26276	0.36076
66200	0.25539	0.27247	0.22341	0.34160	0.40257	0.34955	0.92510	0.64520	0.45257	0.33728	0.34566	0.31884	0.39357	0.38383	0.33933	0.17564	0.26091	0.35810
66360	0.25661	0.26959	0.22041	0.33877	0.39886	0.34619	0.92039	0.64009	0.44829	0.33533	0.34346	0.31746	0.39002	0.37789	0.33780	0.17193	0.25723	0.35480
66520	0.25540	0.26977	0.21940	0.33682	0.40003	0.34954	0.92900	0.64583	0.45069	0.33897	0.34626	0.32055	0.39511	0.38250	0.34254	0.17924	0.26230	0.35972
66690	0.25646	0.26977	0.22040	0.33886	0.40040	0.34724	0.91862	0.64500	0.44899	0.33732	0.34378	0.31778	0.39010	0.37924	0.33683	0.17355	0.25833	0.35613
66850	0.25409	0.27031	0.21982	0.33850	0.39936	0.34941	0.92890	0.64558	0.44954	0.33812	0.34619	0.31967	0.39671	0.38248	0.34070	0.17734	0.26090	0.35815
67010	0.25633	0.26938	0.22007	0.34012	0.39874	0.34831	0.91907	0.64464	0.44755	0.33714	0.34477	0.31802	0.39226	0.38100	0.34082	0.17590	0.25804	0.35604	28.57	6.0	0.00	7.42	0.01266	0.01285	0.01639	0.00759	0.00565	0.00620	0.00465	0.01260	0.01676	0.00660	0.00680	0.00861	0.01483	0.01090	0.01191	0.00210	0.00598	0.00843
67180	0.25557	0.27343	0.22206	0.34016	0.40097	0.35029	0.92702	0.64868	0.45187	0.33950	0.34708	0.32060	0.39435	0.38359	0.34261	0.17724	0.26200	0.35936
67340	0.25737	0.27027	0.22113	0.33899	0.39871	0.34776	0.91864	0.64496	0.44802	0.33725	0.34467	0.31842	0.39283	0.37950	0.33856	0.17420	0.25709	0.35571
67500	0.25689	0.27242	0.22117	0.33968	0.40073	0.35015	0.92457	0.64679	0.45132	0.34010	0.34640	0.32108	0.39599	0.38341	0.33986	0.17874	0.26192	0.35900
67670	0.25634	0.27071	0.21971	0.33827	0.39885	0.34766	0.91899	0.64318	0.44713	0.33736	0.34450	0.31795	0.39127	0.37933	0.34101	0.17139	0.25689	0.35483
67830	0.25610	0.27174	0.22308	0.34061	0.40153	0.35049	0.92857	0.64664	0.45049	0.33975	0.34670	0.32109	0.39768	0.38625	0.33885	0.17843	0.26222	0.35909
67990	0.25607	0.26926	0.21808	0.33976	0.39879	0.34776	0.91700	0.64255	0.44689	0.33796	0.34451	0.31805	0.39250	0.38105	0.34002	0.17349	0.25810	0.35526
68160	0.25800	0.27310	0.22199	0.34146	0.40259	0.35052	0.93179	0.64902	0.45254	0.34090	0.34673	0.32110	0.39496	0.38608	0.34151	0.17736	0.26166	0.35880
68320	0.25715	0.27108	0.21983	0.33950	0.39882	0.34731	0.92231	0.64174	0.44759	0.33745	0.34394	0.31737	0.39017	0.38005	0.33975	0.17278	0.25665	0.35536
68480	0.25578	0.27220	0.22032	0.33940	0.40040	0.34917	0.92533	0.64540	0.45009	0.33926	0.34556	0.31888	0.39341	0.38275	0.33997	0.17633	0.25924	0.35788
68650	0.25521	0.26842	0.21886	0.33903	0.39821	0.34699	0.92483	0.64408	0.45056	0.33781	0.34492	0.31756	0.39168	0.37860	0.33871	0.17175	0.25714	0.35580	28.51	6.2	0.00	7.41	0.01266	0.01285	0.01639	0.00759	0.00565	0.00620	0.00465	0.01260	0.01676	0.00660	0.00680	0.00861	0.01483	0.01090	0.01191	0.00210	0.00598	0.00843
68810	0.25590	0.27067	0.21885	0.33521	0.39409	0.34299	0.92032	0.63760	0.44486	0.33420	0.34129	0.31586	0.39328	0.38188	0.33867	0.17546	0.26140	0.35855
68970	0.25617	0.26939	0.22098	0.33748	0.39628	0.34427	0.92316	0.64488	0.44639	0.33606	0.34459	0.31678	0.38983	0.37875	0.33842	0.16879	0.25432	0.35299
69140	0.25557	0.27082	0.22072	0.33676	0.39896	0.34801	0.92326	0.64511	0.45184	0.33968	0.34804	0.32114	0.39448	0.38229	0.34167	0.17574	0.26100	0.35781
69300	0.25791	0.26977	0.22020	0.33743	0.39685	0.34578	0.92455	0.64090	0.44766	0.33657	0.34360	0.31680	0.39262	0.37896	0.33645	0.17120	0.25663	0.35358
69460	0.25699	0.27162	0.22180	0.34237	0.40200	0.35104	0.92503	0.64615	0.45008	0.34056	0.34823	0.32049	0.39548	0.38510	0.34366	0.17870	0.26117	0.35883
69630	0.25580	0.26879	0.21945	0.33912	0.39892	0.34808	0.91306	0.64217	0.44929	0.33753	0.34524	0.31815	0.39556	0.38336	0.34117	0.17866	0.26311	0.35991
69790	0.25887	0.27176	0.22247	0.34191	0.40305	0.35069	0.92927	0.64842	0.45225	0.34072	0.34847	0.32093	0.39465	0.38251	0.33988	0.17649	0.25913	0.35934
69950	0.25646	0.27138	0.21952	0.33917	0.39920	0.34828	0.91870	0.64480	0.44968	0.33712	0.34504	0.31820	0.39253	0.38172	0.33595	0.17325	0.25730	0.35493
70110	0.25524	0.26830	0.22306	0.33823	0.40141	0.35070	0.93033	0.64838	0.45169	0.34003	0.34801	0.32089	0.39616	0.38473	0.34133	0.17693	0.26274	0.36022
70280	0.25610	0.26847	0.21973	0.34036	0.40027	0.34802	0.92172	0.64375	0.44883	0.33798	0.34493	0.31951	0.39093	0.38350	0.34130	0.17256	0.25683	0.35500	28.57	6.3	0.00	7.80	0.01266	0.01285	0.01639	0.00759	0.00565	0.00620	0.00465	0.01260	0.01676	0.00660	0.00680	0.00861	0.01483	0.01090	0.01191	0.00210	0.00598	0.00843
70440	0.25395	0.27030	0.21589	0.33580	0.39521	0.34306	0.91124	0.64085	0.44556	0.33547	0.34323	0.31648	0.39384	0.38425	0.34168	0.17595	0.26106	0.35946
70600	0.25930	0.27118	0.22324	0.34124	0.40109	0.34963	0.91911	0.64484	0.44977	0.33929	0.34655	0.32052	0.39174	0.38246	0.33664	0.17599	0.25744	0.35575
70770	0.25391	0.26775	0.21721	0.33617	0.39600	0.34398	0.92154	0.63818	0.44501	0.33498	0.34321	0.31607	0.39164	0.38144	0.34009	0.17441	0.25730	0.35654
70930	0.25564	0.26917	0.21936	0.33828	0.39896	0.34704	0.91805	0.64200	0.44740	0.33707	0.34420	0.31766	0.39187	0.37899	0.33776	0.17252	0.25725	0.35494
71090	0.25444	0.26643	0.21847	0.33519	0.39589	0.34448	0.92167	0.64234	0.44554	0.33605	0.34328	0.31683	0.39130	0.38093	0.33907	0.17544	0.25749	0.35655
71260	0.25557	0.27030	0.21825	0.33747	0.39824	0.34665	0.91832	0.64601	0.44823	0.33732	0.34688	0.31895	0.39189	0.38134	0.33849	0.17528	0.25800	0.35553
71420	0.25429	0.26640	0.21589	0.33608	0.39606	0.34462	0.91121	0.63928	0.44569	0.33506	0.34454	0.31696	0.39491	0.38215	0.34228	0.17445	0.26008	0.35930
71590	0.25781	0.26907	0.22039	0.33930	0.39931	0.34802	0.91797	0.64286	0.44815	0.33898	0.34687	0.31930	0.39232	0.38026	0.33916	0.17311	0.25667	0.35523
71750	0.25684	0.27091	0.22128	0.33989	0.40042	0.34962	0.92134	0.64433	0.44911	0.33947	0.34716	0.32025	0.39535	0.38394	0.34176	0.17433	0.25954	0.35769
71910	0.25632	0.26848	0.21816	0.33760	0.39719	0.34557	0.92089	0.64228	0.44548	0.33581	0.34229	0.31734	0.39164	0.38077	0.33717	0.17389	0.25895	0.35629	28.51	6.1	0.00	7.44	0.01266	0.01285	0.01639	0.00759	0.00565	0.00620	0.00465	0.01260	0.01676	0.00660	0.00680	0.00861	0.01483	0.01090	0.01191	0.00210	0.00598	0.00843
72080	0.25583	0.27052	0.22001	0.33743	0.39760	0.34666	0.91919	0.64350	0.44765	0.33799	0.34520	0.31826	0.39096	0.38210	0.33902	0.17203	0.25742	0.35556
72240	0.25579	0.26952	0.21761	0.33563	0.39701	0.34456	0.91912	0.63854	0.44678	0.33547	0.34274	0.31651	0.39397	0.38147	0.34051	0.17508	0.25999	0.35942
72410	0.25680	0.27243	0.21922	0.33892	0.39986	0.34803	0.91469	0.64487	0.44930	0.33958	0.34616	0.31944	0.39408	0.38031	0.34005	0.17350	0.25737	0.35643
72570	0.25711	0.27161	0.22410	0.33967	0.40076	0.34977	0.91922	0.64756	0.45119	0.34036	0.34726	0.32076	0.39405	0.37990	0.33849	0.17460	0.25983	0.35768
72730	0.25700	0.27052	0.22142	0.33865	0.39857	0.34667	0.92114	0.64318	0.44912	0.33894	0.34578	0.31923	0.39502	0.38037	0.34085	0.17614	0.26020	0.35766
72900	0.25713	0.26990	0.22068	0.33848	0.39883	0.34739	0.92013	0.64371	0.44934	0.33973	0.34646	0.31966	0.39297	0.38243	0.33932	0.17235	0.25909	0.35714
73060	0.25659	0.26858	0.21870	0.33674	0.39709	0.34633	0.92692	0.64002	0.44631	0.33731	0.34504	0.31788	0.39492	0.38270	0.34344	0.17772	0.26191	0.35977
73230	0.25977	0.27152	0.22166	0.33994	0.40038	0.34807	0.92142	0.64391	0.44993	0.34032	0.34715	0.32018	0.39384	0.38288	0.34481	0.17504	0.26262	0.36035
73390	0.25792	0.27310	0.22173	0.34098	0.40202	0.34984	0.91547	0.64712	0.45145	0.34089	0.34734	0.32133	0.39434	0.38308	0.34113	0.17587	0.25975	0.35816
73560	0.25538	0.27051	0.21892	0.33968	0.39941	0.34788	0.92493	0.64225	0.44986	0.33840	0.34546	0.31937	0.39272	0.38119	0.33669	0.17628	0.25945	0.35599	28.57	6.1	0.00	7.38	0.01266	0.01285	0.01639	0.00759	0.00565	0.00620	0.00465	0.01260	0.01676	0.00660	0.00680	0.00861	0.01483	0.01090	0.01191	0.00210	0.00598	0.00843
73720	0.25551	0.26998	0.21976	0.33868	0.39764	0.34665	0.92303	0.64134	0.44791	0.33771	0.34493	0.31943	0.39164	0.38073	0.33827	0.17260	0.25789	0.35490
73880	0.25337	0.26745	0.21798	0.33720	0.39669	0.34440	0.91630	0.63913	0.44674	0.33593	0.34416	0.31752	0.39604	0.38360	0.34274	0.17782	0.26331	0.36067
74050	0.25971	0.27250	0.22338	0.34222	0.40246	0.34996	0.92372	0.64455	0.45131	0.34085	0.34783	0.32190	0.39341	0.38367	0.34131	0.17920	0.26100	0.35899
74210	0.25701	0.26921	0.22315	0.33946	0.40039	0.34889	0.92129	0.64553	0.45058	0.33966	0.34671	0.32057	0.39458	0.38087	0.34016	0.17758	0.26016	0.35716
74370	0.25682	0.27076	0.22107	0.33877	0.39872	0.34677	0.92263	0.64124	0.44813	0.33793	0.34513	0.31956	0.38971	0.37750	0.33642	0.17264	0.25774	0.35507
74530	0.25294	0.26645	0.21678	0.33559	0.39644	0.34369	0.91898	0.63796	0.44420	0.33605	0.34192	0.31656	0.39276	0.38261	0.34254	0.17794	0.26297	0.35990
74700	0.25736	0.27115	0.22199	0.34153	0.40059	0.34831	0.91957	0.64219	0.44980	0.33926	0.34651	0.32002	0.39119	0.38113	0.33718	0.17462	0.25931	0.35678
74860	0.25548	0.27049	0.21797	0.33689	0.39694	0.34510	0.91708	0.64004	0.44483	0.33648	0.34391	0.31738	0.39396	0.38094	0.34402	0.17794	0.26438	0.36095
75030	0.25953	0.27154	0.22194	0.34259	0.40219	0.34937	0.92980	0.64401	0.45099	0.34036	0.34665	0.32079	0.39083	0.37911	0.33936	0.17628	0.25938	0.35650
75190	0.25576	0.27087	0.22268	0.34005	0.39852	0.34856	0.92641	0.64165	0.44930	0.33945	0.34498	0.32010	0.38971	0.38009	0.33907	0.17535	0.26013	0.35702	28.57	6.1	0.00	7.52	0.01266	0.01285	0.01639	0.00759	0.00565	0.00620	0.00465	0.01260	0.01676	0.00660	0.00680	0.00861	0.01483	0.01090	0.01191	0.00210	0.00598	0.00843
75350	0.25468	0.27002	0.21711	0.33736	0.39687	0.34694	0.92264	0.63946	0.44573	0.33666	0.34377	0.31837	0.39256	0.37820	0.33721	0.17172	0.25666	0.35407
75520	0.25534	0.27124	0.21969	0.33776	0.39872	0.34820	0.92335	0.64170	0.44939	0.33871	0.34589	0.32074	0.39291	0.38059	0.33951	0.17369	0.25976	0.35659
75680	0.25667	0.26954	0.21980	0.33794	0.39764	0.34668	0.91567	0.64023	0.44742	0.33730	0.34447	0.31963	0.39016	0.37823	0.33663	0.17377	0.25749	0.35542
75840	0.25719	0.27130	0.22048	0.34034	0.40046	0.34888	0.92200	0.64375	0.44858	0.33970	0.34490	0.32045	0.39173	0.38041	0.33815	0.17713	0.26042	0.35718
76010	0.25420	0.26840	0.22164	0.33933	0.39926	0.34790	0.91940	0.64056	0.44739	0.33841	0.34518	0.32079	0.38996	0.37731	0.33826	0.17476	0.25868	0.35676
76170	0.25658	0.27219	0.22029	0.34097	0.40142	0.35074	0.92261	0.64263	0.44934	0.34087	0.34751	0.32299	0.39509	0.38264	0.34038	0.17761	0.26200	0.35966
76330	0.25545	0.26961	0.21959	0.33978	0.39901	0.34860	0.92363	0.64191	0.44681	0.33968	0.34529	0.32055	0.39274	0.37942	0.33765	0.17496	0.26015	0.35699
76500	0.25558	0.27168	0.22188	0.34138	0.40127	0.35189	0.92570	0.64647	0.45153	0.34198	0.34664	0.32302	0.39381	0.38121	0.34078	0.17859	0.26262	0.36056
76660	0.25771	0.26822	0.22103	0.34036	0.40039	0.34792	0.91775	0.64077	0.44825	0.33893	0.34449	0.32028	0.38898	0.38136	0.33698	0.17247	0.25890	0.35587
76820	0.25573	0.27173	0.22305	0.34065	0.40123	0.35091	0.91863	0.64460	0.44975	0.34226	0.34696	0.32305	0.39528	0.38022	0.34023	0.18044	0.26178	0.35895	28.57	6.2	0.00	7.39	0.01266	0.01285	0.01639	0.00759	0.00565	0.00620	0.00464	0.01260	0.01676	0.00660	0.00680	0.00861	0.01483	0.01090	0.01191	0.00210	0.00598	0.00843
76990	0.25512	0.26818	0.21854	0.33955	0.39922	0.34744	0.91939	0.64300	0.44615	0.33784	0.34329	0.31974	0.39124	0.38044	0.34031	0.17736	0.26211	0.36126
77150	0.25582	0.26890	0.22193	0.34100	0.40137	0.35038	0.92876	0.64474	0.44895	0.34121	0.34596	0.32222	0.39414	0.38064	0.33974	0.17689	0.26131	0.35894
77310	0.25522	0.26801	0.21783	0.33849	0.39823	0.34710	0.91959	0.63746	0.44653	0.33791	0.34346	0.31950	0.39187	0.38003	0.33873	0.17558	0.26149	0.36000
77480	0.25670	0.27199	0.21920	0.34030	0.39912	0.34931	0.92129	0.64202	0.44847	0.34063	0.34388	0.32080	0.39051	0.37935	0.33781	0.17357	0.26090	0.35750
77640	0.25415	0.26988	0.22025	0.33894	0.39782	0.34734	0.92010	0.64231	0.44589	0.34000	0.34420	0.32127	0.39077	0.37890	0.33772	0.17404	0.25864	0.35645
77800	0.25344	0.26895	0.22034	0.33798	0.40140	0.35273	0.92195	0.64773	0.45418	0.34396	0.34800	0.32481	0.39505	0.38604	0.34198	0.18123	0.26555	0.36207
77970	0.25505	0.26857	0.22090	0.34108	0.39943	0.34981	0.91721	0.63963	0.44705	0.34062	0.34433	0.32089	0.39237	0.38069	0.33965	0.17610	0.26065	0.35881
78130	0.25371	0.26807	0.21992	0.33924	0.39810	0.34807	0.92392	0.64070	0.44811	0.33948	0.34454	0.32005	0.38889	0.37750	0.33564	0.17384	0.25771	0.35568
78290	0.25257	0.26692	0.21860	0.33628	0.39574	0.34580	0.91491	0.63654	0.44508	0.33782	0.34173	0.31920	0.39038	0.38039	0.34024	0.17499	0.25993	0.35770
78460	0.25514	0.26791	0.21838	0.34005	0.39842	0.34808	0.92160	0.63968	0.44657	0.33889	0.34433	0.32003	0.39224	0.38061	0.33822	0.17674	0.25944	0.35688	28.51	6.2	0.00	6.67	0.01266	0.01285	0.01639	0.00759	0.00565	0.00620	0.00465	0.01260	0.01676	0.00660	0.00680	0.00861	0.01483	0.01090	0.01191	0.00210	0.00598	0.00843
78620	0.25322	0.26634	0.21642	0.33685	0.39616	0.34614	0.90449	0.63845	0.44443	0.33724	0.34115	0.31858	0.39244	0.38146	0.34071	0.17943	0.26059	0.35978
78790	0.25644	0.27071	0.22019	0.33969	0.39921	0.34915	0.91421	0.63946	0.44638	0.33988	0.34490	0.32105	0.39126	0.38135	0.33904	0.17682	0.25915	0.35620
78950	0.25431	0.27020	0.22107	0.33952	0.39901	0.34979	0.92152	0.64106	0.44721	0.34060	0.34449	0.32152	0.39334	0.38117	0.34012	0.17741	0.25861	0.35765
79110	0.25470	0.26738	0.21779	0.33760	0.39688	0.34784	0.92390	0.64069	0.44537	0.33923	0.34353	0.31962	0.39393	0.37991	0.33996	0.17777	0.25919	0.35786
79280	0.25359	0.26894	0.21811	0.33846	0.39814	0.34843	0.92119	0.64207	0.44491	0.34008	0.34481	0.32032	0.39136	0.37939	0.33706	0.17753	0.25912	0.35713
79440	0.25473	0.26561	0.21704	0.33678	0.39620	0.34621	0.92162	0.63894	0.44358	0.33807	0.34246	0.31807	0.39236	0.38312	0.33910	0.17975	0.26258	0.36114
79610	0.25764	0.26951	0.22089	0.34109	0.40039	0.35108	0.92071	0.64174	0.44681	0.34193	0.34591	0.32085	0.39106	0.38098	0.33835	0.17666	0.25989	0.35741
79770	0.25455	0.26915	0.22127	0.34099	0.40065	0.35140	0.92084	0.64313	0.44987	0.34233	0.34637	0.32209	0.39514	0.38336	0.33882	0.17986	0.26075	0.35915
79930	0.25279	0.26738	0.21894	0.33878	0.39824	0.34817	0.92626	0.63631	0.44453	0.33942	0.34276	0.31946	0.39103	0.37823	0.33513	0.17358	0.25507	0.35439
80100	0.25745	0.26977	0.22073	0.34169	0.40270	0.35193	0.92088	0.64510	0.45145	0.34234	0.34713	0.32291	0.39405	0.38281	0.34135	0.18109	0.26219	0.36016	28.57	6.2	0.00	6.88	0.01266	0.01285	0.01639	0.00759	0.00565	0.00620	0.00465	0.01260	0.01676	0.00660	0.00680	0.00861	0.01483	0.01090	0.01191	0.00210	0.00598	0.00843
80260	0.25432	0.26642	0.21931	0.34054	0.40058	0.34844	0.91827	0.63960	0.44599	0.33860	0.34406	0.32067	0.38829	0.37715	0.33796	0.17836	0.25846	0.35601
80420	0.25226	0.26364	0.21641	0.33666	0.39670	0.34538	0.91602	0.63606	0.44191	0.33624	0.34094	0.31760	0.38963	0.37981	0.34050	0.18038	0.26146	0.35980
80590	0.25443	0.26891	0.21766	0.34052	0.39971	0.34907	0.92093	0.64137	0.44609	0.33816	0.34368	0.32031	0.38828	0.37750	0.33808	0.17627	0.25804	0.35598
80750	0.25220	0.26604	0.21726	0.33671	0.39657	0.34480	0.92189	0.63803	0.44310	0.33704	0.34028	0.31757	0.38854	0.38054	0.33567	0.17706	0.25732	0.35597
80910	0.25283	0.26739	0.21821	0.33773	0.39954	0.34761	0.92004	0.63751	0.44379	0.33736	0.34355	0.31950	0.38647	0.37742	0.33500	0.17556	0.25729	0.35463
81080	0.25137	0.26674	0.21981	0.33699	0.40021	0.35072	0.92549	0.64410	0.45012	0.34120	0.34587	0.32247	0.39389	0.38071	0.33886	0.18034	0.26128	0.35851
81240	0.25628	0.26847	0.21858	0.33860	0.39841	0.34747	0.92075	0.63763	0.44373	0.33779	0.34302	0.31921	0.39020	0.38167	0.33993	0.17998	0.26121	0.35915
81400	0.25517	0.26921	0.22055	0.34062	0.40146	0.34852	0.91338	0.64012	0.44751	0.33910	0.34406	0.32074	0.38925	0.37652	0.33793	0.17797	0.25834	0.35608
81570	0.25167	0.26683	0.21641	0.33761	0.39783	0.34615	0.91784	0.63589	0.44357	0.33757	0.34296	0.31852	0.39146	0.38219	0.34141	0.18105	0.26313	0.36128
81730	0.25664	0.27085	0.22049	0.34305	0.40215	0.35129	0.91781	0.64212	0.44989	0.34045	0.34456	0.32110	0.39258	0.38275	0.33773	0.18008	0.26115	0.35773	28.57	6.1	0.00	7.40	0.01266	0.01285	0.01639	0.00759	0.00565	0.00620	0.00465	0.01260	0.01676	0.00660	0.00680	0.00861	0.01483	0.01090	0.01191	0.00210	0.00598	0.00843
81890	0.25432	0.26932	0.21835	0.33995	0.40098	0.34979	0.91528	0.64289	0.44763	0.33858	0.34315	0.32044	0.38927	0.37953	0.33732	0.17948	0.25937	0.35623
82060	0.25282	0.26782	0.21769	0.33709	0.39963	0.34787	0.92292	0.64132	0.44668	0.33816	0.34257	0.31920	0.38939	0.37595	0.33730	0.17660	0.25804	0.35552
82220	0.25340	0.26923	0.21909	0.33880	0.40057	0.34852	0.91776	0.64195	0.44603	0.33937	0.34327	0.32038	0.39143	0.37948	0.33707	0.17707	0.25892	0.35604
82390	0.25294	0.26762	0.21620	0.33829	0.39870	0.34696	0.91174	0.63780	0.44283	0.33867	0.34163	0.31927	0.38955	0.37466	0.33511	0.17478	0.25724	0.35495
82550	0.25552	0.26750	0.22004	0.33885	0.39961	0.34906	0.91465	0.64088	0.44594	0.33958	0.34466	0.32120	0.39089	0.37707	0.33661	0.17980	0.25981	0.35619
82710	0.25443	0.26845	0.21929	0.33819	0.39947	0.34805	0.91900	0.63916	0.44586	0.33826	0.34271	0.32037	0.39215	0.37825	0.33773	0.17688	0.25870	0.35564
82880	0.25512	0.26915	0.22183	0.34123	0.40125	0.35072	0.92059	0.64532	0.44872	0.34117	0.34531	0.32205	0.39296	0.38150	0.33989	0.18059	0.26219	0.35835
83040	0.25284	0.26906	0.21951	0.33895	0.39913	0.34664	0.91338	0.63939	0.44482	0.33799	0.34246	0.31903	0.38807	0.37751	0.33611	0.17364	0.25726	0.35464
83200	0.25412	0.26917	0.22123	0.34067	0.40207	0.35111	0.91794	0.64166	0.44930	0.34089	0.34556	0.32183	0.39217	0.37923	0.33661	0.18075	0.26153	0.35869
83370	0.25461	0.26710	0.21943	0.33926	0.39926	0.34721	0.91412	0.63990	0.44517	0.33886	0.34264	0.31902	0.38950	0.37767	0.33784	0.17598	0.25777	0.35569	28.57	6.0	0.00	7.44	0.01266	0.01285	0.01639	0.00759	0.00565	0.00620	0.00465	0.01260	0.01676	0.00660	0.00680	0.00861	0.01483	0.01090	0.01191	0.00210	0.00598	0.00843
83530	0.25588	0.26980	0.22158	0.34112	0.40220	0.35082	0.92065	0.64291	0.45026	0.34149	0.34628	0.32237	0.39018	0.38195	0.34100	0.17819	0.26146	0.35962
83690	0.25479	0.26701	0.21792	0.33923	0.39884	0.34678	0.91523	0.64038	0.44612	0.33886	0.34390	0.31996	0.38947	0.37738	0.33404	0.17491	0.25775	0.35522
83860	0.25362	0.27056	0.22149	0.34052	0.40130	0.34927	0.91865	0.64396	0.44784	0.34156	0.34576	0.32224	0.39217	0.38182	0.33925	0.17993	0.26146	0.35845
84020	0.25496	0.26716	0.21870	0.33955	0.39986	0.34742	0.90966	0.63718	0.44523	0.33894	0.34315	0.31980	0.38919	0.37859	0.33694	0.17444	0.25713	0.35548
84180	0.25100	0.26511	0.21536	0.33609	0.39681	0.34537	0.91695	0.63594	0.44302	0.33756	0.34213	0.31807	0.39328	0.37999	0.33876	0.17752	0.26159	0.36006
84350	0.25308	0.26996	0.21784	0.34046	0.40102	0.34871	0.91576	0.64015	0.44729	0.33961	0.34402	0.31994	0.39359	0.38060	0.33871	0.17819	0.26094	0.35934
84510	0.25439	0.26922	0.21913	0.34095	0.40019	0.34858	0.92060	0.64175	0.44628	0.34079	0.34530	0.32175	0.39276	0.37922	0.33826	0.17736	0.26047	0.35824
84670	0.25413	0.26746	0.21906	0.33884	0.39989	0.34693	0.91369	0.64010	0.44547	0.33840	0.34314	0.31872	0.39128	0.38227	0.34003	0.18020	0.26258	0.36038
84840	0.25737	0.26956	0.21884	0.34264	0.40102	0.34954	0.91569	0.63973	0.44763	0.34045	0.34554	0.32178	0.39190	0.37787	0.33654	0.17878	0.26008	0.35834
85000	0.25577	0.26858	0.21650	0.33954	0.39984	0.34697	0.91107	0.64040	0.44599	0.33820	0.34328	0.31869	0.39331	0.38219	0.34257	0.17926	0.26324	0.36141	28.57	6.1	0.00	7.37	0.01266	0.01285	0.01639	0.00759	0.00565	0.00620	0.00465	0.01260	0.01676	0.00660	0.00680	0.00861	0.01483	0.01090	0.01191	0.00210	0.00598	0.00843
85160	0.25590	0.27198	0.21918	0.34201	0.40266	0.35052	0.92616	0.64383	0.44832	0.34101	0.34584	0.32107	0.38982	0.38146	0.33870	0.17708	0.25973	0.35726
85330	0.25411	0.26745	0.21757	0.33772	0.39827	0.34671	0.91608	0.63964	0.44460	0.33798	0.34376	0.31808	0.39250	0.38238	0.34154	0.18024	0.26245	0.36037
85490	0.25637	0.26891	0.22115	0.34227	0.40213	0.34977	0.92152	0.64531	0.44813	0.34110	0.34702	0.32110	0.39458	0.38204	0.33818	0.17843	0.25966	0.35727
85650	0.25420	0.26759	0.21770	0.33880	0.39972	0.34635	0.91540	0.63830	0.44366	0.33690	0.34413	0.31916	0.39380	0.38063	0.33992	0.17989	0.26220	0.36033
85820	0.25545	0.26825	0.21946	0.34243	0.40215	0.34847	0.91952	0.64194	0.44914	0.34018	0.34643	0.32112	0.39214	0.38060	0.33839	0.17621	0.25943	0.35637
85980	0.25257	0.26595	0.21702	0.33835	0.39901	0.34562	0.91034	0.64090	0.44337	0.33614	0.34274	0.31827	0.39023	0.38225	0.34042	0.17941	0.26187	0.35884
86140	0.25496	0.26896	0.21840	0.34161	0.40138	0.34881	0.92618	0.64194	0.44885	0.34041	0.34584	0.32114	0.38976	0.37829	0.33836	0.17977	0.26000	0.35732
86310	0.25399	0.26801	0.21768	0.33853	0.39985	0.34642	0.91537	0.63681	0.44473	0.33781	0.34387	0.31923	0.39539	0.38008	0.34172	0.17839	0.26281	0.36096
86470	0.25658	0.26934	0.21832	0.34289	0.40270	0.34997	0.92193	0.64212	0.44749	0.34042	0.34596	0.32161	0.39226	0.38100	0.33843	0.17645	0.25937	0.35670
86640	0.25461	0.26911	0.22128	0.34191	0.40391	0.35111	0.91754	0.64481	0.44987	0.34109	0.34697	0.32233	0.39236	0.37930	0.34094	0.17895	0.26271	0.35878	28.57	6.1	0.00	7.39	0.01266	0.01285	0.01639	0.00759	0.00565	0.00620	0.00465	0.01260	0.01676	0.00660	0.00680	0.00861	0.01483	0.01090	0.01191	0.00210	0.00598	0.00843
86800	0.25436	0.26833	0.21854	0.34089	0.40142	0.34835	0.92023	0.64047	0.44609	0.33903	0.34558	0.32116	0.39048	0.37876	0.33655	0.17330	0.25943	0.35535
86960	0.25573	0.27027	0.22028	0.34212	0.40466	0.35102	0.92491	0.64749	0.45133	0.34151	0.34822	0.32300	0.39399	0.38096	0.34009	0.18025	0.26297	0.35898
87130	0.25545	0.26811	0.21801	0.34050	0.40123	0.34886	0.91542	0.64308	0.44744	0.33912	0.34569	0.31984	0.38887	0.37736	0.33823	0.17551	0.25837	0.35617
87290	0.25484	0.27004	0.22185	0.34305	0.40431	0.35224	0.92347	0.64832	0.45179	0.34233	0.34854	0.32332	0.39590	0.38279	0.34269	0.18021	0.26281	0.35959
87450	0.25371	0.26691	0.21904	0.34135	0.40260	0.34806	0.92273	0.64145	0.44733	0.33985	0.34523	0.32076	0.38991	0.37725	0.33480	0.17496	0.25885	0.35571
87620	0.25408	0.26959	0.21946	0.34173	0.40397	0.35177	0.92575	0.64188	0.45047	0.34176	0.34750	0.32377	0.39433	0.38240	0.33953	0.18053	0.26227	0.35815
87780	0.25274	0.26711	0.21980	0.34051	0.40052	0.34805	0.91468	0.63957	0.44482	0.33741	0.34313	0.31941	0.38702	0.37636	0.33436	0.17219	0.25808	0.35479
87940	0.25004	0.26624	0.21685	0.33773	0.39830	0.34610	0.91504	0.63753	0.44315	0.33628	0.34226	0.31826	0.39108	0.37883	0.33781	0.17756	0.26083	0.35928
88110	0.25444	0.26693	0.21746	0.34103	0.40125	0.34922	0.91392	0.64138	0.44739	0.34000	0.34434	0.31991	0.39144	0.37892	0.33856	0.17812	0.25985	0.35709
88270	0.25434	0.26744	0.22065	0.34126	0.40284	0.35030	0.92206	0.64358	0.44968	0.33964	0.34433	0.31989	0.39232	0.37879	0.33746	0.17770	0.26136	0.35797	28.63	6.1	0.00	7.53	0.01266	0.01285	0.01639	0.00759	0.00565	0.00620	0.00465	0.01260	0.01676	0.00660	0.00680	0.00861	0.01483	0.01090	0.01191	0.00210	0.00598	0.00843
88430	0.25299	0.26535	0.21785	0.34063	0.40093	0.34836	0.91332	0.64139	0.44494	0.33826	0.34436	0.31908	0.39159	0.38037	0.33945	0.17932	0.26311	0.36051
88600	0.25695	0.26980	0.22038	0.34229	0.40348	0.35071	0.92446	0.64500	0.44844	0.33986	0.34576	0.32105	0.39302	0.37887	0.33633	0.17620	0.26061	0.35721
88760	0.25380	0.26749	0.21808	0.33945	0.40113	0.34833	0.91330	0.63860	0.44602	0.33803	0.34447	0.31879	0.39405	0.38133	0.33832	0.18169	0.26436	0.36144
88920	0.25670	0.27010	0.21893	0.34370	0.40381	0.35196	0.91993	0.64491	0.45046	0.34155	0.34598	0.32198	0.39435	0.38131	0.33938	0.17924	0.26197	0.35834
89090	0.25415	0.26893	0.21974	0.33980	0.40079	0.34818	0.91876	0.64186	0.44525	0.33885	0.34420	0.31956	0.39221	0.38167	0.34048	0.17857	0.26489	0.36167
89250	0.25678	0.27138	0.22165	0.34402	0.40385	0.35145	0.92545	0.64491	0.45113	0.34169	0.34677	0.32201	0.39123	0.38130	0.33585	0.18193	0.26285	0.35918
89410	0.25395	0.26725	0.21791	0.34026	0.40046	0.34812	0.91884	0.64035	0.44735	0.33885	0.34383	0.31931	0.39251	0.38074	0.33618	0.18189	0.26284	0.35967
89580	0.25573	0.26898	0.21951	0.34129	0.40114	0.34941	0.92183	0.64420	0.44934	0.33958	0.34351	0.32042	0.38978	0.37914	0.33680	0.17798	0.26050	0.35678
89740	0.25129	0.26651	0.21623	0.33838	0.39926	0.34681	0.92421	0.64016	0.44564	0.33859	0.34238	0.31852	0.38651	0.37676	0.33517	0.17339	0.25674	0.35400
89900	0.25453	0.27049	0.22072	0.34246	0.40287	0.35348	0.91937	0.64516	0.45210	0.34186	0.34760	0.32299	0.39408	0.38298	0.34070	0.18392	0.26523	0.36145	28.63	6.2	0.00	7.41	0.01266	0.01285	0.01639	0.00759	0.00565	0.00620	0.00465	0.01260	0.01676	0.00660	0.00680	0.00861	0.01483	0.01090	0.01191	0.00210	0.00598	0.00843
90070	0.25567	0.26756	0.21857	0.34169	0.40047	0.34918	0.92684	0.64059	0.44749	0.33940	0.34547	0.32048	0.39017	0.37901	0.33556	0.17685	0.25977	0.35715
90230	0.25482	0.27156	0.22079	0.34154	0.40273	0.35229	0.92041	0.64647	0.45116	0.34203	0.34705	0.32310	0.39284	0.38120	0.33941	0.18128	0.26426	0.36020
90390	0.25586	0.26888	0.22013	0.34021	0.40003	0.34860	0.91935	0.64388	0.44765	0.33788	0.34355	0.31942	0.38826	0.37739	0.33530	0.17851	0.25973	0.35572
90550	0.25254	0.26620	0.21791	0.33700	0.39688	0.34604	0.91747	0.63660	0.44245	0.33634	0.34147	0.31696	0.39167	0.38071	0.33889	0.18057	0.26546	0.36104
90720	0.25523	0.26711	0.21818	0.34190	0.40152	0.34996	0.92426	0.64516	0.44999	0.34033	0.34554	0.32059	0.39220	0.37999	0.33737	0.18207	0.26189	0.35775
90880	0.25525	0.26658	0.21642	0.33794	0.39768	0.34653	0.92056	0.63978	0.44553	0.33669	0.34280	0.31745	0.39219	0.38197	0.34020	0.18195	0.26534	0.36169
91050	0.25783	0.26938	0.21968	0.34185	0.40109	0.35022	0.92284	0.64523	0.44874	0.33942	0.34460	0.32067	0.39297	0.37904	0.33695	0.17839	0.26116	0.35736
91210	0.25617	0.27056	0.21981	0.34079	0.40210	0.35123	0.92623	0.64308	0.44977	0.34052	0.34653	0.32018	0.39220	0.38263	0.33899	0.18242	0.26308	0.35852
91370	0.25449	0.26933	0.21933	0.34016	0.39938	0.34924	0.91927	0.64153	0.44761	0.33891	0.34464	0.31915	0.39201	0.37749	0.33705	0.17760	0.26066	0.35593
91540	0.25667	0.27007	0.22083	0.34193	0.40272	0.35118	0.92014	0.64451	0.45232	0.34135	0.34679	0.32225	0.39515	0.38316	0.33924	0.18031	0.26483	0.36011	28.57	6.1	0.00	6.61	0.01266	0.01285	0.01639	0.00759	0.00565	0.00620	0.00465	0.01260	0.01676	0.00660	0.00680	0.00861	0.01483	0.01090	0.01191	0.00210	0.00598	0.00843
91700	0.25541	0.26842	0.21937	0.34082	0.40015	0.34832	0.91857	0.64261	0.44806	0.33918	0.34506	0.31973	0.39208	0.37757	0.33567	0.17518	0.26064	0.35652
91860	0.25667	0.27030	0.22059	0.34171	0.40278	0.35191	0.92745	0.64452	0.45311	0.34099	0.34701	0.32159	0.39410	0.38382	0.33857	0.17988	0.26387	0.36018
92030	0.25462	0.26921	0.21771	0.33955	0.39985	0.34797	0.92244	0.64237	0.44703	0.33769	0.34385	0.31886	0.39235	0.38380	0.34177	0.18020	0.26390	0.36022
92190	0.25626	0.26870	0.22130	0.34177	0.40225	0.35074	0.92811	0.64517	0.44976	0.34014	0.34636	0.32092	0.39338	0.38298	0.33930	0.17956	0.26277	0.35902
92350	0.25592	0.26943	0.21948	0.33947	0.40001	0.34717	0.91854	0.63697	0.44753	0.33728	0.34349	0.31790	0.39055	0.37719	0.33647	0.17494	0.25874	0.35497
92510	0.25055	0.26699	0.22049	0.33632	0.40058	0.35032	0.92419	0.64552	0.45026	0.33981	0.34770	0.32161	0.39320	0.38240	0.33950	0.17944	0.26410	0.35975
92680	0.25468	0.26851	0.21927	0.33972	0.40071	0.34785	0.91657	0.64109	0.44717	0.33733	0.34472	0.31909	0.38941	0.37619	0.33636	0.17490	0.25922	0.35556
92840	0.25058	0.26681	0.21519	0.33573	0.39683	0.34473	0.90759	0.63577	0.44573	0.33485	0.34224	0.31648	0.39182	0.38119	0.34189	0.18063	0.26496	0.36065
93000	0.25837	0.26986	0.22101	0.34252	0.40369	0.35056	0.92548	0.64454	0.44940	0.33958	0.34668	0.32075	0.39549	0.37812	0.33998	0.17913	0.26208	0.35821
93170	0.25502	0.27116	0.22084	0.33984	0.40156	0.34980	0.91946	0.64599	0.44934	0.33807	0.34501	0.31910	0.38990	0.37891	0.33779	0.17723	0.25988	0.35716	28.57	6.1	0.00	7.52	0.01266	0.01285	0.01639	0.00759	0.00565	0.00620	0.00465	0.01260	0.01676	0.00660	0.00680	0.00861	0.01483	0.01090	0.01191	0.00210	0.00598	0.00843
93330	0.25423	0.26866	0.21912	0.33951	0.40018	0.34838	0.91958	0.64004	0.44822	0.33652	0.34351	0.31805	0.38956	0.37758	0.33683	0.17443	0.25829	0.35546
93490	0.25492	0.26754	0.22033	0.33955	0.40189	0.34872	0.91713	0.64442	0.44764	0.33818	0.34446	0.31943	0.39242	0.37899	0.33727	0.17814	0.26123	0.35826
93660	0.25566	0.27012	0.21916	0.33989	0.40110	0.34908	0.92232	0.64185	0.44536	0.33712	0.34376	0.31862	0.38885	0.37810	0.33458	0.17557	0.25900	0.35625
93820	0.25348	0.26961	0.22068	0.34034	0.40203	0.34994	0.92011	0.64424	0.44874	0.33825	0.34520	0.31959	0.39140	0.38073	0.33763	0.17723	0.26119	0.35712
93990	0.25634	0.26791	0.21893	0.33962	0.40136	0.34826	0.91574	0.64507	0.44750	0.33864	0.34460	0.31938	0.39135	0.37995	0.33645	0.17565	0.25919	0.35674
94150	0.25670	0.27109	0.22234	0.34153	0.40256	0.35104	0.92834	0.64837	0.45175	0.33918	0.34684	0.32158	0.39584	0.38172	0.33922	0.17806	0.26298	0.35894
94310	0.25508	0.26741	0.21897	0.34030	0.39972	0.34784	0.91604	0.64088	0.44775	0.33724	0.34272	0.31827	0.39326	0.38207	0.33841	0.17786	0.26181	0.35878
94480	0.25598	0.26996	0.22132	0.34065	0.40058	0.34906	0.91819	0.64487	0.44731	0.33836	0.34418	0.31975	0.39069	0.38077	0.33670	0.17751	0.26021	0.35804
94640	0.25615	0.26756	0.21901	0.33915	0.39898	0.34694	0.91723	0.63741	0.44734	0.33585	0.34385	0.31821	0.39632	0.38267	0.34297	0.17850	0.26359	0.36158
94810	0.25609	0.27189	0.22022	0.34245	0.40202	0.35058	0.92378	0.64210	0.44947	0.33866	0.34621	0.31981	0.39159	0.37832	0.33976	0.17594	0.25793	0.35615	28.57	6.0	0.00	7.45	0.01266	0.01285	0.01639	0.00759	0.00565	0.00620	0.00465	0.01260	0.01676	0.00660	0.00680	0.00861	0.01483	0.01090	0.01191	0.00210	0.00598	0.00843
94970	0.25615	0.27028	0.22079	0.34133	0.40169	0.35095	0.91879	0.64367	0.45153	0.33930	0.34637	0.32050	0.39188	0.37960	0.33898	0.17685	0.26046	0.35749
95130	0.25575	0.26823	0.22009	0.34068	0.39994	0.34965	0.92005	0.64205	0.44912	0.33841	0.34467	0.31902	0.39257	0.37997	0.34006	0.17677	0.25994	0.35840
95300	0.25523	0.26962	0.22070	0.34072	0.40069	0.34909	0.92114	0.64200	0.44869	0.33780	0.34455	0.31892	0.39188	0.37943	0.33944	0.17705	0.25961	0.35815
95460	0.25618	0.26669	0.21941	0.33971	0.39853	0.34796	0.91752	0.64104	0.44698	0.33705	0.34397	0.31751	0.39487	0.38087	0.33900	0.17685	0.26090	0.36034
95630	0.25647	0.27030	0.21933	0.34231	0.40221	0.35096	0.92380	0.64470	0.45135	0.33919	0.34684	0.31969	0.39487	0.38352	0.34078	0.17891	0.26283	0.36100
95790	0.25778	0.27065	0.22143	0.34289	0.40300	0.35227	0.91585	0.64745	0.45085	0.34079	0.34783	0.32152	0.39609	0.38001	0.34189	0.18088	0.26166	0.35971
95950	0.25618	0.27165	0.21864	0.34132	0.40025	0.34969	0.92529	0.64369	0.44762	0.33761	0.34479	0.31861	0.39489	0.38475	0.34389	0.18033	0.26348	0.36263
96120	0.25952	0.26998	0.22430	0.34542	0.40447	0.35380	0.93148	0.64719	0.45391	0.34252	0.34778	0.32151	0.39602	0.38462	0.34038	0.18033	0.26295	0.36132
96280	0.25749	0.26886	0.22124	0.34219	0.40099	0.35004	0.91823	0.64329	0.45032	0.33835	0.34565	0.31850	0.39525	0.38399	0.34184	0.18092	0.26436	0.36203
96440	0.25980	0.27091	0.22354	0.34504	0.40328	0.35337	0.92549	0.64478	0.45102	0.34046	0.34793	0.32136	0.39558	0.38501	0.34054	0.17837	0.26021	0.35923	28.57	6.2	0.00	7.44	0.01266	0.01285	0.01639	0.00759	0.00565	0.00620	0.00465	0.01260	0.01676	0.00660	0.00680	0.00861	0.01483	0.01090	0.01191	0.00210	0.00598	0.00843
96610	0.25320	0.26669	0.21913	0.33951	0.39783	0.34687	0.91504	0.64015	0.44730	0.33557	0.34255	0.31699	0.39038	0.38146	0.34147	0.17513	0.25882	0.35781
96770	0.25644	0.26946	0.21903	0.34019	0.39975	0.34896	0.91656	0.64171	0.44738	0.33853	0.34450	0.31853	0.39274	0.37990	0.33687	0.17422	0.25717	0.35528
96930	0.25410	0.26807	0.21834	0.33879	0.39893	0.34671	0.91433	0.64312	0.44663	0.33654	0.34375	0.31727	0.39006	0.37777	0.33586	0.17126	0.25502	0.35352
97100	0.25442	0.27085	0.22010	0.34215	0.40286	0.35160	0.92190	0.64661	0.45081	0.33995	0.34698	0.32224	0.39213	0.38302	0.34160	0.17798	0.26111	0.35832
97260	0.25728	0.26977	0.21814	0.34081	0.39951	0.34932	0.92071	0.63920	0.44850	0.33747	0.34503	0.31829	0.39233	0.37799	0.33668	0.17320	0.25629	0.35395
97420	0.25718	0.27147	0.22093	0.34141	0.40271	0.35241	0.92387	0.64714	0.45147	0.33952	0.34710	0.32144	0.39315	0.38227	0.34061	0.18090	0.26050	0.35817
97590	0.25606	0.26834	0.21840	0.33998	0.40024	0.34891	0.91365	0.64015	0.44774	0.33731	0.34437	0.31758	0.39050	0.38054	0.33539	0.17308	0.25600	0.35419
97750	0.25411	0.26836	0.21947	0.34088	0.39988	0.35065	0.92334	0.64483	0.44922	0.33820	0.34507	0.32028	0.39350	0.38007	0.33959	0.17719	0.25836	0.35683
97910	0.25597	0.26874	0.21957	0.34029	0.39944	0.34863	0.92061	0.64154	0.44766	0.33705	0.34378	0.31872	0.39033	0.37792	0.33873	0.17402	0.25711	0.35617
98080	0.25403	0.26665	0.21692	0.33745	0.39648	0.34557	0.91395	0.64054	0.44515	0.33511	0.34167	0.31641	0.39230	0.38296	0.34000	0.17350	0.26118	0.36019	28.63	6.1	0.00	7.43	0.01266	0.01285	0.01639	0.00759	0.00565	0.00620	0.00465	0.01260	0.01676	0.00660	0.00680	0.00861	0.01483	0.01090	0.01191	0.00210	0.00598	0.00843
98240	0.25558	0.26959	0.22005	0.34242	0.40155	0.35027	0.92194	0.64609	0.45152	0.34059	0.34559	0.32040	0.39316	0.38218	0.34098	0.17346	0.25810	0.35706
98400	0.25630	0.26704	0.21830	0.33765	0.39783	0.34669	0.91944	0.63790	0.44557	0.33721	0.34225	0.31730	0.39421	0.38308	0.34358	0.17670	0.26270	0.36170
98570	0.25808	0.26959	0.22260	0.34289	0.40267	0.35266	0.91691	0.64679	0.45212	0.34195	0.34712	0.32098	0.39312	0.38215	0.34074	0.17548	0.25963	0.35741
98730	0.25738	0.27161	0.22285	0.34308	0.40348	0.35301	0.92346	0.64818	0.45296	0.34240	0.34755	0.32160	0.39554	0.38105	0.34337	0.17706	0.26065	0.35883
98890	0.25661	0.26893	0.21982	0.34126	0.40037	0.35034	0.92263	0.64591	0.44967	0.34030	0.34571	0.32034	0.39161	0.38069	0.33781	0.17331	0.25768	0.35562
99060	0.25708	0.27057	0.22214	0.34153	0.40167	0.35257	0.92073	0.64586	0.45397	0.34189	0.34763	0.32212	0.39683	0.38287	0.34038	0.17714	0.26121	0.35899
99220	0.25628	0.26943	0.21985	0.34108	0.39974	0.34949	0.91959	0.64304	0.44898	0.33905	0.34336	0.31886	0.39179	0.37938	0.33879	0.17177	0.25644	0.35551
99380	0.25494	0.26581	0.21894	0.33755	0.39682	0.34719	0.92425	0.64175	0.44569	0.33697	0.34215	0.31723	0.39327	0.38182	0.34125	0.17489	0.26095	0.35968
99550	0.25827	0.26943	0.22199	0.34166	0.40023	0.35050	0.92625	0.64571	0.44967	0.33940	0.34556	0.31977	0.39299	0.38067	0.33955	0.17370	0.25986	0.35759
99710	0.25565	0.26760	0.22035	0.34085	0.40042	0.35013	0.91685	0.64279	0.45026	0.33976	0.34514	0.31947	0.39182	0.37935	0.34014	0.17203	0.25849	0.35525	28.57	6.1	0.00	7.48	0.01266	0.01285	0.01639	0.00759	0.00565	0.00620	0.00465	0.01260	0.01676	0.00660	0.00680	0.00861	0.01483	0.01090	0.01191	0.00209	0.00598	0.00842
99870	0.25462	0.26801	0.22067	0.33879	0.39873	0.34767	0.91789	0.64176	0.44706	0.33856	0.34541	0.31818	0.39378	0.38011	0.34061	0.17346	0.25939	0.35673
100040	0.25852	0.26941	0.22060	0.34020	0.40038	0.34995	0.91520	0.64520	0.44950	0.33975	0.34535	0.31922	0.39256	0.37876	0.34016	0.17030	0.25776	0.35599
100200	0.25503	0.26762	0.21996	0.33835	0.39813	0.34763	0.92082	0.64172	0.44605	0.33684	0.34397	0.31743	0.39538	0.38125	0.34122	0.17334	0.25951	0.35779
100360	0.25553	0.26908	0.22033	0.34040	0.40070	0.34913	0.92196	0.64405	0.44982	0.34010	0.34583	0.31989	0.39388	0.38302	0.33892	0.17057	0.25741	0.35520
100530	0.25449	0.26989	0.21866	0.33865	0.39867	0.34713	0.91897	0.64177	0.44813	0.33816	0.34518	0.31831	0.39788	0.38453	0.34245	0.17504	0.26265	0.36088
100690	0.25952	0.27203	0.22575	0.34482	0.40402	0.35225	0.92619	0.64909	0.45420	0.34249	0.34942	0.32227	0.39575	0.38248	0.34033	0.17251	0.26040	0.35838
100860	0.25898	0.27102	0.22291	0.34282	0.40351	0.35243	0.93359	0.64912	0.45296	0.34229	0.34879	0.32192	0.39670	0.38459	0.34014	0.17421	0.26005	0.35818
101020	0.25406	0.26865	0.21910	0.33950	0.39988	0.34845	0.92173	0.64289	0.44931	0.33793	0.34519	0.31855	0.39093	0.37894	0.33958	0.16832	0.25533	0.35401
101180	0.25349	0.26567	0.21979	0.33673	0.39638	0.34506	0.91796	0.63930	0.44589	0.33604	0.34269	0.31639	0.39203	0.38288	0.34315	0.17219	0.26087	0.35893
101350	0.25666	0.27015	0.21937	0.34124	0.40058	0.34845	0.92732	0.64459	0.44920	0.33918	0.34676	0.31972	0.39028	0.37826	0.33778	0.16611	0.25697	0.35534	28.63	6.3	0.00	7.45	0.01266	0.01285	0.01639	0.00759	0.00565	0.00620	0.00465	0.01260	0.01676	0.00660	0.00680	0.00861	0.01483	0.01090	0.01191	0.00209	0.00598	0.00843
101510	0.25403	0.26644	0.21685	0.33697	0.39779	0.34548	0.91605	0.64117	0.44584	0.33677	0.34356	0.31775	0.39497	0.38459	0.34479	0.17410	0.26263	0.36058
101670	0.25662	0.27156	0.22271	0.34366	0.40165	0.35159	0.91904	0.64651	0.45006	0.33992	0.34807	0.32103	0.39433	0.38247	0.33782	0.17236	0.25806	0.35600
101840	0.25556	0.26800	0.22023	0.34139	0.40099	0.35052	0.92484	0.64738	0.45080	0.34090	0.34926	0.32215	0.39544	0.38278	0.33951	0.17030	0.26009	0.35824
102000	0.25600	0.26924	0.22069	0.34008	0.39933	0.34880	0.92152	0.64440	0.44975	0.33835	0.34603	0.31935	0.39042	0.37943	0.33879	0.16627	0.25630	0.35382
102160	0.25550	0.27021	0.22206	0.34095	0.40127	0.35049	0.92661	0.64673	0.45145	0.34087	0.34765	0.32189	0.39471	0.38059	0.33973	0.17180	0.25953	0.35713
102330	0.25647	0.26651	0.22162	0.33939	0.39888	0.34826	0.92438	0.64547	0.44892	0.33904	0.34655	0.32080	0.39083	0.38097	0.33775	0.16769	0.25666	0.35454
102490	0.25608	0.27158	0.22149	0.34013	0.40147	0.35112	0.92172	0.64551	0.45251	0.34139	0.34753	0.32132	0.39496	0.38340	0.33645	0.16955	0.25861	0.35671
102650	0.25510	0.26807	0.21866	0.33968	0.39850	0.34734	0.92844	0.64367	0.44883	0.33948	0.34619	0.31962	0.39363	0.37759	0.34059	0.16789	0.25674	0.35546
102820	0.25438	0.26760	0.22116	0.34106	0.40108	0.35081	0.92555	0.64831	0.45044	0.34104	0.34749	0.32118	0.39165	0.38128	0.34087	0.17070	0.25899	0.35639
102980	0.25429	0.26918	0.21889	0.33655	0.39758	0.34711	0.92120	0.64088	0.44855	0.33850	0.34565	0.31857	0.39121	0.37895	0.33700	0.16474	0.25582	0.35288	28.63	6.2	0.00	7.52	0.01266	0.01285	0.01639	0.00759	0.00565	0.00620	0.00465	0.01260	0.01676	0.00660	0.00680	0.00861	0.01483	0.01090	0.01191	0.00209	0.00598	0.00842
103140	0.25417	0.26619	0.21821	0.33450	0.39549	0.34367	0.91414	0.63893	0.44532	0.33629	0.34259	0.31675	0.39310	0.38354	0.34236	0.16976	0.26062	0.35852
103310	0.25735	0.26995	0.22147	0.33993	0.40006	0.34823	0.92634	0.64565	0.45032	0.34049	0.34749	0.32090	0.39447	0.38133	0.34104	0.16873	0.26048	0.35692
103470	0.25615	0.27198	0.22038	0.33978	0.40029	0.34846	0.92404	0.64633	0.45230	0.34064	0.34776	0.32208	0.39489	0.38315	0.33796	0.17055	0.25901	0.35646
103630	0.25695	0.26962	0.22005	0.33714	0.39770	0.34502	0.91679	0.64304	0.44653	0.33758	0.34528	0.31793	0.39487	0.38439	0.34205	0.16885	0.26036	0.35766
103800	0.25759	0.26913	0.22188	0.33997	0.40038	0.34797	0.91631	0.64595	0.45113	0.33886	0.34625	0.31988	0.39399	0.38111	0.33765	0.16976	0.25850	0.35523
103960	0.25381	0.26910	0.21823	0.33759	0.39721	0.34500	0.91568	0.64013	0.44603	0.33646	0.34410	0.31771	0.39391	0.38186	0.33781	0.16916	0.25919	0.35558
104120	0.25554	0.26943	0.21835	0.33841	0.39881	0.34659	0.92368	0.63983	0.44890	0.33781	0.34582	0.31890	0.39329	0.38102	0.33816	0.16588	0.25711	0.35452
104290	0.25590	0.26642	0.22038	0.33711	0.39768	0.34522	0.91991	0.64055	0.44565	0.33678	0.34387	0.31789	0.39295	0.38032	0.33953	0.16964	0.26046	0.35790
104450	0.25755	0.26892	0.22271	0.34009	0.40013	0.34907	0.92350	0.64497	0.45075	0.33798	0.34710	0.31935	0.39281	0.37989	0.33851	0.16920	0.25770	0.35506
104620	0.25570	0.26865	0.21898	0.33663	0.39733	0.34512	0.92109	0.64280	0.44678	0.33520	0.34479	0.31732	0.39396	0.38329	0.34200	0.17263	0.26200	0.36006	28.63	6.1	0.00	7.43	0.01266	0.01285	0.01639	0.00759	0.00565	0.00620	0.00465	0.01260	0.01675	0.00660	0.00680	0.00861	0.01483	0.01090	0.01191	0.00209	0.00598	0.00843
104780	0.25746	0.27056	0.22184	0.34084	0.40055	0.34937	0.92388	0.64125	0.44917	0.33873	0.34733	0.31967	0.39414	0.38256	0.33924	0.17164	0.25837	0.35612
104940	0.25715	0.26968	0.22017	0.33862	0.40028	0.34871	0.91998	0.64271	0.44953	0.33811	0.34654	0.31961	0.39435	0.38210	0.34132	0.17010	0.25822	0.35682
105110	0.25584	0.27055	0.21815	0.33789	0.39851	0.34758	0.91965	0.63914	0.44790	0.33682	0.34558	0.31871	0.39099	0.37823	0.33487	0.16939	0.25734	0.35505
105270	0.25745	0.27128	0.22330	0.33995	0.40067	0.34971	0.92021	0.64774	0.45068	0.33957	0.34777	0.32075	0.39264	0.38260	0.34032	0.17077	0.25897	0.35679
105430	0.25620	0.26912	0.22112	0.33841	0.39847	0.34800	0.92428	0.64285	0.44733	0.33694	0.34518	0.31938	0.39180	0.37993	0.33758	0.16765	0.25683	0.35478
105600	0.25710	0.27042	0.22245	0.33956	0.40034	0.35049	0.92444	0.64653	0.45172	0.33865	0.34761	0.32096	0.39367	0.38292	0.34039	0.16994	0.25948	0.35796
105760	0.25839	0.26957	0.22036	0.33804	0.39792	0.34720	0.92514	0.64488	0.44680	0.33698	0.34461	0.31857	0.39254	0.37793	0.33844	0.16702	0.25599	0.35398
105920	0.25575	0.26999	0.22051	0.33791	0.39900	0.34832	0.92585	0.64371	0.44996	0.33846	0.34615	0.31913	0.39201	0.38252	0.33805	0.16887	0.25809	0.35538
106090	0.25441	0.26794	0.21926	0.33675	0.39746	0.34738	0.92228	0.63939	0.44746	0.33688	0.34565	0.31840	0.39327	0.37963	0.33810	0.16733	0.25519	0.35373
106250	0.25442	0.26741	0.21681	0.33500	0.39642	0.34499	0.92223	0.63784	0.44518	0.33468	0.34276	0.31581	0.39142	0.38150	0.34506	0.17335	0.26158	0.36008	28.63	6.1	0.00	7.48	0.01266	0.01285	0.01639	0.00759	0.00565	0.00620	0.00465	0.01260	0.01676	0.00660	0.00680	0.00861	0.01483	0.01090	0.01191	0.00209	0.00598	0.00843
106410	0.26003	0.27225	0.22170	0.34011	0.40019	0.34923	0.92208	0.64378	0.45122	0.33861	0.34633	0.31871	0.39083	0.38183	0.34008	0.17228	0.25873	0.35575
106580	0.25733	0.26920	0.22160	0.34074	0.40150	0.35025	0.91904	0.64671	0.45184	0.34061	0.34713	0.31982	0.39302	0.38468	0.34026	0.17386	0.26096	0.35762
106740	0.25689	0.26897	0.21854	0.33790	0.39784	0.34814	0.92213	0.64342	0.44812	0.33694	0.34434	0.31803	0.39020	0.37780	0.33712	0.16888	0.25715	0.35443
106900	0.25582	0.26890	0.22133	0.33927	0.40052	0.35055	0.92281	0.64498	0.44935	0.33929	0.34625	0.31953	0.39407	0.38327	0.33992	0.17066	0.25910	0.35764
107070	0.25449	0.26868	0.22016	0.33782	0.39855	0.34775	0.91825	0.64124	0.44816	0.33727	0.34325	0.31668	0.39208	0.38137	0.34107	0.17232	0.25985	0.35766
107230	0.25553	0.27004	0.22131	0.33869	0.39979	0.34807	0.91658	0.64619	0.45019	0.33853	0.34484	0.31868	0.39019	0.38305	0.33754	0.17090	0.25807	0.35640
107390	0.25625	0.26963	0.21802	0.33710	0.39841	0.34696	0.91995	0.64204	0.44796	0.33756	0.34227	0.31715	0.39016	0.38054	0.33632	0.16857	0.25562	0.35383
107550	0.25293	0.26703	0.22107	0.33620	0.39872	0.34848	0.92664	0.64499	0.45004	0.33966	0.34593	0.31907	0.39108	0.38071	0.33870	0.17244	0.25950	0.35638
107720	0.25587	0.26825	0.21926	0.33691	0.39920	0.34706	0.91193	0.64229	0.44803	0.33853	0.34465	0.31748	0.38962	0.38044	0.33759	0.16880	0.25678	0.35397
107880	0.25434	0.26768	0.21735	0.33512	0.39564	0.34443	0.91910	0.63855	0.44367	0.33536	0.34112	0.31506	0.39286	0.37945	0.34275	0.17022	0.26229	0.35983	28.63	6.1	0.00	7.39	0.01266	0.01285	0.01639	0.00759	0.00565	0.00620	0.00465	0.01260	0.01676	0.00660	0.00680	0.00861	0.01483	0.01090	0.01191	0.00209	0.00598	0.00843
108040	0.25756	0.27321	0.22174	0.34094	0.40099	0.35009	0.92307	0.64487	0.44853	0.33991	0.34617	0.31986	0.39391	0.38098	0.34087	0.17319	0.26011	0.35797
108210	0.25793	0.26960	0.21862	0.33784	0.39951	0.34890	0.92069	0.64340	0.45021	0.33923	0.34510	0.31845	0.39346	0.37899	0.33728	0.17236	0.25875	0.35653
108370	0.25603	0.26652	0.21895	0.33683	0.39865	0.34748	0.92029	0.64373	0.44815	0.33713	0.34462	0.31748	0.39058	0.37818	0.33704	0.16999	0.25677	0.35420
108540	0.25410	0.26674	0.21671	0.33610	0.39551	0.34424	0.91246	0.63762	0.44473	0.33535	0.34320	0.31462	0.39284	0.38382	0.34282	0.17378	0.26246	0.36091
108700	0.26074	0.27011	0.22382	0.34162	0.40266	0.35054	0.92294	0.64707	0.44939	0.33964	0.34718	0.31913	0.39208	0.38157	0.33610	0.17204	0.25989	0.35742
108860	0.25851	0.27047	0.22070	0.34009	0.40103	0.34990	0.91618	0.64405	0.44990	0.33999	0.34776	0.31975	0.39438	0.38320	0.34163	0.17133	0.26026	0.35819
109030	0.25553	0.26772	0.21756	0.33851	0.39914	0.34654	0.92175	0.64030	0.44712	0.33694	0.34471	0.31689	0.39034	0.37876	0.33617	0.16951	0.25708	0.35488
109190	0.25685	0.27141	0.22166	0.33991	0.40076	0.34989	0.91611	0.64421	0.44859	0.33919	0.34717	0.31961	0.39191	0.38098	0.34108	0.17212	0.25946	0.35658
109350	0.25655	0.26872	0.22072	0.33838	0.39986	0.34795	0.92538	0.63909	0.44932	0.33774	0.34534	0.31792	0.39196	0.37635	0.33468	0.16924	0.25767	0.35547
109520	0.25754	0.27088	0.22081	0.33976	0.40147	0.35020	0.92168	0.64476	0.44955	0.33840	0.34685	0.31992	0.39493	0.38018	0.33966	0.16909	0.26075	0.35767	28.69	6.1	0.00	7.36	0.01266	0.01285	0.01639	0.00759	0.00565	0.00620	0.00465	0.01260	0.01675	0.00660	0.00680	0.00861	0.01483	0.01090	0.01191	0.00209	0.00598	0.00843
109680	0.25579	0.27030	0.21972	0.33815	0.39900	0.34731	0.92302	0.63979	0.44557	0.33640	0.34386	0.31734	0.39158	0.37861	0.33756	0.16502	0.25480	0.35503
109840	0.25506	0.27185	0.22124	0.33908	0.40093	0.34977	0.92614	0.64326	0.44901	0.33820	0.34562	0.31992	0.39335	0.38332	0.33881	0.16767	0.25914	0.35757
110010	0.25477	0.26876	0.21939	0.33735	0.39823	0.34754	0.92310	0.64245	0.44634	0.33732	0.34468	0.31768	0.38944	0.37777	0.33588	0.16281	0.25686	0.35485
110170	0.25529	0.27022	0.22124	0.34000	0.40164	0.35050	0.92193	0.64171	0.45085	0.33934	0.34659	0.31998	0.39453	0.38272	0.34127	0.16953	0.26111	0.35856
110330	0.25572	0.26859	0.21983	0.33860	0.40007	0.34829	0.91811	0.64352	0.44784	0.33770	0.34564	0.31863	0.39064	0.38218	0.33630	0.16649	0.25807	0.35546
110500	0.25678	0.27232	0.22299	0.33980	0.40260	0.35111	0.92451	0.64428	0.45073	0.33929	0.34769	0.32152	0.39297	0.38265	0.33912	0.16976	0.26126	0.35857
110660	0.25512	0.27053	0.21960	0.33916	0.39936	0.34818	0.92464	0.64116	0.44715	0.33689	0.34453	0.31802	0.39150	0.38020	0.33549	0.16427	0.25697	0.35496
110820	0.25641	0.26942	0.22043	0.33897	0.40056	0.34989	0.92348	0.64242	0.44894	0.33830	0.34547	0.31977	0.39351	0.37995	0.33957	0.16735	0.25928	0.35751
110990	0.25560	0.26912	0.21985	0.33844	0.39877	0.34686	0.91712	0.64145	0.44708	0.33654	0.34272	0.31839	0.39284	0.38146	0.33907	0.16818	0.25924	0.35906
111150	0.25654	0.27032	0.22190	0.33985	0.40103	0.35089	0.91943	0.64213	0.45113	0.33857	0.34449	0.31863	0.39229	0.38091	0.33919	0.16626	0.25866	0.35556	28.69	6.1	0.00	7.51	0.01266	0.01285	0.01639	0.00759	0.00565	0.00620	0.00465	0.01260	0.01675	0.00660	0.00680	0.00861	0.01483	0.01090	0.01191	0.00209	0.00598	0.00843
111310	0.25597	0.26916	0.21847	0.33755	0.39941	0.34724	0.92227	0.63953	0.44749	0.33583	0.34253	0.31689	0.39250	0.38130	0.33789	0.16871	0.25909	0.35798
111480	0.25562	0.26975	0.21997	0.33993	0.40000	0.34909	0.91895	0.64494	0.44910	0.33767	0.34457	0.31801	0.39287	0.38091	0.33942	0.16645	0.25784	0.35638
111640	0.25529	0.26929	0.21879	0.33783	0.39817	0.34742	0.91475	0.64267	0.44583	0.33646	0.34305	0.31717	0.39484	0.38042	0.33953	0.16958	0.26048	0.35915
111800	0.25734	0.27189	0.21974	0.34036	0.40118	0.35025	0.92523	0.64503	0.44762	0.33907	0.34542	0.31917	0.39351	0.38185	0.33841	0.16697	0.25913	0.35673
111970	0.25843	0.26982	0.21877	0.33885	0.39896	0.34811	0.92022	0.64333	0.44799	0.33675	0.34453	0.31803	0.39486	0.38453	0.34182	0.17179	0.26290	0.36134
112130	0.25787	0.27173	0.22166	0.34343	0.40271	0.35332	0.92346	0.64723	0.45126	0.33957	0.34664	0.32076	0.39575	0.38271	0.34033	0.17100	0.26023	0.35808
112290	0.25560	0.27194	0.22027	0.34024	0.40040	0.34997	0.92414	0.64534	0.44919	0.33769	0.34530	0.31900	0.39345	0.38148	0.33881	0.16815	0.25861	0.35680
112460	0.25395	0.26895	0.22130	0.33842	0.39890	0.34928	0.91895	0.64493	0.44889	0.33751	0.34361	0.31807	0.39233	0.38145	0.33814	0.16701	0.25671	0.35506
112620	0.25350	0.26716	0.21720	0.33536	0.39393	0.34399	0.91381	0.63720	0.44206	0.33254	0.33933	0.31273	0.39380	0.37946	0.33893	0.16543	0.25789	0.35582
112790	0.25671	0.26691	0.21966	0.33820	0.39849	0.34701	0.92026	0.64010	0.44608	0.33626	0.34409	0.31729	0.38909	0.37669	0.33719	0.16545	0.25462	0.35290	28.63	6.1	0.00	7.44	0.01266	0.01285	0.01639	0.00759	0.00565	0.00620	0.00465	0.01260	0.01676	0.00660	0.00680	0.00861	0.01483	0.01090	0.01191	0.00209	0.00598	0.00843
112950	0.25428	0.26708	0.22059	0.33719	0.39686	0.34787	0.92262	0.64050	0.44771	0.33682	0.34507	0.31689	0.38980	0.37781	0.33737	0.16581	0.25590	0.35384
113110	0.25571	0.26873	0.21869	0.33595	0.39737	0.34731	0.91961	0.64128	0.44609	0.33531	0.34365	0.31711	0.39251	0.37904	0.33613	0.16604	0.25437	0.35314
113280	0.25591	0.27041	0.22101	0.33873	0.39937	0.34850	0.92270	0.64492	0.44902	0.33787	0.34591	0.31931	0.39265	0.38090	0.33968	0.16770	0.25841	0.35534
113440	0.25451	0.26712	0.21626	0.33778	0.39616	0.34673	0.92014	0.64216	0.44644	0.33554	0.34311	0.31650	0.38781	0.37605	0.33581	0.16356	0.25408	0.35190
113600	0.25508	0.26910	0.21870	0.33758	0.39883	0.34892	0.92191	0.64258	0.45041	0.33809	0.34565	0.31838	0.39231	0.38062	0.33714	0.16604	0.25657	0.35467
113770	0.25553	0.26649	0.21703	0.33644	0.39501	0.34491	0.91075	0.63752	0.44423	0.33390	0.34160	0.31658	0.38709	0.37579	0.33555	0.16308	0.25249	0.35039
113930	0.25384	0.26739	0.21923	0.33523	0.39716	0.34747	0.92181	0.64148	0.44793	0.33704	0.34420	0.31841	0.39034	0.38141	0.33762	0.16652	0.25532	0.35353
114090	0.25477	0.26769	0.21771	0.33498	0.39434	0.34462	0.91158	0.63800	0.44429	0.33454	0.34263	0.31581	0.39014	0.37574	0.33691	0.16095	0.25304	0.35124
114260	0.25316	0.26448	0.21531	0.33327	0.39277	0.34293	0.91039	0.63480	0.44121	0.33269	0.33973	0.31383	0.38904	0.37785	0.33690	0.16288	0.25661	0.35494
114420	0.25524	0.26899	0.21813	0.33668	0.39796	0.34677	0.91600	0.64268	0.44697	0.33652	0.34315	0.31708	0.39101	0.37765	0.33595	0.16606	0.25425	0.35229	28.63	6.2	0.00	7.56	0.01266	0.01285	0.01639	0.00759	0.00565	0.00620	0.00465	0.01260	0.01676	0.00660	0.00680	0.00861	0.01483	0.01090	0.01191	0.00209	0.00598	0.00843
114580	0.25440	0.26555	0.21734	0.33306	0.39360	0.34323	0.91709	0.63380	0.44402	0.33323	0.34085	0.31562	0.39221	0.37833	0.33826	0.16871	0.25703	0.35612
114750	0.25491	0.26928	0.21752	0.33670	0.39792	0.34701	0.91874	0.63925	0.44763	0.33720	0.34491	0.31805	0.39235	0.38172	0.33923	0.17222	0.25835	0.35721
114910	0.25897	0.27110	0.22196	0.33856	0.39970	0.34951	0.92590	0.64417	0.45111	0.33941	0.34688	0.32005	0.39145	0.38184	0.33997	0.17108	0.25722	0.35517
115070	0.25573	0.26872	0.21887	0.33701	0.39762	0.34700	0.91567	0.64048	0.44673	0.33641	0.34379	0.31863	0.38934	0.37899	0.33585	0.16571	0.25304	0.35181
115240	0.25491	0.26687	0.22000	0.33398	0.39512	0.34494	0.91077	0.63986	0.44410	0.33500	0.34306	0.31692	0.38930	0.37891	0.33434	0.16642	0.25320	0.35206
115400	0.25547	0.26744	0.21627	0.33367	0.39393	0.34368	0.92347	0.63870	0.44551	0.33463	0.34088	0.31481	0.38950	0.37958	0.33988	0.16819	0.25659	0.35551
115560	0.25612	0.27160	0.21909	0.33722	0.39789	0.34772	0.92173	0.64345	0.44742	0.33670	0.34400	0.31852	0.39118	0.37920	0.33624	0.16756	0.25446	0.35345
115730	0.25359	0.26820	0.21622	0.33441	0.39491	0.34372	0.91653	0.63695	0.44271	0.33440	0.34274	0.31539	0.39274	0.38137	0.33796	0.16934	0.25838	0.35654
115890	0.25831	0.26891	0.21913	0.33867	0.39890	0.34970	0.91638	0.64293	0.44838	0.33731	0.34470	0.31885	0.39306	0.38085	0.33679	0.16804	0.25602	0.35340
116050	0.25637	0.26743	0.21736	0.33488	0.39691	0.34580	0.91604	0.63992	0.44540	0.33426	0.34213	0.31557	0.39084	0.38184	0.33853	0.16955	0.25804	0.35530	28.63	6.1	0.00	7.39	0.01266	0.01285	0.01639	0.00759	0.00565	0.00620	0.00465	0.01260	0.01676	0.00660	0.00680	0.00861	0.01483	0.01090	0.01191	0.00209	0.00598	0.00843
116220	0.25520	0.27110	0.21789	0.33644	0.39779	0.34725	0.91606	0.64217	0.44841	0.33446	0.34321	0.31734	0.39132	0.37881	0.33645	0.16687	0.25473	0.35215
116380	0.25258	0.26716	0.21657	0.33346	0.39450	0.34462	0.91814	0.63654	0.44378	0.33221	0.34051	0.31504	0.39125	0.37778	0.33510	0.16872	0.25544	0.35403
116540	0.25427	0.26814	0.22008	0.33516	0.39714	0.34725	0.91996	0.64042	0.44730	0.33448	0.34191	0.31674	0.38976	0.37739	0.33839	0.16742	0.25459	0.35216
116710	0.25572	0.26617	0.21700	0.33324	0.39493	0.34400	0.91599	0.63787	0.44225	0.33333	0.34138	0.31542	0.38867	0.37934	0.33970	0.16999	0.25717	0.35578
116870	0.25532	0.27173	0.21860	0.33700	0.39841	0.34806	0.91601	0.64372	0.44821	0.33592	0.34467	0.31753	0.39205	0.37818	0.33753	0.16683	0.25524	0.35263
117040	0.25607	0.27047	0.22160	0.33679	0.39979	0.34894	0.91771	0.64482	0.44899	0.33717	0.34492	0.31876	0.39299	0.37897	0.33606	0.16726	0.25667	0.35387
117200	0.25342	0.26970	0.21832	0.33529	0.39778	0.34730	0.91404	0.63908	0.44603	0.33460	0.34445	0.31738	0.39109	0.37825	0.33306	0.16750	0.25401	0.35277
117360	0.25683	0.27118	0.21931	0.33847	0.39983	0.34979	0.91723	0.64633	0.45049	0.33853	0.34639	0.31979	0.39291	0.38040	0.33789	0.17109	0.25814	0.35580
117530	0.25610	0.27120	0.21925	0.33698	0.39865	0.34740	0.91723	0.63962	0.44739	0.33471	0.34288	0.31722	0.38900	0.37763	0.33677	0.16714	0.25444	0.35231
117690	0.25650	0.27270	0.22331	0.34070	0.40263	0.35212	0.92650	0.64736	0.45179	0.33894	0.34865	0.32038	0.39584	0.38085	0.34185	0.17451	0.26045	0.35792	28.63	6.2	0.00	7.39	0.01266	0.01285	0.01639	0.00759	0.00565	0.00620	0.00465	0.01260	0.01676	0.00660	0.00680	0.00861	0.01483	0.01090	0.01191	0.00210	0.00598	0.00843
117850	0.25608	0.26947	0.21950	0.33870	0.40076	0.34897	0.91802	0.64641	0.44745	0.33506	0.34479	0.31728	0.39104	0.37926	0.33683	0.16902	0.25529	0.35312
118020	0.25480	0.26924	0.22081	0.33995	0.40111	0.35129	0.92840	0.64366	0.45275	0.33790	0.34687	0.31955	0.39315	0.38130	0.33890	0.17415	0.25827	0.35640
118180	0.25590	0.26674	0.21911	0.33858	0.39871	0.34861	0.92607	0.64120	0.44641	0.33473	0.34449	0.31708	0.38777	0.37849	0.33485	0.16759	0.25423	0.35251
118340	0.25345	0.26493	0.21568	0.33407	0.39666	0.34527	0.91521	0.64041	0.44548	0.33281	0.34327	0.31469	0.39100	0.37908	0.33790	0.16894	0.25643	0.35547
118500	0.25581	0.26708	0.21757	0.33631	0.39801	0.34758	0.91713	0.64173	0.44716	0.33533	0.34388	0.31625	0.38766	0.37543	0.33527	0.16977	0.25423	0.35236
118670	0.25435	0.26635	0.21703	0.33469	0.39793	0.34703	0.91503	0.63911	0.44832	0.33334	0.34439	0.31589	0.39110	0.37861	0.33851	0.17040	0.25711	0.35515
118830	0.25514	0.26979	0.21932	0.33833	0.39949	0.34966	0.91964	0.64405	0.44770	0.33586	0.34634	0.31812	0.39124	0.37701	0.33678	0.17150	0.25579	0.35422
119000	0.25368	0.27140	0.22218	0.33636	0.40086	0.35040	0.92569	0.64757	0.45108	0.33692	0.34781	0.31979	0.39314	0.37962	0.33973	0.17297	0.25873	0.35655
119160	0.25670	0.27007	0.22029	0.33786	0.39968	0.34868	0.91326	0.64170	0.44610	0.33455	0.34484	0.31688	0.39263	0.37703	0.33812	0.17253	0.25664	0.35500
119320	0.25527	0.26939	0.21967	0.33735	0.39770	0.34840	0.91424	0.63953	0.44613	0.33514	0.34441	0.31669	0.39069	0.37871	0.33742	0.17255	0.25649	0.35419	28.63	6.2	0.00	7.36	0.01266	0.01285	0.01639	0.00759	0.00565	0.00620	0.00465	0.01260	0.01676	0.00660	0.00680	0.00861	0.01483	0.01090	0.01191	0.00210	0.00598	0.00843
119490	0.25301	0.26966	0.21798	0.33630	0.39703	0.34716	0.91894	0.63982	0.44625	0.33365	0.34347	0.31652	0.39470	0.38083	0.33926	0.17417	0.25971	0.35794
119650	0.25705	0.27267	0.21979	0.34008	0.39942	0.35070	0.91697	0.64403	0.44745	0.33597	0.34492	0.31881	0.39048	0.38233	0.33688	0.17452	0.25693	0.35556
119820	0.25682	0.26761	0.21869	0.33766	0.39855	0.34886	0.91601	0.64450	0.44930	0.33621	0.34449	0.31841	0.39150	0.38188	0.33765	0.17105	0.25713	0.35469
119980	0.25559	0.27003	0.21960	0.33741	0.39852	0.34912	0.91727	0.64077	0.44664	0.33454	0.34493	0.31763	0.39016	0.37978	0.33817	0.16994	0.25613	0.35356
120140	0.25794	0.27219	0.22140	0.33875	0.39827	0.35085	0.91925	0.64332	0.44937	0.33629	0.34606	0.31863	0.39271	0.38223	0.33810	0.17405	0.25709	0.35633
120310	0.25687	0.26956	0.22163	0.33799	0.39937	0.34803	0.91381	0.63959	0.44689	0.33403	0.34424	0.31640	0.38838	0.37867	0.33899	0.16808	0.25386	0.35238
120470	0.25657	0.27060	0.22174	0.33732	0.39917	0.34998	0.92180	0.64477	0.44808	0.33577	0.34526	0.31933	0.39543	0.38054	0.33820	0.17496	0.25712	0.35598
120630	0.25343	0.26931	0.21958	0.33592	0.39666	0.34711	0.91117	0.63620	0.44585	0.33304	0.34331	0.31568	0.39006	0.37965	0.33293	0.16769	0.25326	0.35156
120800	0.25503	0.27277	0.22278	0.33798	0.39936	0.35062	0.92816	0.64308	0.45083	0.33719	0.34631	0.31917	0.39596	0.38313	0.33805	0.17342	0.25818	0.35678
120960	0.25592	0.26764	0.22073	0.33655	0.39894	0.34714	0.91599	0.63888	0.44531	0.33456	0.34321	0.31697	0.38910	0.37761	0.33438	0.16831	0.25524	0.35227	28.63	6.0	0.00	7.51	0.01266	0.01285	0.01639	0.00759	0.00565	0.00620	0.00465	0.01260	0.01676	0.00660	0.00680	0.00861	0.01483	0.01090	0.01191	0.00210	0.00598	0.00843
121120	0.25597	0.26989	0.22014	0.33705	0.39999	0.34842	0.92194	0.64385	0.44952	0.33555	0.34528	0.31836	0.39269	0.37817	0.33726	0.17013	0.25681	0.35469
121280	0.25609	0.26904	0.21956	0.33635	0.39898	0.34690	0.92062	0.64152	0.44648	0.33412	0.34281	0.31617	0.38782	0.37708	0.33696	0.16815	0.25528	0.35230
121450	0.25227	0.26628	0.21772	0.33347	0.39496	0.34408	0.91209	0.63726	0.44340	0.33187	0.34034	0.31405	0.39298	0.37886	0.34016	0.17076	0.25950	0.35723
121610	0.25615	0.26807	0.22001	0.33824	0.40016	0.34847	0.91963	0.64489	0.44790	0.33470	0.34344	0.31710	0.39265	0.38058	0.33872	0.17013	0.25661	0.35316
121780	0.25415	0.26736	0.21854	0.33435	0.39609	0.34494	0.91288	0.63936	0.44479	0.33306	0.34191	0.31439	0.39478	0.38435	0.34100	0.17305	0.26060	0.35798
121940	0.25774	0.27128	0.22004	0.33961	0.40059	0.34906	0.92298	0.64458	0.44932	0.33726	0.34512	0.31750	0.39391	0.38143	0.34062	0.17076	0.25732	0.35459
122100	0.25343	0.26857	0.22015	0.33720	0.39858	0.34811	0.92148	0.64319	0.44839	0.33532	0.34345	0.31677	0.39247	0.37940	0.33805	0.16760	0.25659	0.35336
122270	0.25293	0.26634	0.21730	0.33418	0.39590	0.34517	0.91720	0.63794	0.44442	0.33268	0.34118	0.31482	0.39291	0.37981	0.33910	0.17262	0.25979	0.35697
122430	0.25564	0.27187	0.22244	0.33959	0.40223	0.35114	0.92222	0.64552	0.45269	0.33736	0.34533	0.31895	0.39437	0.38423	0.34001	0.17404	0.25928	0.35634
122590	0.25760	0.26738	0.22053	0.33869	0.39927	0.34779	0.91640	0.64186	0.44715	0.33474	0.34380	0.31629	0.39329	0.38250	0.34028	0.17228	0.26005	0.35711	28.63	6.0	0.00	7.36	0.01266	0.01285	0.01639	0.00759	0.00565	0.00620	0.00465	0.01260	0.01676	0.00660	0.00680	0.00861	0.01483	0.01090	0.01191	0.00210	0.00598	0.00843
122760	0.25609	0.27054	0.21984	0.33858	0.40038	0.34835	0.91200	0.64241	0.44722	0.33538	0.34429	0.31826	0.38966	0.37784	0.33757	0.17003	0.25743	0.35433
122920	0.25439	0.26479	0.21784	0.33543	0.39742	0.34590	0.91529	0.63934	0.44357	0.33336	0.34165	0.31499	0.38873	0.37621	0.33386	0.16691	0.25433	0.35128
123080	0.25198	0.26603	0.21776	0.33471	0.39739	0.34808	0.91523	0.64608	0.44683	0.33538	0.34410	0.31717	0.38957	0.37678	0.33836	0.16833	0.25732	0.35438
123240	0.25343	0.26985	0.21688	0.33670	0.39830	0.34721	0.91410	0.63920	0.44587	0.33448	0.34300	0.31662	0.38866	0.37492	0.33571	0.16813	0.25600	0.35389
123410	0.25456	0.26661	0.21709	0.33548	0.39717	0.34532	0.91232	0.63908	0.44280	0.33255	0.34224	0.31480	0.39174	0.38148	0.33853	0.16999	0.26104	0.35866
123570	0.25886	0.26846	0.21921	0.34047	0.40146	0.35114	0.91809	0.64557	0.44868	0.33583	0.34561	0.31762	0.39217	0.38092	0.33766	0.16940	0.25826	0.35554
123730	0.25525	0.26910	0.21871	0.33771	0.39900	0.34868	0.91531	0.64050	0.44628	0.33497	0.34463	0.31702	0.39080	0.37647	0.33611	0.16864	0.25622	0.35421
123900	0.25363	0.26742	0.21740	0.33651	0.39814	0.34705	0.91660	0.63894	0.44584	0.33401	0.34328	0.31519	0.39004	0.37681	0.33575	0.16541	0.25480	0.35203
124060	0.25293	0.26480	0.21479	0.33383	0.39428	0.34432	0.90967	0.63302	0.44189	0.33203	0.34102	0.31273	0.39243	0.37938	0.33935	0.16880	0.25875	0.35675
124230	0.25464	0.26875	0.21857	0.33881	0.39968	0.34824	0.91786	0.64038	0.44612	0.33490	0.34458	0.31626	0.39096	0.37854	0.33565	0.17002	0.25685	0.35365	28.69	6.0	0.00	7.37	0.01266	0.01285	0.01639	0.00759	0.00565	0.00620	0.00465	0.01260	0.01676	0.00660	0.00680	0.00861	0.01483	0.01090	0.01191	0.00210	0.00598	0.00843
124390	0.25671	0.26934	0.21928	0.33799	0.39951	0.34852	0.91981	0.64409	0.44708	0.33520	0.34630	0.31836	0.38906	0.37968	0.33706	0.17101	0.25853	0.35493
124550	0.25534	0.26933	0.21798	0.33693	0.39864	0.34712	0.91260	0.64078	0.44523	0.33494	0.34425	0.31674	0.38938	0.37713	0.33436	0.16714	0.25651	0.35370
124720	0.25674	0.27158	0.21958	0.33954	0.40175	0.35091	0.91897	0.64370	0.44965	0.33703	0.34788	0.31916	0.39295	0.37923	0.33985	0.17275	0.26076	0.35777
124880	0.25555	0.26796	0.21735	0.33812	0.39914	0.34756	0.91611	0.63983	0.44512	0.33410	0.34469	0.31686	0.38897	0.37559	0.33514	0.16872	0.25558	0.35327
125040	0.25613	0.26989	0.21985	0.34005	0.40243	0.35159	0.91396	0.64602	0.44847	0.33758	0.34830	0.31942	0.39262	0.38228	0.33941	0.17389	0.26141	0.35808
125210	0.25760	0.26671	0.21805	0.33838	0.39905	0.34721	0.90726	0.64008	0.44675	0.33441	0.34463	0.31638	0.38841	0.37766	0.33505	0.16927	0.25661	0.35340
125370	0.25396	0.26825	0.21867	0.33850	0.40115	0.35041	0.92432	0.64246	0.44974	0.33669	0.34690	0.31826	0.39190	0.37968	0.33693	0.17263	0.26003	0.35648
125530	0.25475	0.26526	0.21960	0.33733	0.39891	0.34708	0.91824	0.64109	0.44689	0.33363	0.34422	0.31566	0.38790	0.37634	0.33483	0.16951	0.25581	0.35321
125700	0.25114	0.26621	0.21413	0.33449	0.39606	0.34443	0.91012	0.63924	0.44268	0.33270	0.34196	0.31347	0.39202	0.38033	0.34144	0.17322	0.26185	0.35916
125860	0.25855	0.26983	0.22003	0.33956	0.39948	0.34898	0.92469	0.64438	0.44739	0.33566	0.34634	0.31628	0.39142	0.37858	0.33642	0.17205	0.25840	0.35462	28.63	6.2	0.00	7.54	0.01266	0.01285	0.01639	0.00759	0.00565	0.00620	0.00465	0.01260	0.01676	0.00660	0.00680	0.00861	0.01483	0.01090	0.01191	0.00210	0.00598	0.00843
126020	0.25411	0.26719	0.21907	0.33577	0.39659	0.34534	0.91163	0.63589	0.44479	0.33181	0.34369	0.31369	0.39117	0.38156	0.33988	0.17434	0.26105	0.35802
126190	0.25539	0.27040	0.21920	0.33840	0.39908	0.34871	0.92168	0.64283	0.44646	0.33483	0.34503	0.31535	0.39209	0.37995	0.33884	0.17327	0.26049	0.35698
126350	0.25613	0.26942	0.21931	0.33825	0.39963	0.34876	0.92021	0.64172	0.44832	0.33584	0.34631	0.31691	0.39207	0.37966	0.33457	0.17379	0.25819	0.35564
126510	0.25390	0.26698	0.21736	0.33741	0.39729	0.34744	0.92079	0.64143	0.44631	0.33301	0.34489	0.31505	0.39188	0.37937	0.33762	0.17375	0.26059	0.35721
126680	0.25596	0.26909	0.21831	0.33850	0.39809	0.34771	0.91965	0.64146	0.44703	0.33411	0.34550	0.31625	0.39124	0.37852	0.33709	0.17395	0.25899	0.35532
126840	0.25540	0.26954	0.21692	0.33667	0.39670	0.34579	0.92596	0.63953	0.44421	0.33237	0.34533	0.31557	0.39182	0.38140	0.33868	0.17450	0.26115	0.35841
127000	0.25808	0.26972	0.21915	0.34059	0.39941	0.34952	0.91915	0.64330	0.44922	0.33628	0.34603	0.31731	0.39181	0.37953	0.33773	0.17335	0.25994	0.35611
127170	0.25583	0.26789	0.21887	0.33751	0.39747	0.34671	0.92292	0.63926	0.44516	0.33317	0.34432	0.31489	0.39387	0.38076	0.34086	0.17671	0.26184	0.35931
127330	0.25703	0.27115	0.22106	0.34071	0.39991	0.34985	0.92371	0.64382	0.44798	0.33657	0.34679	0.31720	0.39154	0.37833	0.33582	0.17355	0.25887	0.35621
127500	0.25512	0.26594	0.21714	0.33669	0.39696	0.34681	0.91341	0.63815	0.44532	0.33400	0.34278	0.31503	0.39227	0.38208	0.33940	0.17609	0.26199	0.35937	28.63	6.1	0.00	7.40	0.01266	0.01285	0.01638	0.00759	0.00565	0.00620	0.00465	0.01260	0.01676	0.00660	0.00680	0.00861	0.01483	0.01090	0.01191	0.00210	0.00598	0.00843
127660	0.25662	0.26822	0.22169	0.33948	0.39937	0.34975	0.92511	0.64171	0.44892	0.33551	0.34657	0.31673	0.39053	0.37948	0.33559	0.17541	0.25904	0.35495
127820	0.25049	0.26665	0.21784	0.33540	0.39571	0.34573	0.91101	0.63439	0.44553	0.33269	0.34268	0.31372	0.39067	0.38171	0.34084	0.17672	0.26201	0.35896
127990	0.25663	0.26971	0.21839	0.34014	0.39993	0.35056	0.92746	0.64477	0.44885	0.33555	0.34618	0.31711	0.39248	0.37856	0.33844	0.17340	0.25898	0.35533
128150	0.25384	0.26803	0.21891	0.33854	0.39868	0.34932	0.91910	0.64158	0.44712	0.33660	0.34686	0.31797	0.39263	0.37820	0.33820	0.17301	0.25934	0.35603
128310	0.25375	0.26922	0.21983	0.33775	0.39762	0.34875	0.91553	0.64171	0.44746	0.33520	0.34576	0.31649	0.39135	0.37714	0.33715	0.17423	0.25697	0.35400
128480	0.25617	0.27066	0.22159	0.33929	0.40058	0.35106	0.92194	0.64402	0.45178	0.33716	0.34707	0.31849	0.39379	0.38226	0.34070	0.17703	0.26047	0.35683
128640	0.25469	0.26776	0.21944	0.33730	0.39833	0.34736	0.91979	0.63914	0.44597	0.33430	0.34409	0.31590	0.38914	0.37784	0.33778	0.17332	0.25605	0.35315
128800	0.25790	0.27071	0.22050	0.33925	0.39964	0.35039	0.92744	0.64533	0.45025	0.33668	0.34652	0.31793	0.39156	0.38062	0.33927	0.17664	0.25979	0.35718
128970	0.25423	0.26839	0.22016	0.33857	0.39821	0.34797	0.92310	0.64246	0.44596	0.33479	0.34520	0.31555	0.39092	0.37513	0.33533	0.17348	0.25680	0.35365
129130	0.25620	0.26916	0.21900	0.33985	0.40069	0.35189	0.92423	0.64660	0.44886	0.33706	0.34743	0.31880	0.39546	0.37921	0.34078	0.17675	0.26098	0.35717	28.63	6.1	0.00	7.49	0.01266	0.01285	0.01638	0.00759	0.00565	0.00620	0.00465	0.01260	0.01676	0.00660	0.00680	0.00861	0.01483	0.01090	0.01191	0.00210	0.00598	0.00843
129290	0.25460	0.26661	0.21827	0.33890	0.39913	0.34953	0.92418	0.64260	0.44634	0.33464	0.34420	0.31612	0.38872	0.37642	0.33593	0.17221	0.25721	0.35407
129460	0.25372	0.27049	0.21928	0.33914	0.40166	0.35107	0.92509	0.64436	0.45112	0.33605	0.34716	0.31795	0.38803	0.38037	0.33972	0.17663	0.26124	0.35801
129620	0.25551	0.26951	0.21622	0.33757	0.39868	0.34753	0.91486	0.64167	0.44614	0.33330	0.34297	0.31540	0.38861	0.37608	0.33489	0.17110	0.25581	0.35343
129780	0.24944	0.26425	0.21597	0.33482	0.39592	0.34569	0.92127	0.63665	0.44418	0.33187	0.34228	0.31334	0.39048	0.38007	0.33824	0.17252	0.25993	0.35703
129950	0.25428	0.26576	0.21891	0.33792	0.39963	0.34834	0.91355	0.63842	0.44669	0.33393	0.34331	0.31526	0.38939	0.37725	0.33539	0.17079	0.25710	0.35359
130110	0.25183	0.26341	0.21523	0.33465	0.39501	0.34471	0.91745	0.63785	0.44289	0.33101	0.34228	0.31343	0.38859	0.37849	0.33824	0.17438	0.25952	0.35714
130270	0.25427	0.26643	0.21802	0.33835	0.39893	0.34840	0.91595	0.64068	0.44745	0.33416	0.34508	0.31584	0.39252	0.38089	0.33709	0.17560	0.26158	0.35900
130440	0.25594	0.26621	0.21950	0.34026	0.39962	0.34959	0.91621	0.64185	0.44831	0.33563	0.34629	0.31728	0.39145	0.37670	0.33849	0.17588	0.25950	0.35648
130600	0.25583	0.26859	0.22043	0.33910	0.40119	0.35157	0.92408	0.64523	0.45082	0.33698	0.34688	0.31837	0.39290	0.37851	0.33832	0.17715	0.26077	0.35757
130770	0.25384	0.26858	0.21879	0.33845	0.39927	0.34811	0.91856	0.63947	0.44473	0.33411	0.34493	0.31638	0.39181	0.37808	0.33930	0.17390	0.26089	0.35719	28.69	6.1	0.00	7.43	0.01266	0.01285	0.01639	0.00759	0.00565	0.00620	0.00465	0.01260	0.01676	0.00660	0.00680	0.00861	0.01483	0.01090	0.01191	0.00210	0.00598	0.00843
130930	0.25586	0.26781	0.21921	0.33945	0.40002	0.34905	0.91881	0.64274	0.44700	0.33433	0.34562	0.31734	0.39293	0.37817	0.33842	0.17481	0.26093	0.35701
131100	0.25552	0.26870	0.21885	0.33852	0.39862	0.34754	0.90938	0.64165	0.44420	0.33317	0.34472	0.31557	0.39437	0.38272	0.34026	0.17595	0.26336	0.36047
131260	0.25780	0.27150	0.21917	0.34158	0.40215	0.35151	0.91950	0.64260	0.44972	0.33656	0.34696	0.31934	0.39312	0.38116	0.33819	0.17579	0.26054	0.35712
131420	0.25814	0.26937	0.22179	0.34098	0.40253	0.35248	0.92228	0.64496	0.45128	0.33768	0.34837	0.31973	0.39425	0.38270	0.34226	0.17659	0.26317	0.35948
131590	0.25574	0.26809	0.21916	0.33989	0.40061	0.34911	0.91813	0.64403	0.44537	0.33529	0.34594	0.31730	0.39126	0.37898	0.33832	0.17611	0.26093	0.35742
131750	0.25576	0.27000	0.22039	0.34004	0.40018	0.34977	0.91398	0.64177	0.44708	0.33557	0.34644	0.31775	0.39219	0.37851	0.33777	0.17192	0.26045	0.35665
131910	0.25313	0.26751	0.21715	0.33790	0.39962	0.34797	0.91454	0.63741	0.44475	0.33449	0.34545	0.31681	0.39314	0.38057	0.34075	0.17647	0.26357	0.36076
132080	0.25678	0.26945	0.21975	0.34200	0.40260	0.35033	0.91297	0.64289	0.44894	0.33637	0.34826	0.31847	0.39079	0.38010	0.33503	0.17536	0.26152	0.35795
132240	0.25487	0.26875	0.22121	0.33970	0.40138	0.35182	0.92221	0.64554	0.44926	0.33738	0.34784	0.31869	0.39230	0.38071	0.33921	0.17497	0.26229	0.35840
132410	0.25428	0.27120	0.21974	0.34050	0.40134	0.35083	0.91623	0.64218	0.44846	0.33638	0.34729	0.31872	0.38990	0.37554	0.33657	0.17268	0.26027	0.35607	28.63	6.0	0.00	7.43	0.01266	0.01285	0.01639	0.00759	0.00565	0.00620	0.00465	0.01260	0.01676	0.00660	0.00680	0.00861	0.01483	0.01090	0.01191	0.00210	0.00598	0.00843
132570	0.25816	0.26999	0.22274	0.34216	0.40383	0.35344	0.92560	0.64767	0.45165	0.33920	0.35019	0.32081	0.39401	0.38031	0.33952	0.17750	0.26265	0.35890
132730	0.25538	0.26776	0.21922	0.33984	0.40009	0.34945	0.91778	0.64088	0.44718	0.33490	0.34640	0.31763	0.39267	0.37865	0.33929	0.17173	0.26071	0.35811
132900	0.25343	0.27007	0.21897	0.33935	0.40053	0.35039	0.91694	0.64293	0.44657	0.33532	0.34724	0.31794	0.38993	0.37773	0.33515	0.17162	0.25902	0.35669
133060	0.25259	0.26761	0.21625	0.33816	0.39942	0.34823	0.91601	0.63785	0.44280	0.33430	0.34532	0.31610	0.39081	0.37848	0.34038	0.17339	0.26195	0.35922
133230	0.25420	0.27025	0.22074	0.34090	0.40199	0.35059	0.92241	0.64081	0.44688	0.33548	0.34719	0.31787	0.39125	0.37956	0.33840	0.17292	0.26281	0.36021
133390	0.25642	0.27222	0.21996	0.34248	0.40378	0.35200	0.92383	0.64112	0.44882	0.33767	0.34893	0.31960	0.39309	0.38023	0.33741	0.17501	0.26035	0.35732
133550	0.25200	0.26668	0.21865	0.33839	0.39919	0.34814	0.91398	0.63780	0.44596	0.33373	0.34574	0.31674	0.39031	0.38310	0.34235	0.17612	0.26335	0.36067
133720	0.25692	0.27008	0.22208	0.34309	0.40224	0.35166	0.91960	0.64189	0.44910	0.33578	0.34662	0.31925	0.39288	0.37914	0.33866	0.17244	0.25937	0.35680
133880	0.25643	0.26911	0.21791	0.33771	0.39798	0.34721	0.90900	0.63650	0.44436	0.33137	0.34336	0.31521	0.39281	0.38023	0.33949	0.17225	0.26050	0.35826
134050	0.25631	0.26914	0.22233	0.34020	0.40107	0.34990	0.92041	0.64376	0.44926	0.33458	0.34503	0.31763	0.39026	0.38030	0.33715	0.16872	0.25781	0.35549	28.63	6.3	0.00	7.41	0.01266	0.01285	0.01639	0.00759	0.00565	0.00620	0.00465	0.01260	0.01676	0.00660	0.00680	0.00861	0.01483	0.01090	0.01191	0.00210	0.00598	0.00843
134210	0.25433	0.26602	0.21742	0.33619	0.39608	0.34532	0.91487	0.64052	0.44431	0.33159	0.34320	0.31538	0.39002	0.37897	0.34055	0.17224	0.25991	0.35762
134370	0.25568	0.26950	0.22171	0.34049	0.40048	0.34924	0.91960	0.64141	0.44912	0.33539	0.34488	0.31796	0.39040	0.38035	0.33601	0.17046	0.25800	0.35578
134530	0.25378	0.26798	0.21688	0.33686	0.39700	0.34665	0.91619	0.63922	0.44499	0.33207	0.34412	0.31599	0.39237	0.38100	0.33727	0.17074	0.26016	0.35806
134700	0.25575	0.26950	0.21934	0.34012	0.39931	0.34908	0.92029	0.64141	0.44668	0.33505	0.34545	0.31767	0.39148	0.37867	0.33746	0.17026	0.25884	0.35667
134860	0.25399	0.26768	0.21884	0.33882	0.39933	0.34836	0.91748	0.64076	0.44457	0.33439	0.34579	0.31729	0.39224	0.38047	0.33997	0.17295	0.26265	0.36008
135020	0.25779	0.26777	0.21946	0.34206	0.40199	0.35181	0.91462	0.64337	0.44710	0.33689	0.34771	0.31976	0.39240	0.37848	0.33602	0.17398	0.26056	0.35842
135190	0.25410	0.26698	0.21880	0.33914	0.40012	0.34959	0.91816	0.63673	0.44279	0.33506	0.34522	0.31675	0.39357	0.38284	0.33965	0.17390	0.26269	0.36065
135350	0.25599	0.27258	0.22088	0.34265	0.40298	0.35303	0.92459	0.64418	0.44867	0.33761	0.34792	0.31913	0.39325	0.37861	0.33618	0.17259	0.25983	0.35748
135520	0.25832	0.27052	0.22053	0.34226	0.40268	0.35250	0.92543	0.64587	0.45139	0.33789	0.34831	0.32062	0.39368	0.37780	0.33795	0.17414	0.26081	0.35947
135680	0.25573	0.27060	0.21936	0.34111	0.40136	0.35114	0.92067	0.64303	0.44853	0.33750	0.34815	0.31953	0.39206	0.37766	0.33833	0.17269	0.25989	0.35726	28.69	5.9	0.00	7.42	0.01266	0.01285	0.01639	0.00759	0.00565	0.00620	0.00465	0.01260	0.01676	0.00660	0.00680	0.00861	0.01483	0.01090	0.01191	0.00210	0.00598	0.00843
135840	0.25715	0.27197	0.22393	0.34310	0.40435	0.35469	0.92288	0.64851	0.45303	0.34117	0.35097	0.32263	0.39507	0.38471	0.34105	0.17810	0.26432	0.36155
136010	0.25860	0.27070	0.22152	0.34308	0.40156	0.35155	0.92323	0.64458	0.44850	0.33886	0.34838	0.32061	0.39324	0.38031	0.34084	0.17478	0.26341	0.36072
136170	0.25804	0.27096	0.22130	0.34161	0.40221	0.35274	0.92538	0.64529	0.44929	0.33915	0.34929	0.32102	0.39315	0.38003	0.33713	0.17218	0.25950	0.35690
136330	0.25367	0.26616	0.21868	0.34004	0.39926	0.34870	0.92295	0.63779	0.44583	0.33704	0.34651	0.31877	0.39322	0.37893	0.33745	0.17486	0.26183	0.35988
136500	0.25534	0.26903	0.21913	0.34128	0.40146	0.35123	0.91931	0.64373	0.44891	0.33861	0.34690	0.31957	0.39129	0.37697	0.33848	0.17150	0.26070	0.35770
136660	0.25357	0.26886	0.21964	0.33867	0.39926	0.34864	0.91713	0.63985	0.44681	0.33684	0.34697	0.31823	0.39286	0.38171	0.34062	0.17459	0.26382	0.36161
136830	0.25666	0.26973	0.21972	0.34233	0.40131	0.35069	0.91926	0.64233	0.44892	0.33783	0.34687	0.31938	0.39102	0.38031	0.33962	0.17316	0.26103	0.35967
136990	0.25838	0.27157	0.21997	0.34145	0.40265	0.35198	0.92488	0.64454	0.45068	0.33948	0.34917	0.32090	0.39169	0.38072	0.33811	0.17522	0.26082	0.35959
137150	0.25547	0.26898	0.22034	0.34145	0.40040	0.35048	0.92052	0.64082	0.44620	0.33716	0.34677	0.32008	0.39599	0.38314	0.34165	0.17739	0.26516	0.36352
137320	0.26032	0.27348	0.22295	0.34699	0.40501	0.35492	0.92205	0.64351	0.45211	0.34089	0.35001	0.32148	0.39251	0.38437	0.34014	0.17737	0.26265	0.36063	28.63	6.1	0.00	7.83	0.01266	0.01285	0.01638	0.00759	0.00565	0.00620	0.00465	0.01260	0.01676	0.00660	0.00680	0.00861	0.01483	0.01090	0.01191	0.00210	0.00598	0.00843
137480	0.25673	0.27057	0.22132	0.34218	0.40112	0.35328	0.92251	0.64203	0.44863	0.33924	0.34807	0.32021	0.39254	0.38180	0.34108	0.17413	0.26072	0.35954
137640	0.25449	0.26883	0.21894	0.34023	0.40013	0.35127	0.91535	0.64233	0.44769	0.33862	0.34664	0.31911	0.39058	0.37718	0.33742	0.17290	0.25834	0.35644
137810	0.25387	0.26685	0.21969	0.33881	0.40109	0.35195	0.91737	0.64114	0.44784	0.33938	0.34738	0.31969	0.39181	0.37850	0.33962	0.17357	0.25951	0.35779
137970	0.25462	0.27025	0.21947	0.33992	0.40001	0.35059	0.92160	0.64134	0.44824	0.33813	0.34693	0.31829	0.38954	0.37984	0.33693	0.17275	0.25878	0.35708
138140	0.25527	0.26927	0.22237	0.34262	0.40314	0.35397	0.92200	0.64749	0.45140	0.34121	0.34845	0.32094	0.39461	0.38248	0.34029	0.17670	0.26208	0.36130
138300	0.25432	0.26978	0.22166	0.34106	0.39995	0.35089	0.92370	0.64236	0.44817	0.33932	0.34753	0.31883	0.38991	0.38042	0.33703	0.17164	0.25862	0.35675
138460	0.25526	0.27261	0.22143	0.34293	0.40310	0.35423	0.92264	0.64727	0.45008	0.34119	0.34931	0.32075	0.39283	0.38288	0.33766	0.17768	0.26298	0.36123
138630	0.25732	0.27038	0.21991	0.34186	0.40076	0.35104	0.92213	0.64209	0.44933	0.33771	0.34602	0.31870	0.39025	0.37891	0.33847	0.17389	0.25760	0.35650
138790	0.25881	0.27096	0.22020	0.34268	0.40264	0.35210	0.92292	0.64402	0.44918	0.33958	0.34750	0.32012	0.39123	0.38102	0.33951	0.17693	0.25988	0.35736
138950	0.25499	0.26806	0.21840	0.34012	0.39891	0.34994	0.91751	0.63970	0.44553	0.33559	0.34461	0.31679	0.38904	0.37673	0.33573	0.17095	0.25742	0.35402	28.69	6.0	0.00	7.47	0.01266	0.01285	0.01638	0.00759	0.00565	0.00620	0.00465	0.01260	0.01676	0.00660	0.00680	0.00861	0.01483	0.01090	0.01191	0.00210	0.00598	0.00843
139120	0.25337	0.26960	0.21860	0.34077	0.40133	0.35209	0.92829	0.64202	0.44683	0.33922	0.34705	0.31886	0.39178	0.38128	0.33896	0.17636	0.25932	0.35786
139280	0.25454	0.26728	0.21946	0.33964	0.39973	0.35048	0.92135	0.64014	0.44471	0.33658	0.34637	0.31808	0.38987	0.37902	0.33712	0.17194	0.25848	0.35544
139440	0.25295	0.26818	0.21822	0.34011	0.39965	0.35148	0.91984	0.64065	0.44715	0.33808	0.34644	0.31891	0.38964	0.38188	0.33354	0.17186	0.25920	0.35615
139610	0.25547	0.26830	0.21883	0.33898	0.39855	0.34917	0.91455	0.63955	0.44485	0.33585	0.34455	0.31683	0.39156	0.37735	0.33789	0.17060	0.25626	0.35493
139770	0.25151	0.26584	0.21677	0.33696	0.39616	0.34698	0.91989	0.63682	0.44377	0.33473	0.34206	0.31446	0.39140	0.38272	0.34081	0.17727	0.26161	0.35976
139930	0.25584	0.26746	0.21956	0.34069	0.39972	0.35007	0.92338	0.64208	0.44718	0.33742	0.34597	0.31833	0.38942	0.37955	0.33759	0.17139	0.25785	0.35549
140100	0.25365	0.26995	0.21956	0.34069	0.40058	0.35191	0.91280	0.64247	0.44724	0.33912	0.34626	0.31934	0.39286	0.37996	0.33691	0.17510	0.25998	0.35766
140260	0.25594	0.26711	0.21777	0.33899	0.39889	0.34948	0.92574	0.64016	0.44569	0.33528	0.34449	0.31743	0.38949	0.37751	0.33353	0.17261	0.25707	0.35399
140420	0.25411	0.26812	0.22095	0.34052	0.40123	0.35284	0.92257	0.64420	0.44894	0.33930	0.34711	0.32008	0.39327	0.38119	0.34182	0.17775	0.26144	0.35876
140590	0.25326	0.26790	0.21815	0.33965	0.39900	0.34921	0.91874	0.64013	0.44652	0.33549	0.34497	0.31707	0.39231	0.37976	0.34085	0.17542	0.26195	0.35948	28.63	6.0	0.00	6.79	0.01266	0.01285	0.01638	0.00759	0.00565	0.00620	0.00465	0.01260	0.01676	0.00660	0.00680	0.00861	0.01483	0.01090	0.01191	0.00210	0.00598	0.00843
140750	0.25562	0.26842	0.22075	0.34217	0.40261	0.35262	0.92332	0.64385	0.44840	0.33904	0.34682	0.31948	0.39409	0.38271	0.33867	0.17665	0.26060	0.35831
140910	0.25321	0.26831	0.21730	0.33937	0.39866	0.34793	0.91145	0.64129	0.44496	0.33584	0.34437	0.31709	0.39039	0.37948	0.33867	0.17376	0.25966	0.35763
141080	0.25524	0.26731	0.21764	0.34016	0.39978	0.34948	0.91786	0.64069	0.44675	0.33695	0.34497	0.31760	0.38825	0.37953	0.33594	0.17333	0.25690	0.35497
141240	0.25187	0.26464	0.21672	0.33777	0.39712	0.34786	0.91489	0.63980	0.44461	0.33560	0.34430	0.31613	0.38720	0.37886	0.33594	0.17270	0.25482	0.35341
141400	0.25172	0.26647	0.21886	0.33692	0.39874	0.34984	0.92467	0.64426	0.44597	0.33718	0.34645	0.31893	0.38954	0.37566	0.33436	0.17436	0.25865	0.35660
141570	0.25439	0.26793	0.21672	0.33921	0.39908	0.34821	0.92380	0.63959	0.44624	0.33688	0.34558	0.31642	0.38828	0.37820	0.33438	0.17274	0.25684	0.35496
141730	0.25198	0.26766	0.21961	0.33874	0.39967	0.35038	0.92249	0.64014	0.45003	0.33844	0.34786	0.31941	0.39060	0.38004	0.33810	0.17578	0.26009	0.35832
141890	0.25162	0.26616	0.21931	0.33880	0.39896	0.34889	0.91021	0.63834	0.44373	0.33607	0.34414	0.31713	0.39005	0.37685	0.33391	0.17384	0.25832	0.35555
142060	0.25522	0.27029	0.22072	0.34336	0.40188	0.35303	0.92852	0.64484	0.44849	0.33962	0.34821	0.32082	0.39475	0.38250	0.33978	0.17515	0.26137	0.35931
142220	0.25554	0.26884	0.21627	0.33979	0.39853	0.34800	0.91983	0.63975	0.44409	0.33687	0.34422	0.31779	0.39091	0.38148	0.33774	0.17348	0.26066	0.35842	28.69	6.1	0.00	7.40	0.01266	0.01285	0.01638	0.00759	0.00565	0.00620	0.00465	0.01260	0.01676	0.00660	0.00680	0.00861	0.01483	0.01090	0.01191	0.00210	0.00598	0.00843
142380	0.25366	0.27010	0.21784	0.34112	0.40034	0.34929	0.91776	0.63800	0.44385	0.33777	0.34454	0.31847	0.39218	0.37923	0.33657	0.17068	0.25966	0.35730
142550	0.25457	0.26600	0.21673	0.33855	0.39867	0.34776	0.91411	0.63770	0.44389	0.33593	0.34467	0.31702	0.38914	0.37926	0.33990	0.17455	0.26127	0.35977
142710	0.25490	0.26887	0.22095	0.34030	0.40059	0.35130	0.92074	0.64359	0.44697	0.33810	0.34619	0.31918	0.39149	0.37904	0.33875	0.17170	0.25769	0.35584
142880	0.25443	0.26545	0.21744	0.33840	0.39781	0.34732	0.91689	0.63778	0.44311	0.33554	0.34379	0.31623	0.39060	0.38251	0.34175	0.17546	0.26351	0.36199
143040	0.25772	0.26947	0.22049	0.34321	0.40151	0.35120	0.92074	0.64353	0.44856	0.33906	0.34634	0.32045	0.39130	0.37986	0.33829	0.17308	0.26051	0.35830
143200	0.25618	0.27175	0.22126	0.34235	0.40174	0.35223	0.91960	0.64155	0.44826	0.34011	0.34788	0.32030	0.39212	0.38112	0.33849	0.17569	0.26052	0.35935
143370	0.25329	0.26677	0.21855	0.33978	0.39927	0.34941	0.91935	0.63914	0.44550	0.33805	0.34594	0.31880	0.39129	0.37694	0.33689	0.17233	0.25718	0.35589
143530	0.25688	0.27128	0.22162	0.34299	0.40385	0.35425	0.91978	0.64559	0.45114	0.34173	0.34839	0.32156	0.39388	0.38368	0.33874	0.17739	0.26351	0.36121
143690	0.25541	0.27007	0.22116	0.34187	0.40061	0.35175	0.91932	0.64282	0.44699	0.33970	0.34560	0.31930	0.39201	0.38048	0.33561	0.17229	0.26103	0.35827
143860	0.25393	0.26865	0.21796	0.34036	0.39912	0.35044	0.91392	0.64023	0.44484	0.33780	0.34463	0.31788	0.38989	0.37718	0.33622	0.17154	0.25776	0.35600	28.69	6.2	0.00	7.37	0.01266	0.01285	0.01638	0.00759	0.00565	0.00620	0.00465	0.01260	0.01676	0.00660	0.00680	0.00861	0.01483	0.01090	0.01191	0.00210	0.00598	0.00843
144020	0.25149	0.26605	0.21725	0.33976	0.39832	0.34843	0.91944	0.63826	0.44489	0.33680	0.34550	0.31819	0.38879	0.37813	0.33523	0.17273	0.25735	0.35567
144180	0.25409	0.26953	0.22002	0.34221	0.40164	0.35212	0.92263	0.64285	0.44928	0.33979	0.34701	0.32031	0.39206	0.38210	0.33911	0.17553	0.26113	0.35946
144350	0.25511	0.26637	0.21760	0.34085	0.39925	0.34897	0.91926	0.63865	0.44754	0.33684	0.34505	0.31707	0.39382	0.38156	0.33963	0.17830	0.26238	0.36137
144510	0.25551	0.27051	0.22270	0.34380	0.40243	0.35290	0.92293	0.64613	0.45024	0.34011	0.34787	0.32073	0.39246	0.37923	0.33978	0.17660	0.26105	0.35950
144670	0.25333	0.26783	0.21829	0.34020	0.39882	0.34957	0.91637	0.63928	0.44462	0.33724	0.34457	0.31779	0.38986	0.38013	0.33846	0.17376	0.26062	0.35943
144840	0.25441	0.26891	0.21881	0.34140	0.40039	0.35040	0.91746	0.63984	0.44699	0.33810	0.34618	0.31885	0.38867	0.37815	0.34041	0.17143	0.25854	0.35664
145000	0.25207	0.26638	0.21814	0.33944	0.39879	0.34825	0.91220	0.64135	0.44599	0.33664	0.34432	0.31683	0.39058	0.37802	0.33545	0.17068	0.25627	0.35469
145160	0.25143	0.26479	0.21847	0.33743	0.39928	0.35118	0.92785	0.64263	0.44861	0.33948	0.34688	0.31980	0.39094	0.38256	0.33843	0.17621	0.25997	0.35795
145330	0.25475	0.26890	0.21892	0.34046	0.39862	0.34970	0.91597	0.63932	0.44718	0.33702	0.34476	0.31722	0.38676	0.37921	0.33656	0.17135	0.25713	0.35551
145490	0.25198	0.26584	0.21853	0.33767	0.39993	0.35080	0.92145	0.64233	0.44882	0.33865	0.34668	0.32024	0.39195	0.38101	0.34075	0.17564	0.26081	0.35797	28.69	6.1	0.00	7.51	0.01266	0.01285	0.01638	0.00759	0.00565	0.00620	0.00465	0.01260	0.01676	0.00660	0.00680	0.00861	0.01483	0.01090	0.01191	0.00210	0.00598	0.00843
145650	0.25286	0.26867	0.21812	0.33891	0.39895	0.34880	0.91591	0.64017	0.44657	0.33674	0.34229	0.31644	0.38943	0.37824	0.33415	0.17098	0.25591	0.35420
145820	0.25504	0.27091	0.22166	0.34167	0.40254	0.35240	0.92492	0.64794	0.45047	0.34017	0.34699	0.32007	0.39552	0.38238	0.33918	0.17793	0.26276	0.35930
145980	0.25510	0.26584	0.22045	0.34035	0.39973	0.34959	0.91515	0.63949	0.44571	0.33756	0.34392	0.31795	0.39041	0.38036	0.33784	0.17331	0.25820	0.35527
146140	0.25592	0.26977	0.22108	0.34131	0.40203	0.35173	0.91186	0.64486	0.44878	0.33988	0.34616	0.31957	0.39169	0.38274	0.33762	0.17892	0.26132	0.35832
146310	0.25351	0.27054	0.21807	0.33967	0.39930	0.34950	0.91793	0.63890	0.44391	0.33766	0.34474	0.31647	0.38842	0.37625	0.33481	0.17224	0.25689	0.35413
146470	0.25533	0.26922	0.22169	0.34041	0.40173	0.35096	0.91363	0.64083	0.44713	0.33943	0.34583	0.31915	0.39234	0.37995	0.33719	0.17607	0.26092	0.35672
146630	0.25316	0.26720	0.21811	0.33864	0.39895	0.34815	0.90708	0.64111	0.44399	0.33627	0.34325	0.31699	0.38748	0.37755	0.33395	0.17184	0.25686	0.35412
146800	0.25229	0.26599	0.21511	0.33495	0.39553	0.34552	0.90697	0.63689	0.44116	0.33401	0.34127	0.31473	0.39064	0.38248	0.33941	0.17781	0.26210	0.35853
146960	0.25617	0.26923	0.22004	0.34082	0.40034	0.34997	0.91515	0.63917	0.44737	0.33782	0.34577	0.31809	0.39036	0.37999	0.33636	0.17378	0.25883	0.35619
147120	0.25362	0.26511	0.21637	0.33675	0.39594	0.34501	0.91477	0.63799	0.44304	0.33635	0.34233	0.31578	0.39127	0.38082	0.33945	0.17524	0.26390	0.36112	28.69	6.1	0.00	7.39	0.01266	0.01285	0.01638	0.00759	0.00565	0.00620	0.00465	0.01260	0.01676	0.00660	0.00680	0.00861	0.01483	0.01090	0.01191	0.00210	0.00598	0.00843
147290	0.25740	0.27074	0.22021	0.34218	0.40193	0.35009	0.92089	0.64277	0.44849	0.34071	0.34704	0.32074	0.39152	0.38013	0.33725	0.17627	0.26068	0.35754
147450	0.25535	0.27023	0.22076	0.34222	0.40230	0.35168	0.91786	0.64537	0.44972	0.34059	0.34728	0.32104	0.39144	0.38083	0.33745	0.17540	0.26245	0.35863
147610	0.25417	0.26802	0.21906	0.33975	0.39919	0.34800	0.91358	0.63610	0.44623	0.33814	0.34433	0.31886	0.38919	0.37685	0.33341	0.17204	0.25777	0.35470
147780	0.25339	0.26908	0.22044	0.34184	0.40167	0.35097	0.92654	0.64624	0.45040	0.34101	0.34676	0.32164	0.39244	0.38262	0.33911	0.17757	0.26276	0.35938
147940	0.25357	0.26887	0.21733	0.34059	0.39909	0.34891	0.91419	0.64230	0.44659	0.33854	0.34522	0.31900	0.38934	0.37866	0.33693	0.17244	0.25945	0.35575
148100	0.25495	0.26917	0.22042	0.34135	0.40210	0.35073	0.91629	0.63937	0.44992	0.34145	0.34749	0.32128	0.39053	0.38205	0.33925	0.17568	0.26145	0.35845
148270	0.25206	0.26942	0.21638	0.33993	0.40056	0.34811	0.91606	0.64012	0.44683	0.33809	0.34464	0.31939	0.38795	0.37747	0.33473	0.17188	0.25769	0.35497
148430	0.24947	0.26432	0.21606	0.33652	0.39584	0.34440	0.91019	0.63531	0.44119	0.33504	0.34244	0.31610	0.38947	0.37877	0.33777	0.17177	0.25920	0.35697
148590	0.25223	0.26741	0.21813	0.33869	0.39955	0.34804	0.91408	0.64071	0.44614	0.33835	0.34512	0.31889	0.38961	0.37965	0.33800	0.17686	0.26206	0.35873
148760	0.25431	0.26851	0.21938	0.34033	0.39903	0.34988	0.91987	0.63938	0.44622	0.33838	0.34580	0.31815	0.38939	0.38077	0.33732	0.17339	0.25996	0.35766	28.69	6.2	0.00	7.43	0.01266	0.01285	0.01638	0.00759	0.00565	0.00620	0.00465	0.01260	0.01676	0.00660	0.00680	0.00861	0.01483	0.01090	0.01191	0.00210	0.00598	0.00843
148920	0.25171	0.26766	0.21716	0.33979	0.39847	0.34818	0.91880	0.63833	0.44598	0.33816	0.34586	0.31855	0.39273	0.38208	0.34030	0.17809	0.26298	0.36103
149090	0.25591	0.26913	0.21951	0.34298	0.40103	0.35088	0.92078	0.64250	0.44866	0.34023	0.34696	0.32086	0.39288	0.38006	0.34004	0.17564	0.26161	0.35901
149250	0.25434	0.26955	0.21861	0.34027	0.39976	0.35141	0.92356	0.64524	0.44791	0.34030	0.34704	0.32094	0.39330	0.38020	0.33869	0.17540	0.26122	0.35897
149410	0.25441	0.26753	0.21892	0.34121	0.40027	0.35011	0.92118	0.63922	0.44663	0.33964	0.34498	0.32012	0.38964	0.37926	0.33788	0.17374	0.25934	0.35643
149580	0.25671	0.26889	0.22171	0.34343	0.40185	0.35250	0.92643	0.64250	0.44871	0.34181	0.34790	0.32240	0.39391	0.38183	0.34129	0.17738	0.26209	0.36049
149740	0.25529	0.26758	0.21777	0.34189	0.39966	0.34929	0.91546	0.63815	0.44529	0.33865	0.34437	0.31930	0.39031	0.38042	0.33757	0.17141	0.25820	0.35549
149900	0.25642	0.26992	0.22030	0.34356	0.40260	0.35288	0.91956	0.64285	0.45029	0.34238	0.34882	0.32252	0.39262	0.38403	0.34121	0.17761	0.26294	0.36083
150070	0.25644	0.26794	0.21888	0.34289	0.40096	0.34982	0.91847	0.63946	0.44488	0.33993	0.34640	0.32024	0.38799	0.37906	0.33533	0.17287	0.25883	0.35688
150230	0.25425	0.27077	0.21912	0.34331	0.40184	0.35244	0.91308	0.64343	0.44766	0.34197	0.34670	0.32191	0.39099	0.38213	0.34051	0.17532	0.26180	0.36030
150390	0.25430	0.26707	0.21862	0.34109	0.39952	0.34938	0.91278	0.63809	0.44462	0.33952	0.34508	0.31915	0.38997	0.37767	0.33430	0.16991	0.25752	0.35523	28.63	6.3	0.00	7.40	0.01266	0.01285	0.01638	0.00759	0.00565	0.00620	0.00465	0.01260	0.01676	0.00660	0.00680	0.00861	0.01483	0.01090	0.01191	0.00209	0.00598	0.00843
150560	0.24881	0.26679	0.21443	0.33723	0.39636	0.34624	0.90980	0.63384	0.44243	0.33692	0.34301	0.31767	0.39089	0.38399	0.34079	0.17674	0.26473	0.36216
150720	0.25625	0.26961	0.21864	0.34326	0.40152	0.35227	0.91579	0.64325	0.44715	0.34089	0.34749	0.32097	0.39084	0.38095	0.33715	0.17299	0.26099	0.35932
150880	0.25303	0.26808	0.21678	0.34020	0.39804	0.34859	0.90861	0.63773	0.44346	0.33833	0.34368	0.31830	0.39462	0.37982	0.34400	0.17556	0.26478	0.36271
151050	0.25709	0.27106	0.21967	0.34446	0.40186	0.35323	0.91832	0.63911	0.44820	0.34115	0.34709	0.32158	0.39262	0.37901	0.33677	0.17564	0.26154	0.35862
151210	0.25433	0.27109	0.22098	0.34256	0.40126	0.35190	0.91696	0.64321	0.44865	0.34197	0.34690	0.32194	0.39095	0.38113	0.33599	0.17188	0.26144	0.35876
151370	0.25439	0.26832	0.21840	0.34033	0.39979	0.34989	0.91901	0.63893	0.44378	0.33989	0.34604	0.32032	0.38989	0.37901	0.33573	0.17090	0.25920	0.35625
151540	0.25245	0.26700	0.21777	0.33792	0.39597	0.34731	0.91701	0.63814	0.44316	0.33737	0.34405	0.31778	0.39025	0.38279	0.33716	0.17307	0.26331	0.36167
151700	0.25619	0.26990	0.21853	0.34322	0.40126	0.35131	0.92354	0.64155	0.44634	0.34148	0.34639	0.32140	0.39171	0.37839	0.33605	0.17161	0.25968	0.35793
151860	0.25442	0.26867	0.22127	0.34221	0.40085	0.35225	0.91827	0.64197	0.44849	0.34222	0.34840	0.32219	0.39390	0.38004	0.33883	0.17248	0.26086	0.35912
152030	0.25509	0.26799	0.21844	0.33988	0.39958	0.34870	0.91471	0.63963	0.44454	0.33921	0.34514	0.32029	0.39229	0.37996	0.33975	0.17553	0.26262	0.35972	28.69	6.0	0.00	7.43	0.01266	0.01285	0.01638	0.00759	0.00565	0.00620	0.00465	0.01260	0.01676	0.00660	0.00680	0.00861	0.01483	0.01090	0.01191	0.00209	0.00598	0.00843
152190	0.25535	0.27084	0.22026	0.34224	0.40140	0.35210	0.91881	0.64267	0.44883	0.34134	0.34803	0.32253	0.39280	0.37916	0.33831	0.17355	0.26083	0.35825
152350	0.25471	0.26787	0.21684	0.33955	0.39754	0.34769	0.91783	0.63912	0.44422	0.33778	0.34456	0.31921	0.38955	0.37773	0.33673	0.17161	0.26135	0.35810
152520	0.25418	0.26863	0.21745	0.34011	0.39951	0.34932	0.91861	0.63983	0.44608	0.33848	0.34443	0.32048	0.38976	0.37610	0.33693	0.17047	0.25822	0.35547
152680	0.25415	0.26952	0.21804	0.33837	0.39678	0.34747	0.91545	0.63799	0.44367	0.33762	0.34449	0.32010	0.38879	0.37712	0.33828	0.16818	0.25714	0.35402
152840	0.25192	0.26879	0.21929	0.33705	0.39892	0.35018	0.92198	0.64312	0.44818	0.34251	0.34848	0.32266	0.39292	0.38041	0.33950	0.17324	0.26115	0.35863
153010	0.25459	0.27039	0.21929	0.33931	0.39788	0.34830	0.91919	0.63786	0.44511	0.33829	0.34496	0.31912	0.38844	0.37735	0.33572	0.16735	0.25687	0.35515
153170	0.25190	0.27011	0.22235	0.33707	0.39981	0.35142	0.92064	0.64486	0.44963	0.34252	0.34851	0.32299	0.39653	0.38306	0.34272	0.17276	0.26273	0.36011
153330	0.25693	0.26992	0.21914	0.34093	0.39965	0.34900	0.91335	0.64093	0.44719	0.33927	0.34572	0.32093	0.38946	0.37927	0.33517	0.16964	0.25816	0.35528
153500	0.25520	0.27060	0.22059	0.34179	0.40120	0.35210	0.91884	0.64394	0.44932	0.34272	0.34782	0.32229	0.39184	0.38170	0.33834	0.17395	0.26189	0.35894
153660	0.25299	0.26912	0.21943	0.34093	0.39898	0.34829	0.91632	0.64123	0.44708	0.33880	0.34443	0.32027	0.38804	0.37706	0.33669	0.16908	0.25757	0.35462	28.69	6.3	0.00	7.53	0.01266	0.01285	0.01638	0.00759	0.00565	0.00620	0.00465	0.01260	0.01676	0.00660	0.00680	0.00861	0.01483	0.01090	0.01191	0.00209	0.00598	0.00843
153820	0.25163	0.26508	0.21628	0.33638	0.39493	0.34426	0.90976	0.63520	0.44287	0.33533	0.34230	0.31737	0.38903	0.37814	0.33716	0.17259	0.26040	0.35917
153980	0.25517	0.26919	0.21828	0.33970	0.39908	0.34775	0.91075	0.63815	0.44499	0.33861	0.34525	0.32040	0.39027	0.37849	0.33568	0.16920	0.25794	0.35532
154150	0.25047	0.26509	0.21557	0.33623	0.39530	0.34501	0.90913	0.63647	0.44325	0.33560	0.34309	0.31814	0.38948	0.38082	0.34056	0.17200	0.26032	0.35830
154310	0.25523	0.26919	0.21895	0.34007	0.39916	0.34872	0.91303	0.64073	0.44473	0.33852	0.34579	0.31951	0.39074	0.37906	0.33742	0.17066	0.25896	0.35651
154480	0.25342	0.26900	0.21778	0.33755	0.39722	0.34512	0.91811	0.63509	0.44340	0.33650	0.34326	0.31812	0.39256	0.38194	0.34004	0.17232	0.26207	0.35962
154640	0.25551	0.27083	0.22071	0.34202	0.40064	0.34891	0.91634	0.64115	0.44613	0.33915	0.34730	0.32060	0.39211	0.37900	0.33703	0.17030	0.25933	0.35614
154800	0.25313	0.27111	0.22034	0.34138	0.40023	0.35045	0.92442	0.64438	0.44794	0.33851	0.34661	0.32164	0.39111	0.37915	0.33607	0.17204	0.26011	0.35673
154970	0.25402	0.26934	0.21707	0.33907	0.39848	0.34775	0.90953	0.63955	0.44493	0.33793	0.34550	0.31990	0.38807	0.37539	0.33571	0.16738	0.25603	0.35485
155130	0.25626	0.27114	0.22096	0.34169	0.40107	0.35145	0.92579	0.64452	0.44913	0.34097	0.34847	0.32212	0.39362	0.38061	0.33764	0.17169	0.26088	0.35813
155290	0.25577	0.26745	0.21823	0.33944	0.39806	0.34842	0.91528	0.64006	0.44438	0.33741	0.34537	0.31931	0.39009	0.37528	0.33518	0.16800	0.25638	0.35453	28.69	6.0	0.00	7.36	0.01266	0.01285	0.01638	0.00759	0.00565	0.00620	0.00465	0.01260	0.01676	0.00660	0.00680	0.00861	0.01483	0.01090	0.01191	0.00209	0.00598	0.00843
155460	0.25469	0.26839	0.21913	0.34167	0.40127	0.35191	0.92169	0.64206	0.45076	0.34095	0.34927	0.32234	0.39349	0.38209	0.33784	0.17214	0.26149	0.35883
155620	0.25578	0.26892	0.21722	0.33962	0.39878	0.34889	0.91870	0.64095	0.44532	0.33766	0.34651	0.32026	0.38891	0.37721	0.33563	0.16954	0.25709	0.35452
155780	0.25498	0.26984	0.21985	0.34063	0.40100	0.35274	0.92158	0.64183	0.44953	0.34064	0.34796	0.32188	0.39274	0.38138	0.33650	0.17037	0.26006	0.35831
155950	0.25538	0.26875	0.21911	0.33959	0.39915	0.34893	0.91531	0.63905	0.44433	0.33628	0.34463	0.31924	0.39055	0.38105	0.33456	0.17005	0.25999	0.35706
156110	0.25489	0.26831	0.21984	0.34046	0.40063	0.35014	0.92050	0.63988	0.44808	0.33919	0.34668	0.32069	0.38855	0.37870	0.33505	0.16958	0.25721	0.35575
156270	0.25266	0.26875	0.21927	0.33847	0.39749	0.34772	0.91543	0.63810	0.44406	0.33731	0.34506	0.31926	0.38719	0.37735	0.33465	0.16784	0.25506	0.35387
156430	0.25118	0.26701	0.21775	0.33778	0.39896	0.35115	0.91629	0.64382	0.44978	0.33989	0.34773	0.32142	0.38983	0.37974	0.33732	0.17151	0.25926	0.35723
156600	0.25250	0.27078	0.21707	0.33962	0.39816	0.34989	0.91429	0.63964	0.44587	0.33791	0.34538	0.32015	0.38993	0.37945	0.33356	0.17017	0.25630	0.35516
156760	0.25217	0.26715	0.21743	0.33895	0.39916	0.35069	0.91852	0.64115	0.44671	0.33920	0.34782	0.32136	0.39327	0.37897	0.33867	0.17021	0.25913	0.35729
156930	0.25406	0.26827	0.21797	0.33964	0.39920	0.34939	0.91942	0.64043	0.44398	0.33752	0.34625	0.31905	0.38923	0.37698	0.33554	0.16998	0.25685	0.35481	28.69	6.0	0.00	7.41	0.01266	0.01285	0.01638	0.00759	0.00565	0.00620	0.00465	0.01260	0.01675	0.00660	0.00680	0.00861	0.01483	0.01090	0.01191	0.00209	0.00598	0.00843
157090	0.25189	0.26793	0.21998	0.33817	0.39989	0.35184	0.91894	0.64406	0.44709	0.33900	0.34724	0.32158	0.39204	0.37833	0.33989	0.17018	0.26023	0.35846
157250	0.25366	0.26840	0.21816	0.33902	0.39934	0.34936	0.91868	0.64051	0.44498	0.33804	0.34515	0.31914	0.39103	0.38120	0.33786	0.17124	0.25958	0.35774
157420	0.25593	0.26774	0.21910	0.33984	0.39995	0.34952	0.91547	0.63844	0.44423	0.33781	0.34624	0.32034	0.39129	0.37887	0.33704	0.17081	0.25869	0.35738
157580	0.25312	0.26785	0.21619	0.33835	0.39813	0.34886	0.91079	0.63687	0.44333	0.33634	0.34624	0.31827	0.39399	0.38151	0.34004	0.17148	0.26223	0.36094
157750	0.25663	0.27007	0.22233	0.34151	0.40123	0.35082	0.91524	0.64150	0.44622	0.33912	0.34771	0.32147	0.38968	0.37829	0.33879	0.17081	0.25967	0.35804
157910	0.25727	0.27341	0.22128	0.34306	0.40305	0.35396	0.92000	0.64093	0.45087	0.34029	0.34707	0.32195	0.39337	0.38004	0.33857	0.17318	0.26052	0.35802
158070	0.25549	0.26822	0.21754	0.33877	0.39877	0.34858	0.91524	0.63825	0.44623	0.33715	0.34464	0.31884	0.38752	0.37679	0.33488	0.16694	0.25509	0.35398
158240	0.25490	0.27133	0.21961	0.34178	0.40263	0.35364	0.92081	0.64424	0.45126	0.34217	0.34848	0.32292	0.39392	0.38244	0.33932	0.17543	0.26187	0.36001
158400	0.25663	0.26937	0.21972	0.34122	0.39981	0.35004	0.91701	0.64025	0.44647	0.33791	0.34475	0.32022	0.38933	0.37862	0.33686	0.17018	0.25688	0.35467
158560	0.25380	0.26960	0.21943	0.34171	0.40153	0.35246	0.91590	0.64179	0.44910	0.34085	0.34787	0.32222	0.39367	0.38123	0.33805	0.17127	0.26144	0.35900	28.69	6.2	0.00	7.44	0.01266	0.01285	0.01638	0.00759	0.00565	0.00620	0.00465	0.01260	0.01676	0.00660	0.00680	0.00861	0.01483	0.01090	0.01191	0.00209	0.00598	0.00843
158730	0.25511	0.26788	0.21721	0.33988	0.39885	0.34962	0.91132	0.63794	0.44652	0.33755	0.34505	0.32043	0.38860	0.37693	0.33416	0.16933	0.25652	0.35599
158890	0.25156	0.26361	0.21484	0.33693	0.39634	0.34696	0.91117	0.63641	0.44189	0.33552	0.34267	0.31748	0.38885	0.38223	0.33865	0.16996	0.26092	0.35998
159050	0.25395	0.26794	0.21761	0.34009	0.39965	0.35070	0.92162	0.64167	0.44629	0.33755	0.34548	0.32052	0.38961	0.37911	0.33620	0.16933	0.25950	0.35623
159210	0.25292	0.26694	0.21665	0.33742	0.39645	0.34761	0.91456	0.63757	0.44351	0.33616	0.34239	0.31843	0.39099	0.38218	0.33624	0.17044	0.26038	0.35837
159380	0.25417	0.27039	0.21640	0.33973	0.39972	0.34952	0.91625	0.63910	0.44728	0.33828	0.34637	0.32124	0.39174	0.37853	0.33763	0.16890	0.25936	0.35675
159540	0.25174	0.26584	0.21783	0.33808	0.39802	0.34759	0.91350	0.63525	0.44440	0.33702	0.34340	0.31960	0.39197	0.38156	0.33782	0.17249	0.26135	0.35912
159710	0.25626	0.26819	0.21842	0.34005	0.39973	0.35060	0.91587	0.64153	0.44690	0.33890	0.34556	0.32076	0.39001	0.38263	0.34011	0.17052	0.26057	0.35812
159870	0.25616	0.27010	0.21980	0.34056	0.40136	0.35094	0.91686	0.64003	0.44683	0.33950	0.34601	0.32086	0.39135	0.38100	0.33598	0.16771	0.25898	0.35681
160030	0.25475	0.26965	0.21758	0.34032	0.39871	0.34781	0.91097	0.63919	0.44425	0.33593	0.34417	0.31938	0.39349	0.37969	0.33953	0.17431	0.26297	0.35958
160200	0.25812	0.26963	0.21955	0.34251	0.40261	0.35157	0.91814	0.64441	0.44977	0.33948	0.34605	0.32161	0.39246	0.38280	0.33725	0.17358	0.26075	0.35703	28.69	6.3	0.00	7.78	0.01266	0.01285	0.01638	0.00759	0.00565	0.00620	0.00465	0.01260	0.01676	0.00660	0.00680	0.00861	0.01483	0.01090	0.01191	0.00210	0.00598	0.00843
160360	0.25333	0.26801	0.21796	0.33858	0.39873	0.34763	0.91877	0.63966	0.44475	0.33615	0.34382	0.31845	0.39309	0.38135	0.33891	0.17497	0.26394	0.36107
160520	0.25631	0.27018	0.22123	0.34340	0.40302	0.35241	0.92361	0.64445	0.44984	0.34091	0.34697	0.32153	0.39170	0.37923	0.33565	0.17489	0.26114	0.35949
160690	0.25511	0.26712	0.21639	0.33947	0.39935	0.34810	0.91510	0.64118	0.44655	0.33734	0.34398	0.31970	0.39290	0.38299	0.33968	0.17603	0.26345	0.36129
160850	0.25886	0.27174	0.21957	0.34426	0.40298	0.35200	0.92520	0.64338	0.45054	0.34155	0.34677	0.32239	0.39190	0.38081	0.33760	0.17591	0.26160	0.35878
161010	0.25332	0.26726	0.21619	0.33937	0.39949	0.34878	0.92064	0.63716	0.44603	0.33788	0.34426	0.31907	0.39099	0.38162	0.33912	0.17568	0.26272	0.36067
161180	0.25444	0.26750	0.21810	0.34056	0.40107	0.35006	0.91662	0.64014	0.44537	0.33877	0.34477	0.32017	0.39103	0.37835	0.33697	0.17070	0.25929	0.35650
161340	0.25043	0.26733	0.21726	0.33829	0.39977	0.34843	0.90812	0.63920	0.44496	0.33792	0.34389	0.31892	0.38788	0.37850	0.33313	0.16959	0.25745	0.35425
161500	0.25200	0.26913	0.22097	0.34191	0.40441	0.35291	0.91690	0.64536	0.44982	0.34052	0.34696	0.32231	0.39229	0.38337	0.33893	0.17572	0.26320	0.36008
161670	0.25316	0.26881	0.21717	0.34102	0.40026	0.34939	0.91593	0.64058	0.44449	0.33837	0.34433	0.31973	0.38984	0.37826	0.33375	0.17019	0.25825	0.35563
161830	0.25570	0.26911	0.21820	0.34065	0.40149	0.35108	0.92252	0.64352	0.44877	0.33930	0.34650	0.32155	0.39271	0.38389	0.33566	0.17380	0.26220	0.35967	28.74	6.2	0.00	7.56	0.01266	0.01285	0.01638	0.00759	0.00565	0.00620	0.00465	0.01260	0.01675	0.00660	0.00680	0.00861	0.01483	0.01090	0.01191	0.00210	0.00598	0.00843
161990	0.25298	0.26698	0.21729	0.33978	0.39950	0.34758	0.91414	0.63875	0.44497	0.33716	0.34386	0.31941	0.38799	0.37823	0.33510	0.17154	0.25788	0.35554
162160	0.25313	0.26638	0.21684	0.34051	0.40156	0.34968	0.92165	0.64232	0.44705	0.33930	0.34643	0.32093	0.39339	0.37893	0.33778	0.17289	0.26015	0.35735
162320	0.25357	0.26504	0.21824	0.33891	0.39975	0.34818	0.91583	0.63984	0.44582	0.33828	0.34404	0.31972	0.38926	0.38110	0.33518	0.17099	0.25857	0.35547
162480	0.25315	0.26756	0.21937	0.33976	0.40077	0.35016	0.92168	0.64256	0.44652	0.34029	0.34656	0.32086	0.39208	0.37944	0.33618	0.17451	0.26113	0.35815
162650	0.25519	0.26666	0.21695	0.33981	0.40091	0.34873	0.92176	0.63972	0.44642	0.33818	0.34483	0.31984	0.38875	0.37760	0.33779	0.17186	0.25934	0.35726
162810	0.25455	0.26860	0.22130	0.34066	0.40179	0.35130	0.92426	0.64216	0.44822	0.34011	0.34744	0.32173	0.39216	0.38402	0.33717	0.17518	0.26178	0.35905
162970	0.25394	0.26799	0.21793	0.33890	0.40138	0.34963	0.92411	0.64158	0.44590	0.33847	0.34471	0.31989	0.39068	0.37805	0.33730	0.17119	0.25982	0.35673
163140	0.25625	0.26917	0.22132	0.34167	0.40278	0.35273	0.91879	0.64470	0.44956	0.34081	0.34785	0.32248	0.39365	0.38295	0.33958	0.17830	0.26405	0.36073
163300	0.25639	0.26761	0.21965	0.34116	0.40079	0.34872	0.91386	0.64084	0.44567	0.33794	0.34451	0.31945	0.38987	0.38003	0.33524	0.17146	0.25968	0.35680
163460	0.25604	0.27064	0.21851	0.34225	0.40181	0.35111	0.92436	0.64384	0.44903	0.34080	0.34669	0.32259	0.39363	0.38236	0.33958	0.17538	0.26331	0.36088	28.69	6.2	0.00	7.44	0.01266	0.01285	0.01638	0.00759	0.00565	0.00620	0.00465	0.01260	0.01675	0.00660	0.00680	0.00861	0.01483	0.01090	0.01191	0.00209	0.00598	0.00843
163630	0.25328	0.26980	0.21779	0.33993	0.39840	0.34835	0.91510	0.63919	0.44459	0.33763	0.34356	0.31957	0.39280	0.38438	0.33842	0.17356	0.26254	0.36031
163790	0.25544	0.27118	0.22143	0.34145	0.40159	0.35093	0.91996	0.64261	0.44965	0.33995	0.34607	0.32188	0.39013	0.38215	0.33946	0.17305	0.26129	0.35838
163950	0.25347	0.26819	0.21641	0.33813	0.39771	0.34609	0.91150	0.63579	0.44414	0.33622	0.34171	0.31866	0.38885	0.37664	0.33486	0.16732	0.25648	0.35423
164120	0.25254	0.26891	0.21979	0.33665	0.40007	0.35039	0.91717	0.64511	0.44998	0.34115	0.34665	0.32226	0.39270	0.38226	0.33871	0.17498	0.26247	0.36009
164280	0.25604	0.26841	0.21772	0.33968	0.39905	0.34750	0.91664	0.64091	0.44397	0.33762	0.34426	0.31973	0.38792	0.37708	0.33562	0.16909	0.25754	0.35547
164440	0.25352	0.26874	0.21976	0.33721	0.39887	0.34950	0.92239	0.64102	0.44702	0.34013	0.34609	0.32210	0.39199	0.37806	0.33689	0.17332	0.26126	0.35833
164610	0.25390	0.26862	0.21817	0.33793	0.39850	0.34771	0.90903	0.63927	0.44585	0.33707	0.34396	0.31907	0.38859	0.37712	0.33626	0.16815	0.25828	0.35496
164770	0.25217	0.26784	0.21861	0.33729	0.39843	0.34874	0.90887	0.64190	0.44630	0.33912	0.34674	0.32145	0.39119	0.37729	0.33963	0.17178	0.26104	0.35836
164930	0.25494	0.26742	0.21820	0.33853	0.39808	0.34821	0.91877	0.63848	0.44711	0.33819	0.34460	0.31946	0.38983	0.37959	0.33505	0.17044	0.25994	0.35629
165100	0.25461	0.26735	0.22018	0.34226	0.40156	0.35141	0.91580	0.64412	0.44845	0.34013	0.34674	0.32261	0.39140	0.38301	0.33938	0.17505	0.26350	0.35956	28.69	6.1	0.00	7.46	0.01266	0.01285	0.01638	0.00759	0.00565	0.00620	0.00465	0.01260	0.01675	0.00660	0.00680	0.00861	0.01483	0.01090	0.01191	0.00209	0.00598	0.00843
165260	0.25409	0.26746	0.21559	0.33980	0.39893	0.34769	0.91625	0.64067	0.44397	0.33659	0.34464	0.31949	0.38905	0.37716	0.33681	0.17018	0.26024	0.35641
165420	0.25503	0.27175	0.22024	0.34254	0.40117	0.35142	0.91608	0.64287	0.44755	0.34022	0.34734	0.32269	0.39102	0.38153	0.34053	0.17532	0.26364	0.36082
165590	0.25468	0.26750	0.21779	0.34075	0.39883	0.34812	0.91015	0.63662	0.44420	0.33733	0.34392	0.31946	0.38997	0.37843	0.33637	0.16983	0.25906	0.35602
165750	0.25731	0.26990	0.22010	0.34125	0.40151	0.35110	0.91410	0.64303	0.44884	0.34014	0.34728	0.32199	0.39150	0.38059	0.33729	0.17362	0.26387	0.35968
165910	0.25455	0.26986	0.21879	0.34015	0.39982	0.34791	0.90773	0.63949	0.44532	0.33799	0.34398	0.32071	0.38783	0.37857	0.33637	0.17121	0.26014	0.35632
166080	0.25454	0.27013	0.21779	0.34087	0.40007	0.34982	0.91162	0.64018	0.44787	0.33785	0.34573	0.32197	0.39087	0.37900	0.33603	0.17204	0.26230	0.35806
166240	0.25152	0.26857	0.21619	0.33867	0.39902	0.34723	0.91486	0.63548	0.44457	0.33672	0.34475	0.31975	0.38730	0.38050	0.33777	0.17169	0.26113	0.35686
166400	0.25309	0.26789	0.21576	0.33746	0.39699	0.34580	0.91112	0.63341	0.44104	0.33494	0.34259	0.31752	0.39273	0.38360	0.34281	0.17544	0.26471	0.36217
166570	0.25737	0.26947	0.21893	0.34327	0.40241	0.35054	0.91382	0.64132	0.44723	0.33949	0.34625	0.32196	0.39246	0.37900	0.33858	0.17066	0.26120	0.35859
166730	0.25568	0.27056	0.22001	0.34273	0.40299	0.35178	0.92201	0.64081	0.44725	0.34069	0.34853	0.32228	0.39133	0.38080	0.33961	0.17211	0.26391	0.36083	28.74	6.1	0.00	7.45	0.01266	0.01285	0.01638	0.00759	0.00565	0.00620	0.00464	0.01260	0.01675	0.00660	0.00680	0.00861	0.01483	0.01090	0.01191	0.00209	0.00598	0.00843
166890	0.25546	0.26917	0.21829	0.34098	0.39942	0.34790	0.91325	0.63756	0.44471	0.33791	0.34511	0.31982	0.38959	0.37624	0.33432	0.17081	0.26010	0.35708
