WetView ver 7.1	07-18-2018	19:52:07
AC9 Absorption and Attenuation Meter
00000266		; Serial number
2	; structure version number
Reserved
0.000000	0.000000		; Depth calibration
19200			; Baud rate
0.100000			; Path length (meters)
31			; number of temperature calibration bins
				12.59339	13.44920	14.48425	15.49668	16.50852	17.49564	18.50545	19.52458	20.50176	21.48889	22.47318	23.48707	24.50962	25.49370	26.49784	27.51372	28.50746	29.47237	30.47938	31.50214	32.50470	33.49235	34.50337	35.50914	36.50618	37.52058	38.51018	39.51308	40.49994	41.49866	42.47204	; temperature bins
a650	Blue	20.34952		-0.00383	-0.00415	-0.00430	-0.00391	-0.00363	-0.00317	-0.00269	-0.00237	-0.00179	-0.00130	-0.00099	-0.00071	-0.00015	0.00000	0.00004	-0.00001	0.00015	0.00036	0.00058	0.00101	0.00161	0.00132	0.00160	0.00169	0.00242	0.00273	0.00336	0.00365	0.00427	0.00566	0.00670		; offset and temperature correction info
a676	Green	20.51193		-0.00398	-0.00384	-0.00360	-0.00306	-0.00302	-0.00255	-0.00235	-0.00212	-0.00163	-0.00136	-0.00118	-0.00089	-0.00029	0.00000	0.00068	0.00082	0.00099	0.00137	0.00145	0.00212	0.00260	0.00252	0.00321	0.00354	0.00457	0.00535	0.00617	0.00648	0.00742	0.00887	0.01002		; offset and temperature correction info
a715	Brown	20.23230		-0.00421	-0.00394	-0.00391	-0.00291	-0.00264	-0.00192	-0.00204	-0.00179	-0.00188	-0.00239	-0.00180	-0.00187	-0.00099	0.00000	0.00084	0.00162	0.00188	0.00224	0.00321	0.00381	0.00466	0.00528	0.00588	0.00696	0.00859	0.01041	0.01148	0.01282	0.01333	0.01456	0.01617		; offset and temperature correction info
c510	Red	20.40042		-0.00261	-0.00247	-0.00258	-0.00225	-0.00203	-0.00197	-0.00199	-0.00203	-0.00154	-0.00103	-0.00069	-0.00019	-0.00007	0.00000	0.00011	-0.00021	-0.00042	-0.00056	-0.00040	0.00011	0.00036	0.00050	0.00077	0.00079	0.00050	0.00042	0.00043	0.00092	0.00147	0.00200	0.00232		; offset and temperature correction info
c532	Magenta	20.40760		-0.00248	-0.00265	-0.00278	-0.00279	-0.00296	-0.00292	-0.00238	-0.00206	-0.00129	-0.00096	-0.00092	-0.00052	-0.00009	0.00000	0.00007	-0.00049	-0.00136	-0.00107	-0.00079	-0.00065	-0.00074	-0.00105	-0.00152	-0.00192	-0.00236	-0.00269	-0.00252	-0.00233	-0.00172	-0.00128	-0.00067		; offset and temperature correction info
c555	Black	20.50654		-0.00053	-0.00063	-0.00106	-0.00094	-0.00068	-0.00055	-0.00053	-0.00039	-0.00028	-0.00025	-0.00011	-0.00035	-0.00007	0.00000	-0.00037	-0.00055	-0.00036	-0.00014	0.00019	0.00044	0.00032	0.00040	0.00050	0.00028	0.00014	0.00013	0.00030	0.00073	0.00117	0.00176	0.00241		; offset and temperature correction info
a412	LtBlue	17.15231		-0.01972	-0.01823	-0.01612	-0.01381	-0.01272	-0.01080	-0.00959	-0.00866	-0.00710	-0.00532	-0.00354	-0.00148	-0.00028	0.00000	0.00176	0.00297	0.00394	0.00440	0.00453	0.00487	0.00804	0.00856	0.01065	0.01248	0.01388	0.01439	0.01659	0.01881	0.02256	0.02450	0.02719		; offset and temperature correction info
a440	LtGreen	18.00171		-0.00729	-0.00642	-0.00581	-0.00502	-0.00426	-0.00349	-0.00244	-0.00218	-0.00179	-0.00101	-0.00046	-0.00006	0.00036	0.00000	0.00040	0.00045	0.00030	-0.00015	-0.00024	-0.00035	0.00012	-0.00013	-0.00033	-0.00089	-0.00142	-0.00189	-0.00231	-0.00205	-0.00140	-0.00140	-0.00146		; offset and temperature correction info
a488	Yellow	18.86491		-0.00113	-0.00102	-0.00106	-0.00064	-0.00027	-0.00020	-0.00030	-0.00037	-0.00047	-0.00059	-0.00052	-0.00012	0.00008	0.00000	0.00025	0.00012	-0.00013	-0.00043	-0.00065	-0.00076	-0.00025	0.00010	0.00090	0.00111	0.00113	0.00104	0.00073	0.00068	0.00120	0.00186	0.00258		; offset and temperature correction info
c650	Blue	20.46075		-0.00145	-0.00097	-0.00092	-0.00139	-0.00185	-0.00196	-0.00237	-0.00266	-0.00238	-0.00163	-0.00083	-0.00041	-0.00010	0.00000	0.00005	-0.00001	0.00015	0.00034	0.00029	0.00065	0.00101	0.00164	0.00126	0.00156	0.00175	0.00270	0.00287	0.00371	0.00407	0.00473	0.00534		; offset and temperature correction info
c676	Green	20.10118		-0.00170	-0.00144	-0.00149	-0.00177	-0.00188	-0.00194	-0.00198	-0.00196	-0.00177	-0.00156	-0.00140	-0.00091	-0.00033	0.00000	0.00050	0.00092	0.00110	0.00141	0.00167	0.00199	0.00216	0.00265	0.00269	0.00289	0.00315	0.00374	0.00367	0.00408	0.00486	0.00561	0.00646		; offset and temperature correction info
c715	Brown	19.91219		-0.01201	-0.01097	-0.00859	-0.00680	-0.00651	-0.00592	-0.00535	-0.00440	-0.00387	-0.00303	-0.00222	-0.00153	-0.00028	0.00000	0.00093	0.00149	0.00247	0.00322	0.00330	0.00427	0.00373	0.00464	0.00536	0.00551	0.00643	0.00733	0.00779	0.00884	0.00899	0.01021	0.01120		; offset and temperature correction info
a510	Red	19.21192		0.00201	0.00193	0.00158	0.00098	0.00089	0.00049	0.00011	-0.00016	-0.00016	-0.00005	0.00028	0.00025	0.00006	0.00000	0.00035	-0.00022	-0.00023	-0.00080	-0.00144	-0.00154	-0.00153	-0.00204	-0.00220	-0.00219	-0.00190	-0.00128	-0.00069	-0.00018	0.00068	0.00152	0.00241		; offset and temperature correction info
a532	Magenta	19.41084		-0.00097	-0.00072	-0.00060	-0.00081	-0.00062	-0.00071	-0.00040	0.00020	0.00028	0.00043	0.00000	-0.00035	0.00007	0.00000	-0.00011	-0.00059	-0.00080	-0.00098	-0.00137	-0.00162	-0.00163	-0.00130	-0.00073	-0.00018	0.00090	0.00185	0.00175	0.00247	0.00291	0.00327	0.00349		; offset and temperature correction info
a555	Black	19.69776		0.00171	0.00183	0.00183	0.00186	0.00191	0.00170	0.00115	0.00131	0.00097	0.00073	0.00060	0.00013	0.00015	0.00000	0.00014	-0.00029	-0.00066	-0.00082	-0.00116	-0.00139	-0.00134	-0.00167	-0.00119	-0.00093	-0.00048	0.00053	0.00111	0.00095	0.00178	0.00206	0.00273		; offset and temperature correction info
c412	LtBlue	19.91180		-0.02051	-0.01853	-0.01589	-0.01311	-0.01059	-0.00877	-0.00705	-0.00581	-0.00413	-0.00231	-0.00098	-0.00066	-0.00011	0.00000	-0.00013	-0.00085	-0.00170	-0.00170	-0.00302	-0.00330	-0.00429	-0.00551	-0.00626	-0.00775	-0.00978	-0.01181	-0.01113	-0.01108	-0.01116	-0.01192	-0.01291		; offset and temperature correction info
c440	LtGreen	20.06241		-0.01064	-0.00992	-0.00892	-0.00766	-0.00639	-0.00531	-0.00478	-0.00384	-0.00287	-0.00187	-0.00102	-0.00063	-0.00023	0.00000	-0.00007	-0.00053	-0.00090	-0.00119	-0.00169	-0.00197	-0.00226	-0.00257	-0.00260	-0.00289	-0.00394	-0.00470	-0.00481	-0.00493	-0.00520	-0.00580	-0.00620		; offset and temperature correction info
c488	Yellow	20.35984		-0.01125	-0.01082	-0.00966	-0.00833	-0.00726	-0.00661	-0.00579	-0.00500	-0.00389	-0.00278	-0.00167	-0.00113	-0.00041	0.00000	0.00055	0.00121	0.00187	0.00226	0.00222	0.00251	0.00281	0.00359	0.00414	0.00427	0.00401	0.00404	0.00486	0.00563	0.00638	0.00684	0.00718		; offset and temperature correction info
0.003500	0.004000	0.015000	0.020000	0.015000	0.020000	2500.000000	2000.000000	1000.000000	; maxANoise	maxCNoise	maxADifference	maxCDifference	minACounts	minCCounts	minRCounts	maxTempSdev	maxDepthSdev
0			; auxilliary capabilities
1			; acquisition binsize
0	0.49923	0.50290	0.42531	0.90674	0.77263	0.59771	4.77000	2.98235	1.57367	0.30446	0.28250	0.25266	1.26895	1.07953	0.87987	3.77533	2.31655	1.18782	33.30	6.2	0.00	7.59	0.01260	0.01286	0.01608	0.00779	0.00579	0.00635	0.00465	0.01260	0.01671	0.00673	0.00698	0.00866	0.01481	0.01087	0.01189	0.00216	0.00616	0.00864
170	0.50619	0.50262	0.42360	0.91112	0.77364	0.59654	4.76658	2.97638	1.57143	0.30156	0.27954	0.24956	1.26590	1.07552	0.87711	3.76733	2.31072	1.18283
330	0.50169	0.50037	0.42404	0.90802	0.77244	0.59642	4.76884	2.98124	1.56988	0.30377	0.28107	0.25194	1.26516	1.07667	0.88194	3.77275	2.31495	1.18604
490	0.50344	0.50024	0.42171	0.91019	0.77081	0.59449	4.76464	2.97547	1.56648	0.30039	0.27833	0.24833	1.26510	1.07380	0.87547	3.76810	2.30952	1.18168
650	0.49995	0.50022	0.41876	0.90647	0.76766	0.59125	4.75981	2.97208	1.56401	0.29883	0.27716	0.24617	1.26726	1.07832	0.87983	3.77029	2.31301	1.18597
820	0.50408	0.50217	0.42393	0.91080	0.77399	0.59699	4.76777	2.97651	1.56873	0.30381	0.28121	0.25111	1.26734	1.07632	0.87994	3.77517	2.31262	1.18401
980	0.50218	0.49953	0.42128	0.90619	0.76853	0.59140	4.75974	2.97413	1.56522	0.29962	0.27587	0.24674	1.26730	1.07678	0.88394	3.77199	2.31486	1.18714
1140	0.50482	0.50248	0.42420	0.91279	0.77418	0.59646	4.77279	2.97981	1.56897	0.30272	0.27900	0.24932	1.26779	1.07434	0.87664	3.77105	2.31182	1.18374
1310	0.50441	0.50243	0.42165	0.90765	0.76919	0.59241	4.75788	2.97701	1.56470	0.30071	0.27673	0.24787	1.26791	1.07664	0.88324	3.77434	2.31455	1.18667
1470	0.50641	0.50295	0.42434	0.91118	0.77422	0.59601	4.77680	2.97868	1.56688	0.30318	0.27937	0.24923	1.26730	1.07521	0.88067	3.77226	2.31370	1.18485
1640	0.50435	0.50387	0.42282	0.90870	0.77167	0.59374	4.76088	2.98029	1.56619	0.29954	0.27692	0.24764	1.26700	1.07977	0.88255	3.77500	2.31841	1.18930	33.30	6.1	0.00	7.60	0.01260	0.01286	0.01608	0.00779	0.00579	0.00635	0.00465	0.01260	0.01671	0.00673	0.00698	0.00866	0.01481	0.01087	0.01189	0.00216	0.00616	0.00864
1800	0.50674	0.50599	0.42620	0.91375	0.77559	0.59771	4.76761	2.98257	1.57074	0.30317	0.28028	0.25059	1.26647	1.07711	0.88162	3.77248	2.31408	1.18497
1960	0.50686	0.50537	0.42464	0.91181	0.77552	0.59744	4.77114	2.98217	1.57116	0.30334	0.27948	0.25063	1.26671	1.07747	0.87959	3.77424	2.31403	1.18439
2130	0.50497	0.50258	0.42286	0.90933	0.77224	0.59460	4.77553	2.98220	1.56946	0.30060	0.27729	0.24816	1.26660	1.07673	0.87789	3.77352	2.31093	1.18136
2290	0.50130	0.50020	0.42121	0.90589	0.76912	0.59281	4.76029	2.98048	1.56606	0.29842	0.27639	0.24690	1.27024	1.07952	0.88090	3.77676	2.31674	1.18747
2450	0.50622	0.50486	0.42418	0.91166	0.77367	0.59550	4.76267	2.98107	1.56969	0.30168	0.27885	0.24890	1.26740	1.07513	0.87962	3.77336	2.31200	1.18365
2620	0.50291	0.50029	0.42253	0.90634	0.77107	0.59315	4.75984	2.97636	1.56538	0.29799	0.27550	0.24636	1.26844	1.08106	0.88298	3.77785	2.31544	1.18785
2780	0.50750	0.50497	0.42521	0.91072	0.77445	0.59741	4.78253	2.98306	1.56936	0.30238	0.28042	0.25006	1.26744	1.07697	0.87917	3.77336	2.31233	1.18313
2940	0.50446	0.50214	0.42220	0.90773	0.77050	0.59091	4.77062	2.97746	1.56569	0.29722	0.27669	0.24618	1.27011	1.07935	0.88262	3.77402	2.31603	1.18777
3110	0.50686	0.50431	0.42485	0.91102	0.77495	0.59573	4.76687	2.97955	1.56974	0.30166	0.27959	0.24853	1.26605	1.07512	0.87975	3.77632	2.31334	1.18501
3270	0.50470	0.50344	0.42231	0.91004	0.77294	0.59610	4.77588	2.98167	1.56990	0.30143	0.27903	0.24902	1.26490	1.07477	0.88039	3.77303	2.31140	1.18349	33.30	6.1	0.00	7.73	0.01260	0.01286	0.01608	0.00779	0.00579	0.00635	0.00465	0.01260	0.01671	0.00673	0.00698	0.00866	0.01481	0.01087	0.01189	0.00216	0.00616	0.00864
3430	0.50359	0.50085	0.42078	0.90677	0.77076	0.59273	4.76364	2.97548	1.56612	0.29897	0.27580	0.24581	1.26141	1.07333	0.87738	3.76843	2.30725	1.18002
3600	0.50131	0.50237	0.42531	0.90516	0.77189	0.59656	4.77290	2.98151	1.57281	0.30228	0.27959	0.25028	1.26712	1.07754	0.88188	3.77819	2.31327	1.18528
3760	0.50603	0.50453	0.42200	0.90859	0.77197	0.59437	4.76290	2.97823	1.56760	0.30031	0.27804	0.24852	1.26556	1.07399	0.87529	3.77177	2.30953	1.18115
3920	0.50038	0.50035	0.42374	0.90506	0.76999	0.59472	4.77175	2.97950	1.56721	0.30130	0.27825	0.24897	1.26676	1.07717	0.87926	3.77353	2.31038	1.18287
4080	0.50176	0.50141	0.42229	0.90766	0.76993	0.59290	4.76833	2.97780	1.56621	0.29885	0.27671	0.24669	1.26272	1.07420	0.87743	3.77199	2.30991	1.18269
4250	0.50355	0.50186	0.42157	0.90497	0.76771	0.59093	4.75410	2.97405	1.56354	0.29759	0.27520	0.24502	1.26722	1.07739	0.88244	3.77621	2.31435	1.18715
4410	0.50677	0.50564	0.42549	0.91056	0.77339	0.59648	4.76517	2.97964	1.57104	0.30111	0.27822	0.24827	1.26595	1.07801	0.87584	3.77545	2.31197	1.18480
4570	0.50400	0.50105	0.42083	0.90744	0.76959	0.59272	4.76666	2.97655	1.56478	0.29880	0.27446	0.24674	1.26659	1.07853	0.88117	3.77599	2.31391	1.18481
4740	0.50326	0.50217	0.42261	0.90782	0.76985	0.59353	4.76469	2.97660	1.56834	0.29957	0.27677	0.24740	1.26651	1.07611	0.87532	3.77172	2.30986	1.18192
4900	0.50253	0.49972	0.41903	0.90525	0.76754	0.59020	4.77282	2.97255	1.56385	0.29903	0.27483	0.24605	1.26084	1.07142	0.87196	3.77003	2.30719	1.17965	33.35	6.0	0.00	7.69	0.01260	0.01286	0.01608	0.00779	0.00579	0.00635	0.00465	0.01260	0.01671	0.00673	0.00698	0.00866	0.01481	0.01087	0.01189	0.00216	0.00616	0.00864
5060	0.50375	0.50536	0.42434	0.90849	0.77198	0.59501	4.77177	2.98064	1.57190	0.30294	0.27883	0.24995	1.26604	1.07712	0.87780	3.77622	2.31399	1.18551
5230	0.50404	0.50179	0.42390	0.90729	0.76974	0.59137	4.75212	2.97690	1.56548	0.29948	0.27523	0.24588	1.26062	1.07208	0.87467	3.77293	2.30765	1.17996
5390	0.50310	0.50223	0.42195	0.90682	0.77169	0.59387	4.77445	2.98208	1.57030	0.30258	0.27835	0.24922	1.26616	1.07647	0.87953	3.77622	2.31169	1.18215
5550	0.50341	0.50162	0.42399	0.90435	0.76799	0.58925	4.76330	2.97977	1.56648	0.29777	0.27416	0.24577	1.26312	1.07672	0.87948	3.77189	2.31094	1.18186
5710	0.50218	0.50261	0.42209	0.90525	0.76772	0.58857	4.76891	2.97689	1.56460	0.29762	0.27255	0.24356	1.26656	1.07666	0.88181	3.77156	2.31345	1.18524
5880	0.50581	0.50402	0.42294	0.90828	0.77059	0.59269	4.77088	2.97822	1.56955	0.30060	0.27760	0.24657	1.26666	1.07489	0.87802	3.77096	2.31011	1.18113
6040	0.50262	0.50325	0.42364	0.90319	0.76653	0.58836	4.76746	2.97758	1.56624	0.29940	0.27576	0.24634	1.26591	1.07720	0.87993	3.77134	2.31242	1.18438
6200	0.50480	0.50294	0.42451	0.90648	0.76893	0.59023	4.76274	2.97743	1.56994	0.29960	0.27577	0.24706	1.26475	1.07906	0.87992	3.77195	2.31196	1.18268
6370	0.50564	0.50297	0.42501	0.90577	0.76760	0.59077	4.76285	2.97921	1.56626	0.29850	0.27496	0.24548	1.26541	1.07948	0.88163	3.77337	2.31199	1.18310
6530	0.50627	0.50459	0.42490	0.90646	0.76902	0.59295	4.77291	2.98058	1.57013	0.30074	0.27840	0.24908	1.26380	1.07748	0.87924	3.76919	2.31020	1.18044	33.30	6.2	0.00	7.63	0.01260	0.01286	0.01608	0.00779	0.00579	0.00635	0.00465	0.01260	0.01671	0.00673	0.00698	0.00866	0.01481	0.01087	0.01189	0.00216	0.00616	0.00864
6700	0.50160	0.50242	0.42226	0.90363	0.76549	0.58839	4.77284	2.97490	1.56617	0.29775	0.27367	0.24447	1.26667	1.08002	0.88192	3.77061	2.31301	1.18467
6860	0.50803	0.50658	0.42598	0.90882	0.77011	0.59341	4.76655	2.97943	1.56940	0.30240	0.27849	0.24872	1.26541	1.07658	0.87837	3.76897	2.30805	1.18009
7020	0.50565	0.50321	0.42756	0.90767	0.77060	0.59348	4.75277	2.97955	1.57141	0.30223	0.27967	0.24962	1.26499	1.07780	0.88028	3.77620	2.31256	1.18269
7190	0.50616	0.50053	0.42325	0.90667	0.76690	0.58980	4.75281	2.97878	1.56634	0.29781	0.27512	0.24588	1.26695	1.07927	0.87897	3.77160	2.31152	1.18331
7350	0.50498	0.50495	0.42656	0.90912	0.77171	0.59500	4.77250	2.98010	1.57111	0.30156	0.27835	0.24961	1.26604	1.07739	0.87933	3.77231	2.31044	1.18236
7510	0.50604	0.50220	0.42204	0.90578	0.76705	0.59071	4.76280	2.97679	1.56773	0.29858	0.27444	0.24549	1.26270	1.07424	0.87764	3.76886	2.30584	1.17727
7670	0.50280	0.50288	0.42594	0.90321	0.76840	0.59349	4.76882	2.98226	1.57125	0.30172	0.27791	0.24933	1.26598	1.07741	0.88102	3.77236	2.31144	1.18208
7840	0.50595	0.50251	0.42353	0.90694	0.76770	0.59077	4.76265	2.97643	1.56896	0.29779	0.27573	0.24544	1.26278	1.07597	0.87679	3.77067	2.30656	1.17856
8000	0.50250	0.50058	0.42115	0.90270	0.76576	0.58842	4.76700	2.97680	1.56608	0.29798	0.27472	0.24492	1.26558	1.07879	0.88177	3.77116	2.31075	1.18255
8160	0.50477	0.50433	0.42596	0.90810	0.76932	0.59167	4.77499	2.97930	1.56861	0.30051	0.27600	0.24745	1.26576	1.07675	0.87907	3.76924	2.30801	1.18047	33.30	6.2	0.00	7.58	0.01260	0.01286	0.01608	0.00779	0.00579	0.00635	0.00465	0.01259	0.01671	0.00673	0.00698	0.00866	0.01481	0.01087	0.01189	0.00216	0.00616	0.00864
8330	0.50385	0.50397	0.42280	0.90414	0.76597	0.58853	4.76633	2.97755	1.56840	0.29733	0.27363	0.24590	1.26344	1.07574	0.87860	3.76343	2.30431	1.17548
8490	0.50323	0.50184	0.42529	0.90282	0.76753	0.59306	4.77012	2.98521	1.57298	0.30120	0.27908	0.24978	1.26633	1.08030	0.88193	3.77126	2.31153	1.18263
8650	0.50758	0.50442	0.42461	0.90659	0.76799	0.58958	4.77217	2.98003	1.56975	0.29853	0.27570	0.24669	1.26492	1.07674	0.87857	3.76797	2.30691	1.17837
8810	0.50584	0.50342	0.42709	0.90562	0.76792	0.59106	4.77886	2.98317	1.57078	0.30021	0.27533	0.24783	1.26540	1.07807	0.88154	3.76715	2.31002	1.18102
8980	0.50489	0.50346	0.42603	0.90514	0.76604	0.58860	4.77745	2.97881	1.56919	0.29677	0.27468	0.24476	1.26426	1.07623	0.87660	3.76392	2.30562	1.17698
9140	0.50253	0.50044	0.42253	0.90196	0.76454	0.58673	4.76625	2.97640	1.56543	0.29677	0.27182	0.24380	1.26733	1.08104	0.87953	3.77050	2.30873	1.18071
9300	0.50474	0.50252	0.42532	0.90468	0.76668	0.58778	4.78009	2.98232	1.56789	0.29824	0.27458	0.24510	1.26773	1.07554	0.87755	3.76639	2.30662	1.17926
9470	0.50362	0.50361	0.42387	0.90254	0.76440	0.58680	4.76770	2.97852	1.56689	0.29619	0.27377	0.24360	1.26529	1.07878	0.87988	3.76502	2.30730	1.18015
9630	0.50596	0.50201	0.42500	0.90487	0.76630	0.58931	4.77451	2.97646	1.56791	0.29805	0.27481	0.24499	1.26613	1.07755	0.87860	3.76529	2.30660	1.17887
9800	0.50351	0.50502	0.42542	0.90301	0.76458	0.58766	4.77142	2.97357	1.56539	0.29497	0.27335	0.24283	1.26331	1.07764	0.87958	3.76788	2.30774	1.18025	33.35	6.1	0.00	7.59	0.01260	0.01286	0.01608	0.00779	0.00579	0.00635	0.00465	0.01259	0.01671	0.00673	0.00698	0.00866	0.01481	0.01087	0.01189	0.00216	0.00616	0.00864
9960	0.50414	0.50411	0.42744	0.90490	0.76705	0.58953	4.76261	2.97931	1.56781	0.29698	0.27520	0.24450	1.26435	1.07650	0.87797	3.76667	2.30842	1.17872
10120	0.50410	0.50111	0.42257	0.90322	0.76561	0.58735	4.76804	2.97639	1.56512	0.29631	0.27369	0.24285	1.26821	1.07688	0.88102	3.77254	2.31069	1.18232
10290	0.50753	0.50296	0.42610	0.90759	0.76789	0.59118	4.75759	2.98041	1.56912	0.29870	0.27806	0.24559	1.26656	1.07490	0.87824	3.76898	2.30674	1.17756
10450	0.50635	0.50247	0.42689	0.90499	0.76836	0.59089	4.77005	2.97937	1.57073	0.29870	0.27686	0.24587	1.26581	1.07779	0.87803	3.76859	2.30879	1.17882
10610	0.50399	0.50459	0.42510	0.90309	0.76608	0.58898	4.76822	2.97767	1.56792	0.29655	0.27459	0.24417	1.26540	1.07521	0.87730	3.76514	2.30466	1.17591
10780	0.50493	0.50342	0.42333	0.90139	0.76357	0.58606	4.76718	2.97667	1.56681	0.29383	0.27296	0.24241	1.26821	1.07946	0.88347	3.76717	2.31039	1.18217
10940	0.50844	0.50689	0.42701	0.90633	0.76865	0.59030	4.77410	2.97702	1.57061	0.29836	0.27793	0.24529	1.26595	1.07559	0.87885	3.76799	2.30679	1.17818
11100	0.50636	0.50510	0.42603	0.90453	0.76812	0.59068	4.76517	2.97756	1.56892	0.29822	0.27547	0.24594	1.26391	1.07744	0.87746	3.76673	2.30725	1.17918
11270	0.50624	0.50432	0.42462	0.90370	0.76597	0.58818	4.75087	2.97633	1.56809	0.29765	0.27515	0.24356	1.26496	1.07557	0.88195	3.76651	2.30854	1.17977
11430	0.50264	0.50421	0.42623	0.90605	0.76819	0.59116	4.77287	2.97742	1.56888	0.29786	0.27543	0.24499	1.26637	1.07876	0.88079	3.76738	2.30645	1.17819	33.30	6.2	0.00	7.70	0.01260	0.01286	0.01608	0.00779	0.00579	0.00635	0.00465	0.01259	0.01671	0.00673	0.00698	0.00866	0.01481	0.01087	0.01189	0.00216	0.00616	0.00864
11590	0.50427	0.50156	0.42683	0.90275	0.76546	0.58935	4.76692	2.97733	1.56952	0.29642	0.27411	0.24429	1.26477	1.07497	0.87809	3.76206	2.30390	1.17511
11760	0.50527	0.50392	0.42938	0.90156	0.76588	0.59047	4.77187	2.98394	1.57300	0.29984	0.27899	0.24807	1.27142	1.08146	0.88290	3.77170	2.30965	1.18064
11920	0.50758	0.50275	0.42778	0.90424	0.76584	0.58837	4.77771	2.97580	1.56778	0.29514	0.27374	0.24343	1.26645	1.07427	0.87873	3.76601	2.30570	1.17666
12080	0.50503	0.50396	0.42515	0.90245	0.76722	0.59107	4.76770	2.98244	1.56939	0.29781	0.27512	0.24420	1.26807	1.07833	0.87759	3.76770	2.30658	1.17844
12240	0.50668	0.50433	0.42324	0.90361	0.76514	0.58802	4.76700	2.97982	1.56631	0.29595	0.27492	0.24276	1.26512	1.07887	0.88047	3.76163	2.30460	1.17675
12410	0.50443	0.50367	0.42217	0.90156	0.76320	0.58665	4.76294	2.97612	1.56558	0.29465	0.27377	0.24273	1.26912	1.08201	0.88154	3.76858	2.30991	1.18128
12570	0.50851	0.50571	0.42827	0.90663	0.76854	0.59152	4.76287	2.97862	1.57085	0.29838	0.27649	0.24583	1.27085	1.08140	0.88032	3.77105	2.30944	1.18021
12730	0.50548	0.50333	0.42662	0.90394	0.76527	0.58850	4.77395	2.97505	1.56630	0.29529	0.27297	0.24321	1.26711	1.08026	0.87994	3.76803	2.30757	1.18076
12900	0.50611	0.50288	0.42520	0.90477	0.76712	0.58985	4.76254	2.97828	1.56663	0.29721	0.27473	0.24417	1.26544	1.07838	0.87645	3.76727	2.30573	1.17639
13060	0.50593	0.50250	0.42346	0.90132	0.76259	0.58749	4.77437	2.97431	1.56598	0.29389	0.27261	0.24177	1.26312	1.07336	0.87565	3.76323	2.30330	1.17522	33.35	6.0	0.00	7.58	0.01260	0.01286	0.01608	0.00779	0.00579	0.00635	0.00465	0.01259	0.01671	0.00673	0.00698	0.00866	0.01481	0.01087	0.01189	0.00216	0.00616	0.00864
13220	0.50541	0.50610	0.42668	0.90600	0.76890	0.59166	4.77534	2.98249	1.57101	0.29921	0.27713	0.24620	1.27235	1.08384	0.88235	3.77051	2.30935	1.18067
13390	0.50704	0.50351	0.42509	0.90409	0.76532	0.58894	4.76083	2.98052	1.56807	0.29656	0.27518	0.24401	1.26611	1.07620	0.87976	3.76449	2.30438	1.17743
13550	0.50591	0.50362	0.42747	0.90429	0.76718	0.59055	4.77802	2.97993	1.56994	0.29741	0.27660	0.24598	1.26525	1.08033	0.87893	3.76624	2.30782	1.17939
13710	0.50461	0.50292	0.42341	0.90261	0.76464	0.58772	4.76771	2.97493	1.56424	0.29604	0.27418	0.24354	1.26396	1.07496	0.87800	3.76476	2.30547	1.17732
13870	0.50267	0.50295	0.42125	0.90069	0.76198	0.58686	4.76132	2.97265	1.56245	0.29422	0.27209	0.24200	1.26397	1.07791	0.88048	3.76750	2.30873	1.17957
14040	0.50332	0.50393	0.42243	0.90306	0.76524	0.58867	4.75979	2.97795	1.56786	0.29584	0.27387	0.24358	1.26609	1.07878	0.87902	3.76482	2.30591	1.17804
14200	0.50509	0.50239	0.42276	0.90200	0.76364	0.58697	4.75545	2.97437	1.56505	0.29590	0.27282	0.24267	1.26393	1.07573	0.87691	3.76432	2.30437	1.17686
14360	0.50644	0.50614	0.42651	0.90626	0.76861	0.59280	4.76760	2.98024	1.57119	0.29975	0.27785	0.24622	1.27136	1.08042	0.88226	3.77314	2.30972	1.18161
14530	0.50729	0.50429	0.42428	0.90482	0.76568	0.58989	4.77467	2.97536	1.56565	0.29644	0.27446	0.24350	1.26631	1.07435	0.87802	3.76652	2.30335	1.17482
14690	0.50597	0.50429	0.42539	0.90470	0.76669	0.59367	4.76270	2.98143	1.57108	0.29962	0.27831	0.24704	1.26898	1.07973	0.88278	3.76820	2.30971	1.18032	33.35	6.2	0.00	7.57	0.01260	0.01286	0.01608	0.00779	0.00579	0.00635	0.00465	0.01259	0.01671	0.00673	0.00698	0.00866	0.01481	0.01087	0.01189	0.00216	0.00616	0.00864
14850	0.50500	0.50607	0.42281	0.90295	0.76308	0.58848	4.76117	2.97941	1.56729	0.29617	0.27425	0.24367	1.26520	1.07873	0.87975	3.76431	2.30523	1.17752
15010	0.50218	0.50204	0.42183	0.90110	0.76074	0.58610	4.76719	2.97401	1.56435	0.29293	0.27119	0.23979	1.26392	1.07854	0.88128	3.76250	2.30608	1.17857
15180	0.50351	0.50381	0.42365	0.90386	0.76491	0.58939	4.76772	2.97901	1.56775	0.29689	0.27467	0.24330	1.26555	1.07544	0.87586	3.76376	2.30444	1.17553
15340	0.50162	0.50164	0.42151	0.90091	0.76204	0.58727	4.75382	2.97482	1.56592	0.29495	0.27385	0.24243	1.26321	1.07377	0.87868	3.76595	2.30269	1.17441
15500	0.50477	0.50378	0.42392	0.90417	0.76509	0.59103	4.77088	2.98036	1.57111	0.29866	0.27634	0.24518	1.26805	1.07872	0.87889	3.76815	2.30732	1.17998
15670	0.50650	0.50183	0.42338	0.90322	0.76405	0.58847	4.77069	2.97583	1.56694	0.29571	0.27408	0.24365	1.26723	1.07822	0.88228	3.76464	2.30677	1.17899
15830	0.50576	0.50529	0.42453	0.90423	0.76523	0.58965	4.76578	2.97978	1.57003	0.29765	0.27490	0.24461	1.26458	1.07927	0.87906	3.76239	2.30534	1.17781
15990	0.50349	0.50151	0.42300	0.90276	0.76369	0.58934	4.76318	2.97387	1.56650	0.29521	0.27296	0.24260	1.26246	1.07483	0.87813	3.75878	2.30099	1.17493
16150	0.50045	0.50311	0.42571	0.90238	0.76399	0.58998	4.77586	2.97908	1.56777	0.29766	0.27605	0.24451	1.26537	1.07744	0.87959	3.76557	2.30586	1.17782
16320	0.50541	0.50492	0.42342	0.90177	0.76299	0.58810	4.77087	2.97772	1.56465	0.29651	0.27321	0.24287	1.26579	1.07811	0.87837	3.76270	2.30529	1.17656	33.30	6.3	0.00	6.75	0.01260	0.01286	0.01608	0.00779	0.00579	0.00635	0.00465	0.01259	0.01671	0.00673	0.00698	0.00866	0.01481	0.01087	0.01189	0.00216	0.00616	0.00864
16480	0.50460	0.50317	0.42206	0.90238	0.76237	0.58847	4.77229	2.97735	1.56698	0.29650	0.27341	0.24299	1.26813	1.08098	0.87996	3.76813	2.30786	1.18001
16640	0.50729	0.50487	0.42592	0.90493	0.76462	0.59083	4.77117	2.98170	1.57071	0.29916	0.27523	0.24513	1.26793	1.07808	0.87852	3.76166	2.30511	1.17706
16810	0.50333	0.50223	0.42103	0.90148	0.76235	0.58760	4.76771	2.97326	1.56490	0.29558	0.27110	0.24154	1.26799	1.07708	0.88095	3.76358	2.30725	1.17959
16970	0.50700	0.50499	0.42623	0.90478	0.76476	0.59032	4.76994	2.98044	1.56963	0.29823	0.27458	0.24420	1.26844	1.07736	0.87942	3.76347	2.30460	1.17618
17130	0.50533	0.50147	0.42339	0.90006	0.76199	0.58719	4.74947	2.97507	1.56570	0.29504	0.27199	0.24257	1.26351	1.07797	0.88003	3.76599	2.30524	1.17757
17300	0.50611	0.50574	0.42463	0.90267	0.76462	0.58932	4.76232	2.97820	1.56733	0.29767	0.27326	0.24436	1.26737	1.07684	0.87965	3.76051	2.30635	1.17666
17460	0.50494	0.50276	0.42618	0.90135	0.76176	0.58792	4.76180	2.97209	1.56705	0.29613	0.27327	0.24381	1.26331	1.07581	0.87772	3.76166	2.30254	1.17467
17620	0.50724	0.50659	0.42717	0.90605	0.76804	0.59444	4.76704	2.98236	1.57216	0.30143	0.27819	0.24693	1.26900	1.08064	0.88269	3.76780	2.31043	1.18103
17790	0.50932	0.50742	0.42427	0.90468	0.76457	0.59046	4.76998	2.97740	1.56681	0.29863	0.27550	0.24471	1.26651	1.07480	0.87992	3.76112	2.30376	1.17678
17950	0.50564	0.50494	0.42567	0.90597	0.76862	0.59329	4.76545	2.98314	1.57097	0.30047	0.27690	0.24722	1.26923	1.08184	0.88066	3.76759	2.30890	1.18022	33.30	6.2	0.00	7.73	0.01260	0.01286	0.01608	0.00779	0.00579	0.00635	0.00465	0.01259	0.01671	0.00673	0.00698	0.00866	0.01481	0.01087	0.01189	0.00216	0.00616	0.00864
18110	0.50365	0.50333	0.42363	0.90317	0.76336	0.58933	4.77013	2.98078	1.56768	0.29676	0.27424	0.24427	1.26666	1.07856	0.87934	3.76649	2.30394	1.17725
18270	0.50255	0.50043	0.42142	0.90034	0.76138	0.58632	4.75701	2.97365	1.56242	0.29349	0.27076	0.24077	1.26160	1.07414	0.87603	3.75708	2.29986	1.17320
18440	0.50592	0.50514	0.42587	0.90510	0.76865	0.59258	4.77988	2.98343	1.56966	0.30088	0.27643	0.24720	1.26673	1.08297	0.88157	3.77055	2.30767	1.17878
18600	0.50480	0.50406	0.42335	0.90185	0.76200	0.58788	4.76337	2.97785	1.56459	0.29653	0.27367	0.24266	1.26502	1.07701	0.87841	3.76282	2.30412	1.17662
18760	0.50040	0.50138	0.42116	0.89957	0.76043	0.58456	4.76076	2.97186	1.56359	0.29289	0.27044	0.24087	1.26676	1.07798	0.88199	3.76584	2.30803	1.18024
18920	0.50646	0.50284	0.42440	0.90355	0.76418	0.58834	4.76455	2.98096	1.56691	0.29577	0.27383	0.24338	1.26502	1.07473	0.87781	3.76376	2.30338	1.17650
19090	0.50399	0.50347	0.42309	0.90033	0.76223	0.58599	4.75872	2.97576	1.56568	0.29552	0.27270	0.24261	1.26411	1.07583	0.87875	3.76315	2.30168	1.17512
19250	0.50894	0.50814	0.42787	0.90542	0.76735	0.59260	4.76247	2.98656	1.57406	0.30101	0.27729	0.24634	1.27007	1.08202	0.88229	3.76688	2.30890	1.18144
19410	0.50640	0.50493	0.42519	0.90452	0.76405	0.58939	4.76957	2.98091	1.56849	0.29688	0.27412	0.24506	1.26770	1.07966	0.87872	3.76458	2.30453	1.17635
19580	0.50431	0.50692	0.42582	0.90434	0.76608	0.59125	4.77421	2.98260	1.57131	0.29854	0.27632	0.24542	1.26599	1.07697	0.88127	3.76496	2.30863	1.17870	33.30	6.2	0.00	7.58	0.01260	0.01286	0.01608	0.00779	0.00579	0.00635	0.00465	0.01259	0.01670	0.00673	0.00698	0.00866	0.01481	0.01087	0.01189	0.00216	0.00616	0.00864
19740	0.50565	0.50278	0.42350	0.90255	0.76317	0.58698	4.76131	2.97694	1.56741	0.29570	0.27345	0.24304	1.26309	1.07584	0.87573	3.76167	2.30354	1.17524
19900	0.50304	0.50208	0.42318	0.90034	0.76097	0.58577	4.76291	2.97539	1.56565	0.29332	0.27314	0.24236	1.26155	1.07504	0.87643	3.75965	2.30332	1.17400
20060	0.50291	0.50461	0.42507	0.90360	0.76520	0.59019	4.77038	2.97784	1.56979	0.29841	0.27644	0.24537	1.26696	1.07951	0.88159	3.76518	2.30755	1.17921
20220	0.50420	0.50388	0.42481	0.90269	0.76298	0.58792	4.76350	2.97685	1.56390	0.29491	0.27300	0.24252	1.26180	1.07605	0.87697	3.76080	2.30231	1.17562
20390	0.50163	0.49902	0.42305	0.89867	0.76146	0.58569	4.76335	2.97174	1.56320	0.29303	0.27196	0.24053	1.26295	1.07596	0.87603	3.76315	2.30334	1.17604
20550	0.50533	0.50418	0.42366	0.90310	0.76389	0.58975	4.77105	2.98029	1.56635	0.29611	0.27418	0.24345	1.26803	1.07406	0.87729	3.76102	2.30376	1.17565
20720	0.50345	0.50275	0.42532	0.90059	0.76418	0.58997	4.78560	2.98013	1.57122	0.29982	0.27728	0.24537	1.26850	1.07952	0.88200	3.76858	2.30837	1.17970
20880	0.50853	0.50577	0.42442	0.90365	0.76307	0.58901	4.77912	2.97734	1.56693	0.29555	0.27376	0.24313	1.26514	1.07712	0.87681	3.76157	2.30332	1.17597
21040	0.50202	0.50223	0.42480	0.90150	0.76467	0.59119	4.76729	2.97996	1.57023	0.29933	0.27569	0.24636	1.27024	1.08091	0.88177	3.76556	2.30681	1.17842
21210	0.50554	0.50388	0.42215	0.90273	0.76385	0.58682	4.77366	2.97527	1.56815	0.29533	0.27400	0.24324	1.26654	1.07754	0.87730	3.75905	2.30290	1.17477	33.35	6.0	0.00	7.59	0.01260	0.01286	0.01608	0.00779	0.00579	0.00635	0.00465	0.01259	0.01671	0.00673	0.00698	0.00866	0.01481	0.01087	0.01189	0.00216	0.00616	0.00864
21370	0.50372	0.50158	0.42665	0.90044	0.76362	0.58872	4.76629	2.98220	1.57229	0.29640	0.27516	0.24571	1.26799	1.08315	0.88099	3.76535	2.30762	1.17890
21530	0.50680	0.50283	0.42553	0.90352	0.76209	0.58646	4.77314	2.98041	1.56830	0.29396	0.27282	0.24240	1.26636	1.07477	0.87710	3.75828	2.30264	1.17488
21690	0.50667	0.50444	0.42686	0.90456	0.76523	0.59040	4.77046	2.98069	1.57049	0.29776	0.27712	0.24551	1.26965	1.07724	0.87946	3.76475	2.30488	1.17687
21860	0.50520	0.50409	0.42361	0.90260	0.76157	0.58742	4.76507	2.98048	1.56918	0.29571	0.27412	0.24396	1.26700	1.07855	0.87891	3.76113	2.30385	1.17495
22020	0.50275	0.50250	0.42312	0.90066	0.76012	0.58439	4.76633	2.97656	1.56390	0.29273	0.27120	0.24089	1.26627	1.07961	0.88226	3.76781	2.30904	1.18075
22180	0.50825	0.50489	0.42531	0.90619	0.76570	0.58981	4.77102	2.97894	1.56800	0.29665	0.27486	0.24351	1.26749	1.07658	0.88068	3.76026	2.30416	1.17655
22350	0.50538	0.50080	0.42248	0.90051	0.76121	0.58536	4.76477	2.97607	1.56527	0.29314	0.27229	0.24157	1.26880	1.08080	0.88353	3.76864	2.30975	1.18085
22510	0.50564	0.50577	0.42438	0.90474	0.76519	0.58877	4.77440	2.98287	1.56665	0.29593	0.27553	0.24350	1.26717	1.07408	0.87996	3.76277	2.30378	1.17608
22680	0.50465	0.50385	0.42437	0.90176	0.76132	0.58585	4.77284	2.97289	1.56527	0.29367	0.27155	0.24059	1.26878	1.07860	0.88551	3.76612	2.30821	1.18073
22840	0.50798	0.50514	0.42704	0.90546	0.76624	0.59085	4.77564	2.97971	1.57199	0.29702	0.27655	0.24352	1.26700	1.07510	0.87790	3.76393	2.30515	1.17652	33.35	6.1	0.00	7.63	0.01260	0.01286	0.01608	0.00779	0.00579	0.00635	0.00465	0.01259	0.01670	0.00673	0.00698	0.00866	0.01481	0.01087	0.01189	0.00216	0.00616	0.00864
23000	0.50618	0.50366	0.42775	0.90442	0.76460	0.59012	4.78022	2.98039	1.57079	0.29749	0.27716	0.24458	1.26595	1.07769	0.87893	3.76344	2.30458	1.17652
23170	0.50451	0.50353	0.42392	0.90161	0.76235	0.58807	4.75950	2.97741	1.56717	0.29587	0.27475	0.24281	1.26499	1.07421	0.87617	3.76316	2.30458	1.17590
23330	0.50367	0.50197	0.42195	0.90031	0.75969	0.58550	4.77274	2.97435	1.56414	0.29233	0.27233	0.23989	1.26931	1.07469	0.88233	3.76815	2.30999	1.18154
23490	0.50909	0.50684	0.42575	0.90637	0.76690	0.59088	4.78089	2.97940	1.56792	0.29613	0.27619	0.24210	1.26683	1.07437	0.87852	3.76141	2.30514	1.17661
23660	0.50634	0.50385	0.42553	0.90500	0.76745	0.59083	4.77888	2.97908	1.56992	0.29820	0.27802	0.24476	1.26802	1.07736	0.87977	3.76229	2.30596	1.17727
23820	0.50489	0.50437	0.42463	0.90161	0.76366	0.58782	4.76315	2.97768	1.56836	0.29613	0.27600	0.24338	1.26359	1.07677	0.87719	3.76015	2.30433	1.17511
23980	0.50480	0.50482	0.42225	0.89979	0.76079	0.58440	4.76623	2.97800	1.56522	0.29288	0.27244	0.24020	1.26860	1.07742	0.88252	3.76371	2.30899	1.18048
24150	0.50912	0.50596	0.42493	0.90525	0.76621	0.58968	4.76802	2.98022	1.56958	0.29685	0.27686	0.24396	1.26916	1.08012	0.88094	3.76448	2.30768	1.17866
24310	0.50531	0.50891	0.42704	0.90454	0.76522	0.59037	4.77594	2.98161	1.57020	0.29673	0.27669	0.24508	1.26625	1.07818	0.88104	3.76453	2.30658	1.17749
24470	0.50610	0.50456	0.42279	0.90145	0.76197	0.58566	4.77927	2.97379	1.56451	0.29372	0.27220	0.24037	1.26407	1.07653	0.87558	3.76241	2.30060	1.17357	33.35	6.3	0.00	7.57	0.01260	0.01286	0.01608	0.00779	0.00579	0.00635	0.00465	0.01259	0.01670	0.00673	0.00698	0.00866	0.01481	0.01087	0.01189	0.00216	0.00616	0.00864
24640	0.50081	0.50186	0.42514	0.90117	0.76622	0.59149	4.77402	2.98219	1.57091	0.29923	0.27734	0.24573	1.26932	1.08027	0.88080	3.77090	2.30874	1.17883
24800	0.50572	0.50224	0.42646	0.90526	0.76544	0.58849	4.76863	2.97816	1.56596	0.29512	0.27454	0.24339	1.26422	1.07351	0.87653	3.76416	2.30271	1.17422
24960	0.50277	0.50273	0.42406	0.90084	0.76402	0.58839	4.76127	2.98012	1.56970	0.29699	0.27546	0.24480	1.26680	1.07719	0.87978	3.76668	2.30543	1.17701
25120	0.50388	0.50326	0.42179	0.90290	0.76408	0.58817	4.77112	2.97520	1.56569	0.29455	0.27343	0.24168	1.26373	1.07495	0.87695	3.76493	2.30263	1.17472
25290	0.50498	0.50399	0.42286	0.90085	0.76352	0.58691	4.76316	2.97681	1.56525	0.29471	0.27391	0.24105	1.26728	1.07714	0.88197	3.76657	2.30656	1.17816
25450	0.50680	0.50568	0.42412	0.90431	0.76561	0.58976	4.77220	2.98125	1.56937	0.29699	0.27567	0.24394	1.26610	1.07430	0.87978	3.76646	2.30448	1.17724
25610	0.50466	0.50387	0.42397	0.90147	0.76339	0.58700	4.76904	2.97712	1.56469	0.29332	0.27266	0.24104	1.26514	1.07759	0.88142	3.76723	2.30604	1.17861
25780	0.50616	0.50633	0.42584	0.90355	0.76535	0.58839	4.77026	2.97943	1.56895	0.29606	0.27457	0.24251	1.26760	1.07725	0.88041	3.76662	2.30301	1.17651
25940	0.50613	0.50410	0.42360	0.90225	0.76422	0.58719	4.77622	2.97876	1.56765	0.29527	0.27566	0.24325	1.26672	1.08152	0.88070	3.76843	2.30630	1.17732
26100	0.50541	0.50340	0.42609	0.90329	0.76490	0.58862	4.77428	2.97788	1.56892	0.29672	0.27598	0.24335	1.26700	1.07470	0.87817	3.77034	2.30392	1.17633	33.30	6.2	0.00	7.63	0.01260	0.01286	0.01608	0.00779	0.00579	0.00635	0.00465	0.01259	0.01670	0.00673	0.00698	0.00866	0.01481	0.01087	0.01189	0.00216	0.00616	0.00864
26270	0.50352	0.50288	0.42325	0.90097	0.76137	0.58588	4.75866	2.97540	1.56502	0.29511	0.27343	0.24139	1.26360	1.07630	0.88067	3.76607	2.30564	1.17781
26430	0.50780	0.50574	0.42480	0.90422	0.76485	0.58884	4.77361	2.98112	1.56672	0.29688	0.27621	0.24492	1.26631	1.07519	0.87740	3.76662	2.30455	1.17607
26600	0.50563	0.50142	0.42186	0.90114	0.76244	0.58583	4.75680	2.97577	1.56335	0.29327	0.27244	0.24082	1.26970	1.07971	0.88241	3.76864	2.30866	1.18108
26760	0.50883	0.50764	0.42620	0.90793	0.76740	0.59107	4.75525	2.97769	1.56832	0.29760	0.27576	0.24521	1.26802	1.07662	0.87876	3.76706	2.30440	1.17572
26920	0.50573	0.50714	0.42519	0.90473	0.76591	0.58965	4.76368	2.97957	1.57029	0.29741	0.27645	0.24470	1.26856	1.07794	0.88114	3.77012	2.30509	1.17704
27090	0.50479	0.50474	0.42382	0.90149	0.76293	0.58770	4.75547	2.97587	1.56692	0.29468	0.27377	0.24260	1.26469	1.07331	0.87755	3.76404	2.30202	1.17447
27250	0.50364	0.50358	0.42191	0.89994	0.76153	0.58523	4.75996	2.97136	1.56362	0.29290	0.27171	0.23998	1.26607	1.07687	0.88249	3.76925	2.30738	1.17983
27410	0.50765	0.50573	0.42619	0.90497	0.76533	0.58938	4.76699	2.98143	1.57022	0.29672	0.27563	0.24389	1.26704	1.07848	0.88004	3.76563	2.30332	1.17501
27580	0.50533	0.50542	0.42573	0.90248	0.76413	0.58829	4.76279	2.98158	1.56870	0.29641	0.27551	0.24398	1.26803	1.08100	0.88010	3.76738	2.30518	1.17615
27740	0.50674	0.50370	0.42528	0.90040	0.76252	0.58624	4.76812	2.97855	1.56853	0.29483	0.27161	0.24118	1.26674	1.07916	0.88089	3.76251	2.30232	1.17408	33.35	6.2	0.00	7.70	0.01260	0.01286	0.01608	0.00779	0.00579	0.00635	0.00465	0.01259	0.01670	0.00673	0.00698	0.00866	0.01481	0.01087	0.01189	0.00216	0.00616	0.00864
27900	0.50384	0.50246	0.42405	0.90022	0.76061	0.58533	4.77430	2.97922	1.56898	0.29345	0.27161	0.24050	1.27117	1.08384	0.88622	3.76283	2.30669	1.17787
28070	0.50876	0.50574	0.42850	0.90322	0.76492	0.58868	4.77899	2.98069	1.57116	0.29636	0.27453	0.24426	1.27085	1.08400	0.88622	3.76492	2.30445	1.17629
28230	0.50666	0.50555	0.42849	0.90187	0.76375	0.58830	4.77649	2.97792	1.56947	0.29612	0.27459	0.24334	1.27098	1.07959	0.88197	3.76809	2.30524	1.17613
28390	0.50770	0.50565	0.42491	0.90317	0.76291	0.58798	4.77482	2.98015	1.56630	0.29493	0.27272	0.24226	1.26766	1.07447	0.88100	3.76136	2.30083	1.17333
28560	0.50428	0.50541	0.42900	0.90084	0.76460	0.59214	4.78532	2.98513	1.57500	0.30096	0.27576	0.24540	1.26987	1.08380	0.88652	3.76727	2.30841	1.17831
28720	0.50948	0.50642	0.42777	0.90445	0.76507	0.59065	4.78450	2.97961	1.56852	0.29861	0.27470	0.24466	1.26926	1.07649	0.88308	3.76519	2.30362	1.17511
28880	0.50519	0.50494	0.42620	0.90014	0.76421	0.58973	4.76344	2.97663	1.57152	0.29887	0.27606	0.24598	1.26916	1.07982	0.87812	3.76820	2.30763	1.17833
29040	0.50660	0.50465	0.42292	0.90227	0.76249	0.58682	4.77095	2.98150	1.56762	0.29581	0.27179	0.24274	1.26505	1.07568	0.87668	3.76360	2.30103	1.17365
29210	0.50525	0.50395	0.42317	0.89969	0.76141	0.58661	4.77486	2.97459	1.56535	0.29546	0.27250	0.24136	1.26626	1.07867	0.88189	3.76771	2.30742	1.17796
29370	0.50714	0.50456	0.42637	0.90426	0.76481	0.59007	4.77485	2.98363	1.56859	0.29897	0.27497	0.24464	1.26611	1.07888	0.87963	3.76541	2.30386	1.17500	33.35	6.2	0.00	7.61	0.01260	0.01286	0.01608	0.00779	0.00579	0.00635	0.00465	0.01259	0.01670	0.00673	0.00698	0.00866	0.01481	0.01087	0.01189	0.00216	0.00616	0.00864
29530	0.50662	0.50331	0.42254	0.89958	0.76063	0.58593	4.76972	2.97544	1.56576	0.29653	0.27144	0.24242	1.26566	1.07587	0.87720	3.75681	2.29993	1.17146
29700	0.50689	0.50699	0.42729	0.90367	0.76476	0.59124	4.78039	2.98107	1.57200	0.29995	0.27635	0.24624	1.27041	1.08237	0.88254	3.77264	2.30860	1.17917
29860	0.50700	0.50435	0.42547	0.90262	0.76307	0.58792	4.77831	2.97858	1.56789	0.29754	0.27270	0.24444	1.26743	1.07443	0.88066	3.76124	2.30296	1.17509
30020	0.50580	0.50320	0.42652	0.90276	0.76427	0.58879	4.77262	2.97702	1.57097	0.29840	0.27417	0.24547	1.26571	1.07529	0.87957	3.76300	2.30399	1.17542
30180	0.50302	0.50290	0.42392	0.90167	0.76233	0.58742	4.76470	2.97724	1.56720	0.29623	0.27270	0.24388	1.26304	1.07637	0.87834	3.76146	2.30278	1.17432
30350	0.50486	0.50164	0.42303	0.89894	0.75894	0.58404	4.76091	2.97139	1.56466	0.29445	0.26988	0.24167	1.26464	1.07726	0.88162	3.76404	2.30678	1.17732
30510	0.50626	0.50328	0.42438	0.90295	0.76350	0.58820	4.76596	2.97619	1.56975	0.29634	0.27225	0.24323	1.26414	1.07570	0.87724	3.76234	2.30298	1.17441
30670	0.50292	0.50324	0.42375	0.89988	0.76119	0.58582	4.76804	2.97743	1.56687	0.29554	0.27122	0.24135	1.26674	1.07732	0.88222	3.76113	2.30447	1.17559
30840	0.50519	0.50395	0.42577	0.90204	0.76288	0.58784	4.77169	2.97938	1.56766	0.29780	0.27284	0.24311	1.26736	1.07598	0.88007	3.76163	2.30286	1.17445
31000	0.50404	0.50192	0.42231	0.89882	0.75993	0.58466	4.76988	2.97269	1.56576	0.29540	0.27027	0.24120	1.26777	1.07916	0.88169	3.76117	2.30401	1.17590	33.35	6.1	0.00	7.60	0.01260	0.01286	0.01608	0.00778	0.00579	0.00635	0.00465	0.01259	0.01670	0.00673	0.00698	0.00866	0.01481	0.01087	0.01189	0.00216	0.00616	0.00863
31170	0.50480	0.50379	0.42437	0.90116	0.76247	0.58628	4.76215	2.97970	1.56734	0.29749	0.27409	0.24297	1.26674	1.08074	0.88198	3.75761	2.30204	1.17346
31330	0.50473	0.50023	0.42444	0.89913	0.75892	0.58354	4.76799	2.97239	1.56445	0.29520	0.26987	0.24105	1.26898	1.07714	0.88343	3.76139	2.30542	1.17725
31490	0.50617	0.50305	0.42540	0.90206	0.76231	0.58591	4.78149	2.97667	1.56708	0.29833	0.27204	0.24288	1.26781	1.07781	0.88124	3.76084	2.30347	1.17433
31660	0.50533	0.50503	0.42503	0.90150	0.76306	0.58770	4.77725	2.98024	1.57048	0.29773	0.27232	0.24301	1.26698	1.07626	0.88089	3.76161	2.30460	1.17595
31820	0.50663	0.50463	0.42447	0.90107	0.76184	0.58688	4.76431	2.97792	1.56779	0.29721	0.27181	0.24229	1.26758	1.07558	0.88126	3.75597	2.29965	1.17280
31980	0.50289	0.50062	0.42258	0.89737	0.75899	0.58307	4.77617	2.97489	1.56661	0.29465	0.27004	0.24012	1.26934	1.07915	0.88726	3.76194	2.30735	1.17800
32150	0.50908	0.50609	0.42666	0.90235	0.76340	0.58740	4.78559	2.98188	1.57072	0.29886	0.27440	0.24337	1.26929	1.08041	0.88068	3.76243	2.30527	1.17743
32310	0.50631	0.50533	0.42594	0.90336	0.76354	0.58907	4.77208	2.98399	1.57153	0.29866	0.27327	0.24429	1.26628	1.07929	0.88194	3.76008	2.30432	1.17642
32470	0.50652	0.50424	0.42355	0.90111	0.76033	0.58457	4.77375	2.97752	1.56828	0.29512	0.26975	0.24108	1.26448	1.07454	0.87768	3.75800	2.29910	1.17180
32640	0.50178	0.50338	0.42450	0.89883	0.76198	0.58699	4.77377	2.98214	1.57053	0.29716	0.27340	0.24360	1.26829	1.07875	0.88104	3.75820	2.30246	1.17537	33.30	6.2	0.00	7.60	0.01260	0.01286	0.01608	0.00778	0.00579	0.00635	0.00465	0.01259	0.01670	0.00673	0.00698	0.00866	0.01481	0.01087	0.01189	0.00216	0.00616	0.00863
32800	0.50490	0.50343	0.42281	0.90025	0.76104	0.58458	4.76247	2.97875	1.56582	0.29529	0.27048	0.24130	1.26565	1.07404	0.87965	3.75596	2.29953	1.17249
32960	0.50237	0.50225	0.42219	0.89840	0.75972	0.58329	4.76764	2.97608	1.56608	0.29473	0.26994	0.23991	1.26722	1.07867	0.88176	3.76056	2.30406	1.17634
33120	0.50506	0.50414	0.42596	0.90197	0.76313	0.58585	4.77195	2.98131	1.56976	0.29635	0.27344	0.24180	1.26833	1.07636	0.88116	3.75946	2.30080	1.17372
33290	0.50482	0.50281	0.42451	0.89907	0.76001	0.58408	4.77017	2.97603	1.56759	0.29565	0.27135	0.24091	1.26366	1.07615	0.87765	3.75591	2.29859	1.17120
33450	0.50090	0.50338	0.42379	0.89792	0.76187	0.58761	4.77645	2.98344	1.57367	0.29926	0.27510	0.24425	1.26750	1.07991	0.88499	3.76160	2.30382	1.17728
33610	0.50789	0.50363	0.42685	0.90209	0.76413	0.58721	4.77928	2.97643	1.56860	0.29609	0.27195	0.24168	1.26483	1.07540	0.88109	3.75629	2.29909	1.17232
33770	0.50452	0.50696	0.42835	0.90197	0.76427	0.58854	4.77370	2.98279	1.57099	0.29910	0.27573	0.24434	1.26733	1.07927	0.88292	3.76368	2.30279	1.17597
33940	0.50656	0.50256	0.42401	0.89979	0.76072	0.58397	4.76868	2.97706	1.56660	0.29590	0.27241	0.24057	1.26443	1.07652	0.88100	3.75908	2.30157	1.17326
34100	0.50271	0.50195	0.42094	0.89739	0.75891	0.58171	4.76533	2.97511	1.56435	0.29247	0.26931	0.23770	1.26784	1.07814	0.88282	3.75985	2.30264	1.17584
34260	0.50777	0.50526	0.42629	0.90189	0.76280	0.58614	4.77791	2.97793	1.56877	0.29578	0.27259	0.24079	1.26785	1.07754	0.88015	3.75729	2.29901	1.17270	33.35	6.2	0.00	7.63	0.01260	0.01286	0.01608	0.00778	0.00579	0.00635	0.00465	0.01259	0.01671	0.00673	0.00698	0.00866	0.01481	0.01087	0.01189	0.00216	0.00616	0.00863
34430	0.50355	0.50238	0.42309	0.89754	0.75974	0.58369	4.77397	2.97506	1.56641	0.29484	0.27200	0.24026	1.26771	1.07966	0.87981	3.75975	2.30280	1.17591
34590	0.50459	0.50478	0.42481	0.90013	0.76160	0.58613	4.76690	2.97962	1.56694	0.29615	0.27350	0.24180	1.26731	1.07956	0.88149	3.75778	2.30135	1.17383
34750	0.50447	0.50437	0.42446	0.89804	0.75938	0.58328	4.76081	2.97494	1.56523	0.29347	0.27101	0.23879	1.26764	1.08092	0.88234	3.76277	2.30312	1.17564
34920	0.50767	0.50708	0.42648	0.90077	0.76280	0.58688	4.77881	2.98096	1.56833	0.29708	0.27466	0.24274	1.26777	1.07822	0.88010	3.75762	2.30141	1.17362
35080	0.50511	0.50224	0.42469	0.89797	0.75852	0.58300	4.77040	2.97934	1.56441	0.29255	0.26945	0.23848	1.26985	1.07975	0.88334	3.76315	2.30554	1.17805
35250	0.50947	0.50703	0.42715	0.90265	0.76396	0.58732	4.77140	2.98262	1.56899	0.29676	0.27435	0.24211	1.26715	1.07877	0.87855	3.76047	2.30194	1.17336
35410	0.50680	0.50666	0.42721	0.90076	0.76407	0.58792	4.77933	2.98441	1.57254	0.29781	0.27577	0.24407	1.26993	1.08103	0.88219	3.76353	2.30400	1.17553
35570	0.50617	0.50501	0.42374	0.89955	0.76189	0.58522	4.77523	2.97727	1.56792	0.29477	0.27332	0.24073	1.26502	1.07474	0.88041	3.75800	2.29876	1.17189
35740	0.50511	0.50447	0.42713	0.90015	0.76324	0.58855	4.76553	2.98272	1.57011	0.29795	0.27461	0.24351	1.26705	1.07927	0.88041	3.76255	2.30184	1.17481
35900	0.50724	0.50587	0.42471	0.89912	0.76133	0.58481	4.76626	2.97694	1.56822	0.29560	0.27248	0.24094	1.26500	1.07640	0.87801	3.75573	2.29845	1.17262	33.30	6.2	0.00	7.73	0.01260	0.01286	0.01608	0.00778	0.00579	0.00635	0.00465	0.01259	0.01670	0.00673	0.00698	0.00866	0.01481	0.01087	0.01189	0.00216	0.00616	0.00863
36060	0.50287	0.50275	0.42323	0.89609	0.76025	0.58255	4.75975	2.97252	1.56330	0.29225	0.27042	0.23867	1.26610	1.08046	0.87887	3.75940	2.30502	1.17643
36230	0.50522	0.50643	0.42566	0.90052	0.76311	0.58597	4.76410	2.97700	1.56840	0.29635	0.27403	0.24164	1.26445	1.07547	0.87771	3.75655	2.30040	1.17267
36390	0.50509	0.50342	0.42293	0.89814	0.75906	0.58199	4.75946	2.97252	1.56509	0.29283	0.27018	0.23772	1.26571	1.07733	0.88085	3.75885	2.30043	1.17408
36550	0.50403	0.50297	0.42489	0.89946	0.76235	0.58459	4.76466	2.97523	1.56674	0.29568	0.27343	0.24055	1.26678	1.07832	0.88120	3.76170	2.30297	1.17553
36720	0.50595	0.50453	0.42412	0.90044	0.76289	0.58632	4.76562	2.98028	1.57024	0.29692	0.27507	0.24198	1.26520	1.07539	0.87964	3.75748	2.30200	1.17460
36880	0.50755	0.50455	0.42486	0.89905	0.76175	0.58389	4.75608	2.97363	1.56667	0.29502	0.27316	0.24104	1.27061	1.08120	0.88108	3.76433	2.30548	1.17797
37040	0.50714	0.50608	0.42732	0.90282	0.76466	0.58804	4.76800	2.98125	1.57102	0.29807	0.27547	0.24343	1.26632	1.07932	0.88061	3.76066	2.30300	1.17614
37210	0.50761	0.50350	0.42666	0.90066	0.76321	0.58679	4.77526	2.98014	1.56964	0.29700	0.27541	0.24258	1.26815	1.07728	0.87758	3.75633	2.30184	1.17453
37370	0.50545	0.50163	0.42345	0.90010	0.76273	0.58604	4.76752	2.98024	1.56688	0.29649	0.27343	0.24106	1.26515	1.07663	0.87775	3.75507	2.30019	1.17279
37540	0.50347	0.50375	0.42260	0.89681	0.75966	0.58195	4.76068	2.97288	1.56447	0.29201	0.27003	0.23886	1.26639	1.07992	0.87791	3.75820	2.30523	1.17694	33.35	6.1	0.00	7.68	0.01260	0.01286	0.01608	0.00778	0.00579	0.00635	0.00465	0.01259	0.01670	0.00673	0.00698	0.00866	0.01481	0.01087	0.01189	0.00216	0.00616	0.00863
37700	0.50654	0.50643	0.42695	0.90171	0.76501	0.58608	4.76644	2.98065	1.56806	0.29586	0.27365	0.24176	1.26627	1.07761	0.88066	3.75826	2.30246	1.17378
37860	0.50494	0.50295	0.42330	0.89658	0.75923	0.58331	4.76529	2.97322	1.56370	0.29361	0.27088	0.23891	1.26796	1.07930	0.88324	3.76346	2.30580	1.17846
38030	0.50698	0.50669	0.42677	0.90152	0.76359	0.58720	4.76614	2.97985	1.56959	0.29689	0.27381	0.24223	1.26647	1.07749	0.88099	3.75535	2.30143	1.17399
38190	0.50654	0.50560	0.42667	0.90103	0.76466	0.58780	4.77332	2.98320	1.56890	0.29661	0.27528	0.24159	1.26752	1.07993	0.88193	3.75574	2.30189	1.17472
38350	0.50686	0.50559	0.42608	0.90089	0.76313	0.58598	4.77224	2.97984	1.56981	0.29620	0.27457	0.24074	1.26498	1.07881	0.87884	3.75820	2.30049	1.17339
38520	0.50819	0.50766	0.42750	0.90162	0.76404	0.58770	4.77846	2.98129	1.57058	0.29699	0.27588	0.24204	1.26954	1.08035	0.88172	3.75880	2.30279	1.17468
38680	0.50914	0.50640	0.42715	0.90029	0.76234	0.58658	4.77872	2.98040	1.57083	0.29588	0.27388	0.24111	1.26744	1.07819	0.88127	3.75618	2.30148	1.17333
38840	0.50578	0.50452	0.42320	0.89776	0.75974	0.58275	4.77303	2.97976	1.56537	0.29188	0.27080	0.23838	1.26859	1.08225	0.88237	3.76226	2.30600	1.17813
39010	0.50836	0.50772	0.42692	0.90196	0.76359	0.58738	4.77418	2.98456	1.56864	0.29682	0.27521	0.24210	1.27090	1.07851	0.88164	3.76209	2.30326	1.17496
39170	0.50535	0.50378	0.42510	0.89912	0.76050	0.58409	4.76160	2.97633	1.56520	0.29251	0.27065	0.23923	1.26756	1.07799	0.88065	3.76083	2.30546	1.17805	33.35	6.1	0.00	7.66	0.01260	0.01286	0.01608	0.00778	0.00579	0.00635	0.00465	0.01259	0.01670	0.00673	0.00698	0.00866	0.01481	0.01087	0.01189	0.00216	0.00616	0.00863
39330	0.50822	0.50417	0.42636	0.90334	0.76458	0.58759	4.75970	2.97883	1.56889	0.29690	0.27362	0.24294	1.26946	1.07836	0.88142	3.75453	2.30153	1.17376
39500	0.50685	0.50455	0.42374	0.90087	0.76341	0.58799	4.76933	2.97736	1.56919	0.29795	0.27509	0.24367	1.26742	1.07585	0.88066	3.76033	2.30322	1.17464
39660	0.50504	0.50469	0.42463	0.90018	0.76241	0.58440	4.76108	2.97729	1.56612	0.29504	0.27315	0.24245	1.26400	1.07591	0.88043	3.75754	2.30038	1.17371
39820	0.50326	0.50161	0.42450	0.89882	0.76011	0.58430	4.76606	2.97543	1.56469	0.29286	0.27055	0.23950	1.26609	1.07709	0.87990	3.75940	2.30471	1.17770
39990	0.50540	0.50491	0.42444	0.90205	0.76280	0.58658	4.76230	2.97829	1.56885	0.29577	0.27409	0.24222	1.26424	1.07652	0.87849	3.75535	2.30109	1.17373
40150	0.50447	0.50064	0.42402	0.89796	0.75935	0.58248	4.75785	2.97357	1.56319	0.29287	0.27107	0.23927	1.26655	1.07391	0.88089	3.75721	2.30238	1.17558
40310	0.50550	0.50384	0.42427	0.89963	0.76231	0.58563	4.77086	2.97943	1.56549	0.29590	0.27267	0.24158	1.26843	1.07680	0.88094	3.75781	2.30543	1.17681
40480	0.50744	0.50650	0.42702	0.90388	0.76434	0.58745	4.77391	2.97996	1.57000	0.29751	0.27392	0.24239	1.26704	1.07387	0.88005	3.75590	2.30138	1.17464
40640	0.50649	0.50463	0.42375	0.90043	0.76255	0.58573	4.76959	2.97946	1.56636	0.29581	0.27443	0.24165	1.27014	1.07900	0.88156	3.75765	2.30702	1.17927
40810	0.51105	0.50721	0.42835	0.90512	0.76668	0.59017	4.77554	2.98400	1.57168	0.29786	0.27599	0.24447	1.27064	1.08037	0.88063	3.76018	2.30565	1.17695	33.35	6.0	0.00	7.59	0.01260	0.01286	0.01608	0.00778	0.00579	0.00635	0.00465	0.01259	0.01670	0.00673	0.00698	0.00866	0.01481	0.01087	0.01189	0.00216	0.00616	0.00863
40970	0.50461	0.50704	0.42684	0.90258	0.76460	0.58949	4.77810	2.98160	1.57138	0.29732	0.27425	0.24315	1.26826	1.08024	0.88073	3.75760	2.30473	1.17508
41130	0.50502	0.50452	0.42545	0.89998	0.76264	0.58682	4.77736	2.97872	1.56765	0.29623	0.27253	0.24153	1.26601	1.07644	0.87874	3.75941	2.30151	1.17345
41290	0.50309	0.50269	0.42317	0.89844	0.75951	0.58395	4.76765	2.97517	1.56362	0.29267	0.26952	0.23978	1.26832	1.07716	0.88106	3.76127	2.30580	1.17710
41460	0.50772	0.50552	0.42497	0.90214	0.76330	0.58730	4.77074	2.98070	1.56821	0.29544	0.27323	0.24226	1.26721	1.07652	0.87940	3.75777	2.30311	1.17545
41620	0.50442	0.50312	0.42487	0.89904	0.76011	0.58403	4.75791	2.97667	1.56625	0.29357	0.27073	0.24015	1.27045	1.07667	0.88199	3.75793	2.30522	1.17753
41780	0.50617	0.50532	0.42490	0.90198	0.76432	0.58750	4.76371	2.98184	1.56715	0.29726	0.27379	0.24305	1.26669	1.07654	0.87898	3.75612	2.30365	1.17526
41950	0.50471	0.50506	0.42333	0.89910	0.76160	0.58435	4.76717	2.97811	1.56545	0.29358	0.27174	0.24019	1.26774	1.07865	0.88197	3.76176	2.30601	1.17760
42110	0.50744	0.50507	0.42525	0.90268	0.76445	0.58714	4.77208	2.97916	1.56815	0.29644	0.27443	0.24282	1.26719	1.07758	0.87885	3.75760	2.30151	1.17410
42280	0.50192	0.50194	0.42309	0.89977	0.76159	0.58426	4.77115	2.97462	1.56509	0.29344	0.27109	0.23948	1.26770	1.08175	0.88108	3.76160	2.30662	1.17834
42440	0.50769	0.50772	0.42786	0.90249	0.76682	0.58835	4.76541	2.98072	1.56960	0.29672	0.27379	0.24287	1.26817	1.07672	0.87788	3.75832	2.30404	1.17549	33.35	6.1	0.00	7.72	0.01260	0.01286	0.01608	0.00778	0.00579	0.00635	0.00465	0.01259	0.01670	0.00673	0.00698	0.00866	0.01481	0.01087	0.01189	0.00216	0.00616	0.00863
42600	0.50750	0.50547	0.42660	0.90127	0.76475	0.58800	4.77627	2.98144	1.56990	0.29675	0.27396	0.24301	1.26619	1.07862	0.87908	3.75821	2.30255	1.17429
42770	0.50380	0.50419	0.42378	0.89921	0.76237	0.58557	4.77151	2.97601	1.56775	0.29450	0.27180	0.24151	1.26504	1.07348	0.87960	3.75799	2.30122	1.17309
42930	0.50339	0.50362	0.42258	0.89742	0.75879	0.58322	4.76905	2.97623	1.56631	0.29234	0.26940	0.23917	1.26619	1.07932	0.87899	3.76045	2.30543	1.17784
43090	0.50720	0.50580	0.42578	0.90173	0.76441	0.58776	4.76682	2.98210	1.56804	0.29562	0.27383	0.24252	1.26827	1.07742	0.88044	3.75334	2.30146	1.17434
43260	0.50429	0.50194	0.42231	0.89823	0.76166	0.58508	4.76742	2.97433	1.56278	0.29319	0.27056	0.23951	1.26619	1.07857	0.88339	3.76363	2.30613	1.17916
43420	0.50629	0.50663	0.42738	0.90302	0.76514	0.58786	4.77270	2.98036	1.56990	0.29620	0.27336	0.24322	1.26720	1.07799	0.88112	3.75514	2.30045	1.17500
43580	0.50489	0.50375	0.42275	0.89890	0.76044	0.58347	4.76608	2.97622	1.56515	0.29304	0.26994	0.24005	1.26869	1.08093	0.88670	3.76281	2.30595	1.17936
43750	0.50930	0.50606	0.42486	0.90131	0.76458	0.58759	4.76493	2.98034	1.56929	0.29590	0.27315	0.24189	1.26615	1.07743	0.88063	3.76095	2.30495	1.17716
43910	0.50659	0.50404	0.42651	0.90261	0.76488	0.58740	4.76136	2.97936	1.56929	0.29588	0.27285	0.24316	1.26702	1.07774	0.87839	3.75815	2.30048	1.17376
44070	0.50603	0.50382	0.42515	0.90017	0.76194	0.58488	4.76178	2.97617	1.56657	0.29340	0.27207	0.24081	1.26473	1.07406	0.87978	3.75892	2.29819	1.17102	33.30	6.3	0.00	7.65	0.01260	0.01286	0.01608	0.00778	0.00579	0.00635	0.00465	0.01259	0.01670	0.00673	0.00698	0.00866	0.01481	0.01087	0.01189	0.00216	0.00616	0.00864
44240	0.50380	0.50573	0.42581	0.89665	0.76300	0.58850	4.77468	2.97982	1.57470	0.29849	0.27513	0.24544	1.26931	1.08174	0.88152	3.76248	2.30587	1.17689
44400	0.50808	0.50451	0.42602	0.90044	0.76139	0.58556	4.77859	2.97815	1.56796	0.29485	0.27159	0.24208	1.26374	1.07759	0.88055	3.75634	2.30114	1.17497
44560	0.50226	0.50563	0.42652	0.89861	0.76300	0.58734	4.76661	2.98056	1.56967	0.29577	0.27333	0.24294	1.26760	1.07815	0.87928	3.75804	2.30222	1.17600
44720	0.50555	0.50589	0.42386	0.89977	0.76197	0.58670	4.76684	2.97585	1.56907	0.29478	0.27317	0.24156	1.26618	1.07516	0.87800	3.75919	2.30070	1.17420
44890	0.50604	0.50451	0.42272	0.89911	0.76108	0.58485	4.76353	2.97550	1.56574	0.29342	0.27127	0.24092	1.26590	1.08181	0.88469	3.76259	2.30556	1.17896
45050	0.50850	0.50718	0.42585	0.90401	0.76537	0.58937	4.76825	2.98193	1.57305	0.29847	0.27522	0.24482	1.26767	1.07754	0.87962	3.76176	2.30288	1.17694
45210	0.50586	0.50469	0.42462	0.90111	0.76421	0.58685	4.76959	2.98080	1.56617	0.29427	0.27189	0.24189	1.26626	1.07968	0.87846	3.76155	2.30338	1.17680
45380	0.50629	0.50513	0.42396	0.90165	0.76357	0.58752	4.76836	2.97675	1.56869	0.29591	0.27256	0.24318	1.26561	1.07671	0.87809	3.75842	2.30029	1.17459
45540	0.50385	0.50422	0.42584	0.89788	0.76005	0.58579	4.74785	2.97925	1.56560	0.29343	0.27089	0.24152	1.26263	1.07566	0.87654	3.75612	2.29777	1.17187
45700	0.50534	0.50726	0.42542	0.90276	0.76563	0.59047	4.76870	2.98126	1.57011	0.29808	0.27502	0.24492	1.26724	1.07663	0.88065	3.76057	2.30586	1.17865	33.35	6.2	0.00	7.64	0.01260	0.01286	0.01608	0.00778	0.00579	0.00635	0.00465	0.01259	0.01670	0.00673	0.00698	0.00866	0.01481	0.01087	0.01189	0.00216	0.00616	0.00864
45870	0.50662	0.50622	0.42363	0.90241	0.76350	0.58683	4.77015	2.97735	1.56783	0.29607	0.27176	0.24178	1.26181	1.07387	0.87409	3.75707	2.29882	1.17215
46030	0.50290	0.50443	0.42615	0.90111	0.76417	0.58863	4.75157	2.98161	1.56838	0.29763	0.27463	0.24453	1.26485	1.07945	0.87841	3.76348	2.30444	1.17554
46190	0.50485	0.50461	0.42554	0.90013	0.76277	0.58708	4.76862	2.97951	1.56902	0.29484	0.27269	0.24220	1.26497	1.07553	0.88106	3.75899	2.30079	1.17439
46350	0.50536	0.50567	0.42636	0.89850	0.75958	0.58442	4.77551	2.97677	1.56344	0.29250	0.27001	0.24088	1.26752	1.08015	0.88228	3.75948	2.30347	1.17661
46520	0.50786	0.50608	0.42492	0.90184	0.76259	0.58758	4.78035	2.97840	1.56776	0.29584	0.27288	0.24338	1.26849	1.07906	0.88194	3.75970	2.30388	1.17487
46680	0.50546	0.50448	0.42619	0.89971	0.76129	0.58544	4.76513	2.97817	1.56539	0.29348	0.27118	0.24139	1.26661	1.08027	0.88168	3.76205	2.30547	1.17646
46840	0.50789	0.50568	0.42746	0.90148	0.76427	0.58851	4.77015	2.97748	1.56991	0.29641	0.27306	0.24417	1.26831	1.07735	0.88074	3.75997	2.30260	1.17507
47010	0.50553	0.50299	0.42518	0.90018	0.76216	0.58537	4.76606	2.97769	1.56683	0.29422	0.27096	0.24175	1.26514	1.08027	0.88132	3.76408	2.30558	1.17799
47170	0.50846	0.50609	0.42749	0.90227	0.76499	0.58765	4.76754	2.98039	1.56963	0.29666	0.27323	0.24415	1.26645	1.07814	0.87945	3.76036	2.30167	1.17500
47340	0.50737	0.50586	0.42664	0.90264	0.76538	0.58818	4.77085	2.98217	1.57047	0.29769	0.27351	0.24483	1.26551	1.07520	0.88216	3.76199	2.30367	1.17617	33.35	6.1	0.00	7.62	0.01260	0.01286	0.01608	0.00778	0.00579	0.00635	0.00465	0.01259	0.01670	0.00673	0.00698	0.00866	0.01481	0.01087	0.01189	0.00216	0.00616	0.00864
47500	0.50713	0.50423	0.42528	0.90110	0.76305	0.58693	4.76966	2.97607	1.56639	0.29582	0.27113	0.24268	1.26638	1.07555	0.87764	3.75777	2.30069	1.17404
47660	0.50533	0.50571	0.42455	0.90219	0.76451	0.58872	4.77498	2.97809	1.56890	0.29727	0.27522	0.24513	1.26691	1.07439	0.87648	3.76205	2.30441	1.17627
47830	0.50469	0.50416	0.42374	0.90120	0.76226	0.58650	4.76568	2.97742	1.56622	0.29629	0.27203	0.24351	1.26548	1.07764	0.88157	3.76079	2.30547	1.17759
47990	0.50861	0.50660	0.42518	0.90367	0.76545	0.58873	4.75461	2.97968	1.56945	0.29893	0.27524	0.24562	1.26630	1.07731	0.87929	3.75838	2.30236	1.17558
48150	0.50479	0.50320	0.42277	0.90080	0.76246	0.58619	4.76025	2.97585	1.56327	0.29548	0.27233	0.24362	1.26231	1.07548	0.87432	3.75520	2.29946	1.17258
48320	0.50226	0.50387	0.42595	0.89842	0.76404	0.58882	4.75788	2.98142	1.57159	0.29911	0.27652	0.24683	1.26588	1.07927	0.88328	3.76265	2.30433	1.17745
48480	0.50684	0.50381	0.42392	0.90150	0.76463	0.58783	4.76092	2.97900	1.56657	0.29672	0.27306	0.24436	1.26196	1.07505	0.87535	3.76002	2.30079	1.17343
48640	0.50259	0.50245	0.42188	0.89854	0.75988	0.58300	4.75825	2.97530	1.56371	0.29166	0.26858	0.24055	1.26567	1.07670	0.87925	3.75843	2.30611	1.17937
48800	0.50781	0.50622	0.42528	0.90363	0.76627	0.58837	4.76884	2.97990	1.56840	0.29738	0.27298	0.24380	1.26673	1.07655	0.88009	3.75679	2.30174	1.17433
48970	0.50619	0.50181	0.42265	0.90072	0.76422	0.58603	4.75443	2.97726	1.56626	0.29563	0.27177	0.24270	1.26648	1.07822	0.87869	3.75866	2.30318	1.17663	33.35	6.1	0.00	7.63	0.01260	0.01286	0.01608	0.00778	0.00579	0.00635	0.00465	0.01259	0.01670	0.00673	0.00698	0.00866	0.01481	0.01087	0.01189	0.00216	0.00616	0.00864
49130	0.50378	0.50411	0.42393	0.90195	0.76304	0.58612	4.76539	2.97947	1.56756	0.29736	0.27232	0.24383	1.26487	1.07861	0.87976	3.75882	2.30154	1.17435
49290	0.50527	0.50343	0.42381	0.90004	0.76429	0.58590	4.76543	2.97531	1.56614	0.29557	0.27170	0.24300	1.26367	1.07737	0.87730	3.75915	2.29977	1.17249
49460	0.50697	0.50649	0.42691	0.90315	0.76694	0.59064	4.77208	2.98377	1.57235	0.30007	0.27578	0.24667	1.27035	1.08154	0.88316	3.76090	2.30498	1.17698
49620	0.50806	0.50336	0.42446	0.90206	0.76487	0.58693	4.77011	2.97670	1.56947	0.29573	0.27131	0.24327	1.26616	1.07648	0.87904	3.75707	2.29980	1.17294
49780	0.50534	0.50401	0.42648	0.90223	0.76467	0.58808	4.77260	2.97877	1.56764	0.29882	0.27334	0.24499	1.26615	1.07560	0.87987	3.75904	2.30218	1.17489
49940	0.50660	0.50356	0.42387	0.90022	0.76435	0.58594	4.77231	2.97778	1.56659	0.29685	0.27316	0.24394	1.26647	1.07608	0.87919	3.75800	2.30133	1.17315
50110	0.50437	0.50178	0.42127	0.89917	0.76207	0.58340	4.75796	2.97500	1.56488	0.29345	0.27081	0.24168	1.26666	1.07818	0.88079	3.75975	2.30409	1.17779
50270	0.50670	0.50653	0.42423	0.90239	0.76507	0.58705	4.76907	2.97734	1.56756	0.29663	0.27329	0.24424	1.26756	1.07786	0.87812	3.76118	2.30211	1.17545
50430	0.50322	0.50267	0.42319	0.90068	0.76138	0.58508	4.76007	2.97562	1.56523	0.29466	0.27064	0.24167	1.26783	1.07853	0.88078	3.76003	2.30527	1.17822
50600	0.50906	0.50543	0.42535	0.90311	0.76528	0.58726	4.76414	2.97998	1.56938	0.29676	0.27433	0.24571	1.26756	1.07605	0.87881	3.75855	2.30251	1.17352	33.35	6.3	0.00	7.71	0.01260	0.01286	0.01608	0.00778	0.00579	0.00635	0.00465	0.01259	0.01670	0.00673	0.00698	0.00866	0.01481	0.01087	0.01189	0.00216	0.00616	0.00863
50760	0.50330	0.50409	0.42322	0.89887	0.76067	0.58276	4.76890	2.97589	1.56388	0.29374	0.26975	0.24147	1.26897	1.07972	0.88345	3.76435	2.30671	1.17775
50930	0.50733	0.50514	0.42632	0.90427	0.76455	0.58726	4.76998	2.97776	1.56825	0.29695	0.27383	0.24473	1.26633	1.07629	0.87892	3.75975	2.30130	1.17417
51090	0.50627	0.50527	0.42769	0.90148	0.76530	0.58741	4.76399	2.97674	1.56910	0.29697	0.27424	0.24584	1.26729	1.07745	0.88348	3.75773	2.30245	1.17458
51250	0.50573	0.50511	0.42601	0.90133	0.76304	0.58522	4.76343	2.97648	1.56753	0.29600	0.27291	0.24295	1.26433	1.07229	0.87599	3.75729	2.29878	1.17252
51420	0.50420	0.50442	0.42348	0.89857	0.76045	0.58302	4.76295	2.97381	1.56558	0.29478	0.27066	0.24219	1.26699	1.07930	0.88371	3.76293	2.30556	1.17813
51580	0.50850	0.50736	0.42557	0.90389	0.76601	0.58773	4.77820	2.97865	1.57029	0.29805	0.27482	0.24622	1.26727	1.07816	0.88185	3.76178	2.30230	1.17500
51740	0.50633	0.50572	0.42715	0.90200	0.76452	0.58670	4.77002	2.98118	1.57005	0.29940	0.27474	0.24622	1.26814	1.07647	0.87963	3.76216	2.30214	1.17518
51910	0.50513	0.50303	0.42277	0.90081	0.76312	0.58542	4.75831	2.97688	1.56647	0.29619	0.27117	0.24394	1.26721	1.07846	0.87688	3.76002	2.30255	1.17541
52070	0.50562	0.50662	0.42467	0.90200	0.76282	0.58656	4.76615	2.97873	1.56749	0.29725	0.27261	0.24512	1.26535	1.07653	0.87793	3.75751	2.30017	1.17304
52230	0.50410	0.50411	0.42456	0.90049	0.76193	0.58628	4.76041	2.97809	1.56823	0.29641	0.27345	0.24388	1.26148	1.07431	0.87849	3.75864	2.30009	1.17225	33.30	6.3	0.00	7.63	0.01260	0.01286	0.01608	0.00778	0.00579	0.00635	0.00465	0.01259	0.01670	0.00673	0.00698	0.00866	0.01481	0.01087	0.01189	0.00216	0.00616	0.00863
52390	0.50171	0.50239	0.42380	0.90003	0.76400	0.58775	4.76461	2.98045	1.56998	0.29804	0.27471	0.24502	1.26657	1.07709	0.88110	3.75678	2.30219	1.17463
52560	0.50595	0.50633	0.42556	0.90149	0.76319	0.58682	4.76956	2.97690	1.56829	0.29603	0.27257	0.24397	1.26555	1.07427	0.87784	3.75497	2.30073	1.17196
52720	0.50611	0.50333	0.42294	0.89811	0.75980	0.58323	4.75740	2.97469	1.56602	0.29393	0.27176	0.24205	1.26880	1.07742	0.88351	3.75869	2.30446	1.17688
52880	0.50669	0.50550	0.42673	0.90291	0.76581	0.58830	4.77071	2.97792	1.56948	0.29809	0.27455	0.24532	1.26624	1.07774	0.87946	3.76269	2.30287	1.17550
53050	0.50617	0.50364	0.42376	0.90050	0.76071	0.58405	4.76398	2.97577	1.56510	0.29485	0.27154	0.24335	1.26894	1.08105	0.88010	3.76242	2.30453	1.17676
53210	0.50938	0.50747	0.42754	0.90437	0.76494	0.58762	4.76521	2.98067	1.57060	0.29832	0.27461	0.24644	1.26760	1.07946	0.87983	3.75700	2.30232	1.17533
53370	0.50436	0.50333	0.42295	0.90109	0.76149	0.58416	4.75870	2.97693	1.56636	0.29504	0.27269	0.24239	1.26405	1.07955	0.88159	3.75952	2.30201	1.17534
53540	0.50624	0.50338	0.42450	0.90160	0.76266	0.58589	4.76614	2.97579	1.56706	0.29555	0.27179	0.24324	1.26383	1.07837	0.87938	3.75722	2.30148	1.17262
53700	0.50520	0.50522	0.42477	0.89966	0.76059	0.58427	4.75510	2.97732	1.56678	0.29663	0.27216	0.24305	1.26300	1.07240	0.87728	3.75223	2.29852	1.17149
53860	0.50550	0.50472	0.42590	0.90057	0.76334	0.58714	4.76746	2.98329	1.57068	0.29711	0.27512	0.24484	1.26757	1.07718	0.88122	3.76057	2.30106	1.17515	33.35	6.1	0.00	7.59	0.01260	0.01286	0.01608	0.00778	0.00579	0.00635	0.00465	0.01259	0.01670	0.00673	0.00698	0.00866	0.01481	0.01087	0.01189	0.00216	0.00616	0.00863
54030	0.50375	0.50405	0.42455	0.90044	0.76180	0.58617	4.76571	2.97474	1.56821	0.29623	0.27298	0.24374	1.26692	1.07690	0.87844	3.76029	2.29875	1.17171
54190	0.50574	0.50627	0.42425	0.90142	0.76280	0.58684	4.76697	2.97989	1.56879	0.29742	0.27461	0.24468	1.26812	1.07539	0.87730	3.75975	2.29982	1.17322
54350	0.50351	0.50166	0.42378	0.90015	0.76214	0.58562	4.77341	2.97763	1.56738	0.29641	0.27329	0.24303	1.26372	1.07561	0.87798	3.75630	2.29844	1.17142
54520	0.50167	0.50152	0.41967	0.89692	0.75903	0.58189	4.76552	2.97279	1.56323	0.29234	0.27031	0.24022	1.26757	1.07839	0.88186	3.76287	2.30381	1.17723
54680	0.50546	0.50604	0.42516	0.90337	0.76336	0.58647	4.77032	2.97932	1.57060	0.29764	0.27507	0.24466	1.26920	1.07774	0.87773	3.75920	2.29959	1.17357
54840	0.50316	0.50200	0.42177	0.89895	0.76064	0.58303	4.76935	2.97466	1.56611	0.29417	0.27183	0.24087	1.26631	1.07994	0.88350	3.76073	2.30326	1.17773
55010	0.50796	0.50444	0.42697	0.90297	0.76497	0.58700	4.76802	2.97857	1.56953	0.29740	0.27334	0.24412	1.26681	1.07553	0.87902	3.75947	2.29982	1.17341
55170	0.50492	0.50230	0.42281	0.90000	0.75978	0.58312	4.76266	2.97511	1.56663	0.29417	0.27127	0.24070	1.26813	1.07584	0.87892	3.75958	2.30260	1.17648
55330	0.50742	0.50569	0.42542	0.90234	0.76185	0.58675	4.76679	2.98048	1.56783	0.29624	0.27279	0.24397	1.26455	1.07766	0.88096	3.75838	2.29995	1.17240
55500	0.50401	0.50235	0.42277	0.89911	0.76039	0.58352	4.77051	2.97472	1.56356	0.29339	0.27142	0.24203	1.26928	1.07841	0.88233	3.75832	2.30518	1.17765	33.35	6.1	0.00	7.56	0.01260	0.01286	0.01608	0.00778	0.00579	0.00635	0.00465	0.01259	0.01670	0.00673	0.00698	0.00866	0.01481	0.01087	0.01189	0.00216	0.00616	0.00863
55660	0.50655	0.50355	0.42499	0.90301	0.76433	0.58717	4.76802	2.97673	1.57042	0.29749	0.27297	0.24441	1.26526	1.07816	0.87760	3.75520	2.29847	1.17261
55820	0.50514	0.50094	0.42286	0.89783	0.75916	0.58270	4.74992	2.97259	1.56360	0.29435	0.27114	0.24147	1.26810	1.07910	0.88149	3.75996	2.30426	1.17771
55990	0.50758	0.50782	0.42519	0.90291	0.76416	0.58743	4.76961	2.98016	1.56624	0.29704	0.27366	0.24369	1.26683	1.07800	0.88052	3.76062	2.30294	1.17562
56150	0.50767	0.50485	0.42522	0.90238	0.76277	0.58811	4.76456	2.97941	1.57208	0.29729	0.27529	0.24494	1.26804	1.07567	0.88094	3.75930	2.29951	1.17409
56310	0.50504	0.50352	0.42409	0.90051	0.76129	0.58484	4.75921	2.97600	1.56526	0.29504	0.27196	0.24191	1.26732	1.07835	0.87729	3.75958	2.30030	1.17464
56480	0.50685	0.50541	0.42558	0.90121	0.76165	0.58580	4.75809	2.97890	1.56688	0.29699	0.27333	0.24313	1.26468	1.07695	0.88065	3.75547	2.29937	1.17272
56640	0.50533	0.50232	0.42355	0.89922	0.76055	0.58489	4.76188	2.97485	1.56599	0.29517	0.27185	0.24288	1.26504	1.07655	0.87797	3.75607	2.29819	1.17131
56800	0.50377	0.50494	0.42729	0.89792	0.76228	0.58636	4.77382	2.97832	1.57335	0.29916	0.27510	0.24615	1.26951	1.08004	0.88302	3.75722	2.30374	1.17599
56970	0.50633	0.50521	0.42453	0.90068	0.76208	0.58544	4.77285	2.97706	1.56755	0.29567	0.27229	0.24305	1.26696	1.07593	0.88029	3.75405	2.29773	1.17087
57130	0.50410	0.50745	0.42720	0.89871	0.76347	0.58732	4.77771	2.98069	1.57218	0.29782	0.27454	0.24554	1.27035	1.08036	0.88130	3.75749	2.30312	1.17588	33.35	6.1	0.00	7.67	0.01260	0.01286	0.01608	0.00779	0.00579	0.00635	0.00465	0.01259	0.01670	0.00673	0.00698	0.00866	0.01481	0.01087	0.01189	0.00216	0.00616	0.00863
57290	0.50689	0.50393	0.42699	0.90039	0.76256	0.58614	4.76990	2.97798	1.57004	0.29463	0.27160	0.24267	1.26630	1.07706	0.87739	3.75563	2.29893	1.17160
57450	0.50646	0.50602	0.42797	0.90188	0.76327	0.58778	4.76807	2.98015	1.57000	0.29783	0.27554	0.24446	1.26691	1.07959	0.88094	3.75788	2.30243	1.17468
57620	0.50660	0.50437	0.42430	0.90067	0.76057	0.58566	4.77075	2.97505	1.56749	0.29510	0.27296	0.24313	1.26714	1.07869	0.87823	3.75109	2.30182	1.17320
57780	0.50544	0.50410	0.42542	0.89884	0.75997	0.58312	4.77231	2.97514	1.56704	0.29326	0.27116	0.24045	1.26968	1.08052	0.88335	3.75777	2.30310	1.17603
57940	0.50817	0.50986	0.42592	0.90248	0.76327	0.58652	4.78616	2.98242	1.57114	0.29587	0.27396	0.24388	1.26757	1.07967	0.88025	3.75536	2.30161	1.17382
58110	0.50559	0.50452	0.42558	0.89924	0.76036	0.58413	4.76480	2.97729	1.56539	0.29407	0.27138	0.24167	1.26899	1.08013	0.88359	3.75985	2.30399	1.17661
58270	0.50773	0.50494	0.42484	0.90322	0.76371	0.58735	4.77477	2.97772	1.56669	0.29614	0.27309	0.24342	1.26859	1.07508	0.87885	3.75536	2.30099	1.17374
58440	0.50652	0.50311	0.42232	0.90027	0.76085	0.58436	4.75079	2.97208	1.56617	0.29297	0.27080	0.24090	1.26703	1.07634	0.88121	3.75656	2.30494	1.17774
58600	0.50679	0.50697	0.42621	0.90397	0.76420	0.58776	4.75648	2.97784	1.57092	0.29792	0.27492	0.24436	1.26526	1.08012	0.87744	3.75284	2.30205	1.17379
58760	0.50747	0.50839	0.42564	0.90146	0.76270	0.58843	4.76890	2.97751	1.57195	0.29686	0.27471	0.24483	1.26774	1.08081	0.87992	3.76353	2.30364	1.17463	33.30	6.1	0.00	7.58	0.01260	0.01286	0.01608	0.00779	0.00579	0.00635	0.00465	0.01259	0.01670	0.00673	0.00698	0.00866	0.01481	0.01087	0.01189	0.00216	0.00616	0.00863
58930	0.50578	0.50719	0.42648	0.90109	0.76108	0.58701	4.77750	2.97941	1.57019	0.29581	0.27292	0.24361	1.26786	1.07851	0.88332	3.75997	2.30172	1.17426
59090	0.50617	0.50508	0.42469	0.90023	0.75992	0.58492	4.77262	2.97570	1.56442	0.29294	0.27067	0.24135	1.26905	1.08141	0.88455	3.76320	2.30507	1.17789
59250	0.50945	0.50644	0.42726	0.90546	0.76466	0.58969	4.76845	2.98227	1.57054	0.29696	0.27421	0.24454	1.26818	1.07589	0.87843	3.76118	2.30063	1.17343
59420	0.50515	0.50655	0.42443	0.90367	0.76492	0.59007	4.75975	2.98042	1.57007	0.29966	0.27649	0.24642	1.26619	1.07825	0.88191	3.76468	2.30490	1.17658
59580	0.50509	0.50371	0.42250	0.90239	0.76117	0.58585	4.76633	2.97452	1.56609	0.29532	0.27319	0.24378	1.26219	1.07613	0.87848	3.75948	2.30061	1.17304
59740	0.50173	0.50145	0.42174	0.90032	0.76030	0.58412	4.76013	2.97384	1.56402	0.29421	0.27208	0.24211	1.26679	1.07999	0.87876	3.76288	2.30518	1.17823
59910	0.50684	0.50629	0.42637	0.90496	0.76483	0.58923	4.76459	2.97729	1.56724	0.29709	0.27548	0.24492	1.26766	1.07820	0.88037	3.76507	2.30282	1.17544
60070	0.50436	0.50511	0.42385	0.90208	0.76353	0.58865	4.75697	2.97749	1.56886	0.29736	0.27513	0.24476	1.26720	1.07606	0.87725	3.76233	2.30284	1.17413
60230	0.50558	0.50193	0.42475	0.90254	0.76082	0.58667	4.76210	2.97429	1.56412	0.29508	0.27319	0.24301	1.26340	1.07474	0.87701	3.76036	2.29896	1.17253
60400	0.50122	0.50314	0.42563	0.90010	0.76380	0.59086	4.76520	2.97999	1.57090	0.29965	0.27728	0.24622	1.26970	1.08053	0.88128	3.76486	2.30512	1.17872	33.35	6.2	0.00	7.67	0.01260	0.01286	0.01608	0.00779	0.00579	0.00635	0.00465	0.01259	0.01670	0.00673	0.00698	0.00866	0.01481	0.01087	0.01189	0.00216	0.00616	0.00863
60560	0.50529	0.50450	0.42200	0.90494	0.76424	0.58774	4.75840	2.97593	1.56746	0.29673	0.27391	0.24382	1.26423	1.07543	0.87732	3.75862	2.30039	1.17345
60720	0.50108	0.50354	0.42481	0.90082	0.76302	0.58871	4.74867	2.97799	1.57086	0.29825	0.27681	0.24588	1.26568	1.07815	0.87982	3.76190	2.30332	1.17693
60880	0.50509	0.50166	0.42295	0.90216	0.76327	0.58708	4.76390	2.97241	1.56720	0.29518	0.27269	0.24337	1.26291	1.07495	0.87567	3.75659	2.29842	1.17267
61050	0.50213	0.50079	0.41851	0.89896	0.76024	0.58487	4.75899	2.97157	1.56160	0.29358	0.26982	0.24135	1.26467	1.07717	0.88055	3.76174	2.30409	1.17820
61210	0.50658	0.50452	0.42354	0.90521	0.76747	0.58930	4.75724	2.98162	1.56842	0.29958	0.27612	0.24620	1.26564	1.07676	0.88005	3.76091	2.30345	1.17652
61370	0.50673	0.50229	0.42178	0.90263	0.76304	0.58648	4.76103	2.97705	1.56438	0.29433	0.27409	0.24279	1.26580	1.07969	0.88094	3.76113	2.30528	1.17894
61540	0.50523	0.50459	0.42533	0.90462	0.76438	0.58835	4.75527	2.97541	1.56735	0.29759	0.27577	0.24449	1.26416	1.07712	0.87614	3.76141	2.30224	1.17486
61700	0.50508	0.50014	0.42344	0.90063	0.76116	0.58482	4.75698	2.97321	1.56569	0.29449	0.27376	0.24276	1.26188	1.07092	0.87479	3.75768	2.29950	1.17193
61860	0.50434	0.50404	0.42364	0.90396	0.76616	0.59091	4.76375	2.98147	1.57090	0.29921	0.27749	0.24672	1.26682	1.07509	0.87986	3.76420	2.30353	1.17669
62030	0.50351	0.50480	0.42320	0.90243	0.76419	0.58967	4.75979	2.97531	1.56627	0.29611	0.27438	0.24363	1.26285	1.07256	0.87590	3.76104	2.30061	1.17322	33.35	6.3	0.00	7.60	0.01260	0.01286	0.01608	0.00778	0.00579	0.00635	0.00465	0.01259	0.01670	0.00673	0.00698	0.00866	0.01481	0.01087	0.01189	0.00216	0.00616	0.00863
62190	0.50145	0.49854	0.41942	0.89869	0.76079	0.58526	4.76235	2.97651	1.56252	0.29290	0.27087	0.24217	1.26533	1.07678	0.88003	3.76290	2.30569	1.17894
62350	0.50590	0.50571	0.42409	0.90509	0.76484	0.59084	4.76101	2.98014	1.57013	0.29779	0.27435	0.24542	1.26527	1.07488	0.87761	3.76125	2.30078	1.17486
62510	0.50197	0.50184	0.42339	0.90143	0.76235	0.58790	4.76168	2.97341	1.56504	0.29493	0.27204	0.24307	1.26563	1.07630	0.88213	3.76470	2.30569	1.17811
62680	0.50603	0.50218	0.42591	0.90494	0.76446	0.58948	4.75596	2.97743	1.57016	0.29719	0.27473	0.24512	1.26796	1.07421	0.87896	3.76093	2.30065	1.17404
62840	0.50240	0.50146	0.42322	0.90103	0.76263	0.58722	4.75852	2.97519	1.56506	0.29587	0.27372	0.24290	1.26748	1.07456	0.88107	3.76235	2.30377	1.17719
63000	0.50386	0.50239	0.42272	0.90191	0.76391	0.58984	4.76231	2.97556	1.56844	0.29732	0.27575	0.24576	1.26636	1.07821	0.87673	3.76662	2.30256	1.17584
