WetView ver 7.1	07-18-2018	10:28:16
AC9 Absorption and Attenuation Meter
00000266		; Serial number
2	; structure version number
Reserved
0.000000	0.000000		; Depth calibration
19200			; Baud rate
0.100000			; Path length (meters)
31			; number of temperature calibration bins
				12.59339	13.44920	14.48425	15.49668	16.50852	17.49564	18.50545	19.52458	20.50176	21.48889	22.47318	23.48707	24.50962	25.49370	26.49784	27.51372	28.50746	29.47237	30.47938	31.50214	32.50470	33.49235	34.50337	35.50914	36.50618	37.52058	38.51018	39.51308	40.49994	41.49866	42.47204	; temperature bins
a650	Blue	20.34952		-0.00383	-0.00415	-0.00430	-0.00391	-0.00363	-0.00317	-0.00269	-0.00237	-0.00179	-0.00130	-0.00099	-0.00071	-0.00015	0.00000	0.00004	-0.00001	0.00015	0.00036	0.00058	0.00101	0.00161	0.00132	0.00160	0.00169	0.00242	0.00273	0.00336	0.00365	0.00427	0.00566	0.00670		; offset and temperature correction info
a676	Green	20.51193		-0.00398	-0.00384	-0.00360	-0.00306	-0.00302	-0.00255	-0.00235	-0.00212	-0.00163	-0.00136	-0.00118	-0.00089	-0.00029	0.00000	0.00068	0.00082	0.00099	0.00137	0.00145	0.00212	0.00260	0.00252	0.00321	0.00354	0.00457	0.00535	0.00617	0.00648	0.00742	0.00887	0.01002		; offset and temperature correction info
a715	Brown	20.23230		-0.00421	-0.00394	-0.00391	-0.00291	-0.00264	-0.00192	-0.00204	-0.00179	-0.00188	-0.00239	-0.00180	-0.00187	-0.00099	0.00000	0.00084	0.00162	0.00188	0.00224	0.00321	0.00381	0.00466	0.00528	0.00588	0.00696	0.00859	0.01041	0.01148	0.01282	0.01333	0.01456	0.01617		; offset and temperature correction info
c510	Red	20.40042		-0.00261	-0.00247	-0.00258	-0.00225	-0.00203	-0.00197	-0.00199	-0.00203	-0.00154	-0.00103	-0.00069	-0.00019	-0.00007	0.00000	0.00011	-0.00021	-0.00042	-0.00056	-0.00040	0.00011	0.00036	0.00050	0.00077	0.00079	0.00050	0.00042	0.00043	0.00092	0.00147	0.00200	0.00232		; offset and temperature correction info
c532	Magenta	20.40760		-0.00248	-0.00265	-0.00278	-0.00279	-0.00296	-0.00292	-0.00238	-0.00206	-0.00129	-0.00096	-0.00092	-0.00052	-0.00009	0.00000	0.00007	-0.00049	-0.00136	-0.00107	-0.00079	-0.00065	-0.00074	-0.00105	-0.00152	-0.00192	-0.00236	-0.00269	-0.00252	-0.00233	-0.00172	-0.00128	-0.00067		; offset and temperature correction info
c555	Black	20.50654		-0.00053	-0.00063	-0.00106	-0.00094	-0.00068	-0.00055	-0.00053	-0.00039	-0.00028	-0.00025	-0.00011	-0.00035	-0.00007	0.00000	-0.00037	-0.00055	-0.00036	-0.00014	0.00019	0.00044	0.00032	0.00040	0.00050	0.00028	0.00014	0.00013	0.00030	0.00073	0.00117	0.00176	0.00241		; offset and temperature correction info
a412	LtBlue	17.15231		-0.01972	-0.01823	-0.01612	-0.01381	-0.01272	-0.01080	-0.00959	-0.00866	-0.00710	-0.00532	-0.00354	-0.00148	-0.00028	0.00000	0.00176	0.00297	0.00394	0.00440	0.00453	0.00487	0.00804	0.00856	0.01065	0.01248	0.01388	0.01439	0.01659	0.01881	0.02256	0.02450	0.02719		; offset and temperature correction info
a440	LtGreen	18.00171		-0.00729	-0.00642	-0.00581	-0.00502	-0.00426	-0.00349	-0.00244	-0.00218	-0.00179	-0.00101	-0.00046	-0.00006	0.00036	0.00000	0.00040	0.00045	0.00030	-0.00015	-0.00024	-0.00035	0.00012	-0.00013	-0.00033	-0.00089	-0.00142	-0.00189	-0.00231	-0.00205	-0.00140	-0.00140	-0.00146		; offset and temperature correction info
a488	Yellow	18.86491		-0.00113	-0.00102	-0.00106	-0.00064	-0.00027	-0.00020	-0.00030	-0.00037	-0.00047	-0.00059	-0.00052	-0.00012	0.00008	0.00000	0.00025	0.00012	-0.00013	-0.00043	-0.00065	-0.00076	-0.00025	0.00010	0.00090	0.00111	0.00113	0.00104	0.00073	0.00068	0.00120	0.00186	0.00258		; offset and temperature correction info
c650	Blue	20.46075		-0.00145	-0.00097	-0.00092	-0.00139	-0.00185	-0.00196	-0.00237	-0.00266	-0.00238	-0.00163	-0.00083	-0.00041	-0.00010	0.00000	0.00005	-0.00001	0.00015	0.00034	0.00029	0.00065	0.00101	0.00164	0.00126	0.00156	0.00175	0.00270	0.00287	0.00371	0.00407	0.00473	0.00534		; offset and temperature correction info
c676	Green	20.10118		-0.00170	-0.00144	-0.00149	-0.00177	-0.00188	-0.00194	-0.00198	-0.00196	-0.00177	-0.00156	-0.00140	-0.00091	-0.00033	0.00000	0.00050	0.00092	0.00110	0.00141	0.00167	0.00199	0.00216	0.00265	0.00269	0.00289	0.00315	0.00374	0.00367	0.00408	0.00486	0.00561	0.00646		; offset and temperature correction info
c715	Brown	19.91219		-0.01201	-0.01097	-0.00859	-0.00680	-0.00651	-0.00592	-0.00535	-0.00440	-0.00387	-0.00303	-0.00222	-0.00153	-0.00028	0.00000	0.00093	0.00149	0.00247	0.00322	0.00330	0.00427	0.00373	0.00464	0.00536	0.00551	0.00643	0.00733	0.00779	0.00884	0.00899	0.01021	0.01120		; offset and temperature correction info
a510	Red	19.21192		0.00201	0.00193	0.00158	0.00098	0.00089	0.00049	0.00011	-0.00016	-0.00016	-0.00005	0.00028	0.00025	0.00006	0.00000	0.00035	-0.00022	-0.00023	-0.00080	-0.00144	-0.00154	-0.00153	-0.00204	-0.00220	-0.00219	-0.00190	-0.00128	-0.00069	-0.00018	0.00068	0.00152	0.00241		; offset and temperature correction info
a532	Magenta	19.41084		-0.00097	-0.00072	-0.00060	-0.00081	-0.00062	-0.00071	-0.00040	0.00020	0.00028	0.00043	0.00000	-0.00035	0.00007	0.00000	-0.00011	-0.00059	-0.00080	-0.00098	-0.00137	-0.00162	-0.00163	-0.00130	-0.00073	-0.00018	0.00090	0.00185	0.00175	0.00247	0.00291	0.00327	0.00349		; offset and temperature correction info
a555	Black	19.69776		0.00171	0.00183	0.00183	0.00186	0.00191	0.00170	0.00115	0.00131	0.00097	0.00073	0.00060	0.00013	0.00015	0.00000	0.00014	-0.00029	-0.00066	-0.00082	-0.00116	-0.00139	-0.00134	-0.00167	-0.00119	-0.00093	-0.00048	0.00053	0.00111	0.00095	0.00178	0.00206	0.00273		; offset and temperature correction info
c412	LtBlue	19.91180		-0.02051	-0.01853	-0.01589	-0.01311	-0.01059	-0.00877	-0.00705	-0.00581	-0.00413	-0.00231	-0.00098	-0.00066	-0.00011	0.00000	-0.00013	-0.00085	-0.00170	-0.00170	-0.00302	-0.00330	-0.00429	-0.00551	-0.00626	-0.00775	-0.00978	-0.01181	-0.01113	-0.01108	-0.01116	-0.01192	-0.01291		; offset and temperature correction info
c440	LtGreen	20.06241		-0.01064	-0.00992	-0.00892	-0.00766	-0.00639	-0.00531	-0.00478	-0.00384	-0.00287	-0.00187	-0.00102	-0.00063	-0.00023	0.00000	-0.00007	-0.00053	-0.00090	-0.00119	-0.00169	-0.00197	-0.00226	-0.00257	-0.00260	-0.00289	-0.00394	-0.00470	-0.00481	-0.00493	-0.00520	-0.00580	-0.00620		; offset and temperature correction info
c488	Yellow	20.35984		-0.01125	-0.01082	-0.00966	-0.00833	-0.00726	-0.00661	-0.00579	-0.00500	-0.00389	-0.00278	-0.00167	-0.00113	-0.00041	0.00000	0.00055	0.00121	0.00187	0.00226	0.00222	0.00251	0.00281	0.00359	0.00414	0.00427	0.00401	0.00404	0.00486	0.00563	0.00638	0.00684	0.00718		; offset and temperature correction info
0.003500	0.004000	0.015000	0.020000	0.015000	0.020000	2500.000000	2000.000000	1000.000000	; maxANoise	maxCNoise	maxADifference	maxCDifference	minACounts	minCCounts	minRCounts	maxTempSdev	maxDepthSdev
0			; auxilliary capabilities
1			; acquisition binsize
0	0.30285	0.33733	0.20805	2.20077	2.07516	1.86776	2.56202	1.68857	0.93645	1.42517	1.38877	1.25128	0.76664	0.60450	0.50369	3.77405	3.05357	2.40375	26.82	6.0	0.00	7.34	0.01271	0.01288	0.01659	0.00773	0.00576	0.00632	0.00467	0.01263	0.01682	0.00673	0.00691	0.00886	0.01487	0.01094	0.01195	0.00215	0.00612	0.00860
170	0.29849	0.33432	0.24505	2.20647	2.05623	1.88284	2.57159	1.68055	0.93007	1.38278	1.36473	1.23927	0.77084	0.60857	0.48846	3.70473	3.07504	2.42289
330	0.28897	0.35221	0.20458	2.21587	2.03014	1.82037	2.53616	1.67603	0.95246	1.41994	1.38348	1.23939	0.72842	0.60673	0.50819	3.80112	3.09288	2.46138
500	0.29741	0.33771	0.21150	2.22321	2.06308	1.91015	2.55774	1.68190	0.92869	1.40103	1.40444	1.23458	0.73666	0.59451	0.48942	3.76093	3.13346	2.53655
660	0.30668	0.33940	0.20920	2.23670	2.10658	1.87474	2.55264	1.68553	0.95275	1.44691	1.39304	1.32201	0.74115	0.62728	0.51394	3.76644	3.11270	2.46139
820	0.31029	0.34109	0.22494	2.25772	2.09713	1.91754	2.59122	1.71617	0.93797	1.42799	1.42614	1.27565	0.74266	0.60443	0.50687	3.75278	3.10144	2.45385
990	0.29643	0.33689	0.21423	2.19423	2.06326	1.87146	2.56532	1.67888	0.92437	1.44649	1.38425	1.25602	0.74771	0.61162	0.50088	3.71882	3.08215	2.44048
1150	0.30931	0.36107	0.20338	2.18493	2.04930	1.87381	2.53933	1.66596	0.92468	1.43916	1.44989	1.29084	0.74427	0.60220	0.50660	3.75454	3.07468	2.44269
1320	0.30972	0.33974	0.22273	2.23394	2.04928	1.87238	2.54271	1.70231	0.93836	1.47270	1.70196	1.34847	0.73953	0.61162	0.49783	3.75933	3.30686	2.44895
1480	0.31268	0.34303	0.22088	2.25656	2.13141	1.91145	2.57284	1.68337	0.93719	1.44681	1.42541	1.26932	0.76822	0.63002	0.51012	3.72096	3.07071	2.41652
1650	0.32063	0.33528	0.22265	2.17343	2.06121	1.86704	2.55531	1.69585	0.93421	1.41878	1.39594	1.26748	0.74992	0.60336	0.50427	3.71271	3.09883	2.44462	26.82	6.1	0.00	7.37	0.01271	0.01288	0.01659	0.00773	0.00576	0.00632	0.00467	0.01263	0.01682	0.00673	0.00691	0.00886	0.01487	0.01094	0.01195	0.00215	0.00612	0.00860
1810	0.30621	0.35267	0.21101	2.22653	2.08999	1.89668	2.54253	1.67446	0.92593	1.40638	1.36458	1.25497	0.76038	0.61114	0.50247	3.74620	3.06790	2.46124
1980	0.28608	0.32648	0.19910	2.22194	2.09557	1.89994	2.55066	1.68801	0.93260	1.42952	1.41930	1.29306	0.73450	0.61284	0.50009	3.77009	3.14254	2.46785
2140	0.34251	0.36796	0.26044	2.36133	2.32369	2.24254	2.65465	1.79047	1.15114	1.79213	1.93554	1.80111	1.05309	0.94857	0.82061	4.46547	3.76552	3.13774
2310	0.62564	0.70301	0.66785	3.16229	2.98819	3.01080	3.13381	2.19215	1.37806	2.21256	2.12573	1.95998	1.11940	0.91510	0.90535	4.33857	3.73460	3.01155
2470	0.71726	0.67748	0.51198	2.70446	2.54966	2.35127	2.83922	1.95678	1.17320	1.80546	1.93172	1.70358	0.95260	0.80003	0.65693	4.01891	3.34543	2.67902
2630	0.41433	0.47069	0.34802	2.46179	2.34018	2.04546	2.70468	1.84638	1.08085	1.61426	1.50809	1.40040	0.82575	0.69862	0.58950	3.81711	3.20838	2.59339
2800	0.35898	0.38449	0.24484	2.31692	2.22666	1.97717	2.60326	1.72886	0.95770	1.49849	1.47752	1.32790	0.78042	0.64330	0.51560	3.75946	3.10165	2.49245
2960	0.30903	0.34845	0.22655	2.21804	2.02756	1.87139	2.58108	1.70376	0.94449	1.42754	1.37849	1.27532	0.74623	0.63264	0.52460	3.71836	3.09501	2.44134
3120	0.30255	0.32846	0.22494	2.18580	2.06093	1.84274	2.54633	1.67112	0.94219	1.41288	1.37848	1.21469	0.73509	0.60784	0.49385	3.69349	3.07929	2.44454
3290	0.28346	0.32456	0.20377	2.18086	2.03885	1.83993	2.52778	1.66836	0.93210	1.38434	1.35939	1.22876	0.73767	0.60178	0.48148	3.69067	3.06294	2.44778	26.88	6.3	0.00	7.48	0.01271	0.01288	0.01659	0.00773	0.00576	0.00632	0.00467	0.01263	0.01682	0.00673	0.00691	0.00886	0.01487	0.01094	0.01195	0.00215	0.00612	0.00860
3450	0.29306	0.31889	0.18795	2.31661	2.09664	1.86911	2.53178	1.66585	0.90894	1.40691	1.35978	1.26695	0.73545	0.59118	0.48603	3.73029	3.06689	2.46511
3620	0.31234	0.32939	0.20831	2.24328	2.09099	1.89205	2.54502	1.69832	0.92799	1.43370	1.42762	1.33941	0.75025	0.59745	0.50644	3.92923	3.11057	2.45449
3780	0.29902	0.33031	0.22404	2.25047	2.06882	1.90166	2.55347	1.68678	0.94305	1.46024	1.40877	1.27018	0.75046	0.60330	0.49994	3.72190	3.10883	2.47672
3940	0.29316	0.34683	0.20880	2.22051	2.04501	1.89268	2.55466	1.67781	0.93272	1.46011	1.41269	1.25773	0.74836	0.62064	0.50264	3.74629	3.11082	2.45428
4110	0.31518	0.34797	0.22790	2.26490	2.07771	1.92354	2.55330	1.68145	0.92565	1.49391	1.39145	1.31224	0.77362	0.63191	0.51568	3.78271	3.07443	2.44437
4270	0.31633	0.33165	0.22429	2.30152	2.07439	1.92660	2.57724	1.68621	0.95417	1.45247	1.41413	1.28713	0.74398	0.64183	0.51077	3.74183	3.10172	2.44477
4440	0.30500	0.33990	0.20510	2.23283	2.06971	1.88164	2.56172	1.68473	0.91466	1.42085	1.37937	1.28911	0.73097	0.59989	0.49234	3.70759	3.06825	2.41500
4600	0.29437	0.33321	0.21115	2.20277	2.07984	1.86972	2.55255	1.68232	0.91886	1.45019	1.38408	1.23772	0.74968	0.60825	0.51130	3.72749	3.12478	2.44413
4760	0.30519	0.33253	0.21063	2.23724	2.06158	1.84648	2.54650	1.70390	0.93391	1.46157	1.39734	1.22945	0.73379	0.60490	0.50013	3.75614	3.10372	2.41945
4930	0.30926	0.35258	0.22598	2.24486	2.05310	1.85932	2.55532	1.70265	0.93715	1.42472	1.38764	1.27814	0.73061	0.60014	0.49512	3.74332	3.09551	2.44687	26.82	6.2	0.00	7.47	0.01271	0.01288	0.01659	0.00773	0.00576	0.00632	0.00467	0.01263	0.01682	0.00673	0.00691	0.00886	0.01487	0.01094	0.01195	0.00215	0.00612	0.00860
5090	0.31435	0.33800	0.20160	2.19063	2.04550	1.87837	2.55612	1.68771	0.92852	1.41531	1.39323	1.25426	0.73805	0.60372	0.50106	3.74673	3.09495	2.44007
5250	0.28739	0.32843	0.21154	2.24446	2.05267	1.90092	2.57364	1.69106	0.94476	1.42481	1.40498	1.27519	0.73816	0.59398	0.51371	3.70272	3.02480	2.39003
5420	0.30930	0.35312	0.20996	2.18521	2.02596	1.84591	2.54117	1.68465	0.91240	1.44602	1.36237	1.27094	0.73029	0.59175	0.49911	3.73156	3.06213	2.43232
5580	0.29109	0.32612	0.19829	2.20226	2.06020	1.85118	2.53951	1.67612	0.92458	1.42355	1.33957	1.29486	0.74729	0.59706	0.49330	3.72668	3.08719	2.46764
5750	0.30177	0.32546	0.20056	2.20864	2.07166	1.85974	2.54879	1.68448	0.93510	1.42766	1.38535	1.23826	0.74395	0.60086	0.50133	3.71367	3.06717	2.41679
5910	0.30386	0.33096	0.19405	2.21218	2.04794	1.87101	2.55220	1.69224	0.91972	1.41984	1.39723	1.29326	0.73158	0.61249	0.51227	3.71280	3.08938	2.42439
6070	0.29345	0.33623	0.21197	2.19610	2.05430	1.83673	2.53140	1.68007	0.92098	1.42975	1.35589	1.25630	0.73567	0.59074	0.49078	3.70841	3.07930	2.42037
6240	0.30087	0.34957	0.20106	2.19956	2.03854	1.87610	2.56318	1.67421	0.92466	1.52929	1.40514	1.25617	0.73254	0.59854	0.49927	3.75840	3.10945	2.43634
6400	0.28712	0.32529	0.20265	2.19348	2.03861	1.86839	2.53584	1.67138	0.94196	1.43000	1.39335	1.27032	0.73373	0.59702	0.50736	3.73398	3.08292	2.44768
6560	0.30536	0.33016	0.21204	2.21431	2.06409	1.93675	2.53846	1.68876	0.92889	1.44436	1.37708	1.27473	0.74829	0.60927	0.50538	3.78672	3.09409	2.43856	26.76	6.1	0.00	7.37	0.01271	0.01288	0.01659	0.00773	0.00576	0.00632	0.00467	0.01263	0.01682	0.00673	0.00691	0.00886	0.01487	0.01094	0.01195	0.00215	0.00612	0.00860
6730	0.30580	0.34972	0.22086	2.23797	2.04125	1.85854	2.58162	1.71826	0.95758	1.44175	1.44559	1.35019	0.76275	0.62460	0.51612	3.89339	3.24233	2.68742
6890	0.38926	0.40277	0.31635	2.48809	2.46596	2.35733	2.73736	1.89803	1.11888	1.91200	1.93123	1.83473	0.96772	0.95691	0.87650	4.27395	3.66020	3.10320
7050	0.61809	0.66073	0.58858	2.93501	2.81278	2.49008	2.96641	2.17533	1.45746	2.09661	2.11180	2.02035	1.13182	0.98128	0.86360	4.31484	3.76600	3.07745
7220	0.65210	0.65289	0.55525	2.80518	2.56119	2.43790	2.87049	2.02391	1.26904	1.96223	1.78587	1.75690	1.10128	0.88174	0.81846	4.12757	3.49004	2.81032
7380	0.55894	0.55024	0.45361	2.59251	2.37612	2.22353	2.73690	1.84923	1.13467	1.70448	1.66533	1.49496	0.88894	0.75829	0.62542	3.96395	3.23009	2.57378
7550	0.44262	0.43255	0.30282	2.32117	2.18600	2.00805	2.65983	1.75794	1.00859	1.57796	1.46648	1.33915	0.78298	0.65432	0.54500	3.79876	3.15964	2.46812
7710	0.33387	0.37200	0.23810	2.31491	2.11265	1.93059	2.57659	1.71851	0.95537	1.47364	1.43323	1.28537	0.74163	0.62668	0.54590	3.77039	3.07903	2.43156
7870	0.30840	0.36705	0.24390	2.22388	2.11215	1.91947	2.57585	1.69909	0.93054	1.43767	1.38881	1.26443	0.75103	0.63817	0.52431	3.76774	3.09663	2.45526
8040	0.30968	0.32921	0.21127	2.22670	2.09765	1.91579	2.55702	1.71224	0.95399	1.46926	1.40177	1.31692	0.73533	0.61170	0.51137	3.74870	3.10084	2.44926
8200	0.28868	0.33841	0.20912	2.21900	2.08889	1.90501	2.56236	1.69412	0.92669	1.45743	1.45964	1.43462	0.75657	0.60425	0.50859	3.92412	3.17214	2.52146	26.82	6.2	0.00	7.44	0.01271	0.01288	0.01659	0.00773	0.00576	0.00632	0.00467	0.01263	0.01682	0.00673	0.00691	0.00886	0.01487	0.01094	0.01195	0.00215	0.00612	0.00860
8360	0.31425	0.34537	0.23012	2.26160	2.11205	1.95656	2.57930	1.70815	0.99508	1.47842	1.47165	1.34729	0.77516	0.64001	0.51947	3.84784	3.18717	2.53797
8530	0.32407	0.37203	0.22033	2.34713	2.17789	1.97390	2.61140	1.73634	0.96513	1.47703	1.47794	1.28876	0.76230	0.63876	0.52068	3.84384	3.14829	2.52189
8690	0.32188	0.35547	0.23086	2.27270	2.14609	1.90915	2.59882	1.72203	0.97575	1.54597	1.48632	1.41601	0.84824	0.77183	0.67352	4.07912	3.37962	2.68624
8860	0.52921	0.44157	0.34270	2.68151	2.41244	2.22339	2.81160	1.96098	1.20303	1.82716	1.76206	1.56806	0.97400	0.88571	0.83862	4.08321	3.38594	2.71004
9020	0.55829	0.53361	0.41700	2.54611	2.26214	2.06076	2.91664	1.90504	1.05474	1.65188	1.63437	1.35774	0.83420	0.83580	0.57501	3.87337	3.21340	2.51772
9180	0.36818	0.38950	0.25050	2.28510	2.16566	1.97664	2.63596	1.76455	0.95219	1.48374	1.42334	1.27483	0.76603	0.62311	0.49454	3.81955	3.16532	2.45822
9350	0.32015	0.36323	0.23525	2.21275	2.07429	1.89161	2.55865	1.68544	0.91660	1.43889	1.39311	1.30342	0.72252	0.61025	0.49771	3.75336	3.08233	2.43480
9510	0.29321	0.33652	0.20851	2.18111	2.04114	1.87626	2.53923	1.66962	0.91935	1.43011	1.34905	1.23442	0.74849	0.59582	0.49669	3.71042	3.07344	2.42845
9680	0.30099	0.33439	0.19903	2.17869	2.04097	1.84493	2.55568	1.68774	0.92483	1.41042	1.36000	1.24242	0.74174	0.59594	0.49671	3.72901	3.06261	2.43532
9840	0.29326	0.33043	0.19597	2.20998	2.04032	1.88050	2.56393	1.71481	0.93179	1.42630	1.36769	1.25792	0.73729	0.59361	0.49950	3.73709	3.09221	2.44769	26.82	6.2	0.00	7.49	0.01271	0.01288	0.01659	0.00773	0.00576	0.00632	0.00467	0.01263	0.01682	0.00673	0.00691	0.00886	0.01487	0.01094	0.01195	0.00215	0.00612	0.00860
10000	0.29864	0.33954	0.19632	2.22530	2.04729	1.84410	2.55192	1.67891	0.92002	1.40605	1.34396	1.22846	0.73115	0.61485	0.48455	3.70862	3.07507	2.44754
10170	0.29351	0.33058	0.20091	2.17507	2.02887	1.83637	2.56554	1.66746	0.92561	1.40970	1.37061	1.27139	0.73941	0.58637	0.48992	3.71870	3.06570	2.44705
10330	0.28440	0.31566	0.20170	2.20122	2.05689	1.86465	2.53147	1.68666	0.92974	1.42802	1.37159	1.20922	0.74847	0.60199	0.49194	3.70840	3.04674	2.42385
10500	0.30315	0.33534	0.20527	2.20778	2.04272	1.86910	2.54382	1.67788	0.90966	1.43284	1.35866	1.33587	0.73472	0.58810	0.49421	3.71366	3.05428	2.40303
10660	0.28915	0.33585	0.19308	2.21976	2.07846	1.84701	2.54003	1.67750	0.93145	1.40718	1.37892	1.28316	0.74130	0.60531	0.49836	3.73945	3.12368	2.43731
10820	0.30045	0.33230	0.21753	2.20571	2.10083	1.87803	2.55547	1.67593	0.92627	1.44239	1.40455	1.25072	0.75561	0.59802	0.50191	3.75182	3.08293	2.41603
10990	0.29014	0.32865	0.21990	2.21538	2.05024	1.88793	2.56854	1.68662	0.92380	1.40996	1.34150	1.21328	0.73036	0.60503	0.50371	3.71854	3.07847	2.43236
11150	0.30362	0.34964	0.21633	2.23677	2.15270	1.91751	2.58224	1.68814	0.95573	1.57051	1.50635	1.47889	0.80612	0.66199	0.61643	3.99387	3.33478	2.75695
11320	0.45948	0.50398	0.37758	2.65568	2.58180	2.25530	2.76884	1.95593	1.14364	1.91552	1.86367	1.70935	0.95437	0.90831	0.74243	4.22986	3.63084	3.08005
11480	0.61667	0.62866	0.51080	2.74221	2.54496	2.34315	2.81741	1.97077	1.26459	1.95889	1.97322	1.82293	1.05620	0.98682	0.81066	4.19263	3.60385	3.03630	26.82	6.2	0.00	7.42	0.01271	0.01288	0.01659	0.00773	0.00576	0.00632	0.00467	0.01263	0.01682	0.00673	0.00691	0.00886	0.01487	0.01094	0.01195	0.00215	0.00612	0.00860
11650	0.60625	0.68557	0.58933	2.75669	2.55578	2.48184	2.94794	2.00588	1.16890	1.96546	1.83329	1.69228	0.97402	0.95778	0.73599	4.23585	3.43366	2.70380
11810	0.56722	0.56959	0.37529	2.54547	2.46769	2.24674	2.73093	1.90541	1.10769	1.76909	1.66408	1.54012	0.89347	0.77183	0.65168	3.93213	3.20932	2.58075
11970	0.40900	0.43185	0.31785	2.39427	2.17947	2.00916	2.64671	1.81429	1.04806	1.60579	1.52530	1.37479	0.80364	0.67252	0.57544	3.81313	3.19885	2.55258
12140	0.32091	0.37023	0.23777	2.31770	2.14477	1.97908	2.57984	1.70558	0.97601	1.53439	1.48214	1.34991	0.78644	0.61740	0.53051	3.83358	3.16093	2.50311
12300	0.34419	0.38106	0.24467	2.29913	2.11891	1.93461	2.58507	1.69847	0.94899	1.47327	1.44973	1.32883	0.77408	0.62955	0.53832	3.78510	3.14167	2.47409
12460	0.33928	0.35104	0.23363	2.31178	2.09814	1.88607	2.58368	1.70033	0.95700	1.46820	1.41634	1.31266	0.75355	0.61426	0.54777	3.75495	3.10854	2.45351
12630	0.33039	0.34218	0.21748	2.27122	2.13683	1.88830	2.57823	1.70037	0.93474	1.46855	1.37385	1.26711	0.74835	0.61940	0.51578	3.78223	3.08509	2.44434
12790	0.31042	0.34312	0.21428	2.23795	2.08644	1.89167	2.57547	1.72618	0.95233	1.49366	1.38753	1.24366	0.76543	0.62895	0.52449	3.70817	3.05662	2.43430
12960	0.30355	0.34393	0.20553	2.24737	2.04240	1.89919	2.55414	1.68037	0.95095	1.42539	1.38930	1.27643	0.73895	0.60876	0.49832	3.74032	3.10096	2.46263
13120	0.30663	0.33848	0.20434	2.19259	2.04431	1.88401	2.53338	1.67164	0.93121	1.44038	1.36653	1.24496	0.74570	0.60900	0.49514	3.70485	3.06973	2.45222	26.82	6.3	0.00	7.38	0.01271	0.01288	0.01659	0.00773	0.00576	0.00632	0.00467	0.01263	0.01682	0.00673	0.00691	0.00886	0.01487	0.01094	0.01195	0.00215	0.00612	0.00860
13290	0.28892	0.32735	0.19910	2.18398	2.06538	1.87841	2.54322	1.67122	0.91459	1.45009	1.40820	1.23287	0.72450	0.59363	0.49645	3.73358	3.04555	2.43137
13450	0.29290	0.34090	0.19941	2.20324	2.07277	1.84767	2.55386	1.67850	0.93349	1.40020	1.36242	1.23045	0.73316	0.60776	0.50737	3.72458	3.10032	2.45280
13610	0.30209	0.33129	0.20857	2.21916	2.04071	1.86088	2.54452	1.67999	0.93842	1.48057	1.58511	1.28588	0.73954	0.60302	0.50441	3.74209	3.08638	2.42451
13780	0.30182	0.34682	0.19791	2.16768	2.04851	1.86052	2.55630	1.72752	0.93923	1.41310	1.38670	1.27177	0.76494	0.61320	0.51254	3.72013	3.08864	2.41868
13940	0.29522	0.35341	0.20975	2.22135	2.09273	1.86795	2.56384	1.71367	0.96550	1.43614	1.41240	1.33617	0.75234	0.60756	0.50561	3.72315	3.11065	2.46160
14110	0.31287	0.34259	0.21154	2.21045	2.05930	1.89734	2.56066	1.69145	0.94331	1.40296	1.38184	1.25157	0.75810	0.60763	0.50182	3.72419	3.09061	2.45581
14270	0.29185	0.32983	0.20228	2.19676	2.05115	1.88191	2.54079	1.68678	0.93660	1.43546	1.39657	1.27562	0.73340	0.59090	0.49193	3.80511	3.05220	2.40177
14430	0.29236	0.33542	0.19839	2.20881	2.03346	1.88313	2.55573	1.67763	0.93191	1.47177	1.38754	1.25959	0.73061	0.59130	0.49561	3.78400	3.13951	2.44852
14600	0.29822	0.33199	0.20647	2.18436	2.04183	1.81738	2.54271	1.66735	0.92043	1.40371	1.35810	1.24697	0.72772	0.60431	0.49034	3.70923	3.04185	2.39517
14760	0.29235	0.33397	0.21845	2.13514	2.00812	1.82822	2.53661	1.67584	0.93911	1.39624	1.36047	1.24251	0.73262	0.60395	0.51068	3.68972	3.05387	2.39682	26.82	6.1	0.00	7.38	0.01271	0.01288	0.01659	0.00773	0.00576	0.00632	0.00467	0.01263	0.01682	0.00673	0.00691	0.00886	0.01487	0.01094	0.01195	0.00215	0.00612	0.00860
14930	0.29202	0.34239	0.20244	2.20117	2.06491	1.87504	2.54909	1.68028	0.91356	1.40757	1.36802	1.23585	0.72962	0.59577	0.48860	3.71984	3.05383	2.42341
15090	0.28072	0.31886	0.19134	2.20213	2.05089	1.84618	2.53099	1.67531	0.91841	1.44758	1.36855	1.25707	0.72801	0.60644	0.48119	3.74246	3.07693	2.45305
15260	0.30108	0.33436	0.21157	2.21234	2.08552	1.86567	2.56036	1.68924	0.95604	1.40792	1.40531	1.24849	0.76073	0.62573	0.51065	3.73559	3.06309	2.42748
15420	0.31706	0.35846	0.20989	2.29897	2.06392	1.87738	2.55965	1.68950	0.94822	1.45596	1.38375	1.27544	0.73576	0.60640	0.51624	3.72159	3.06269	2.43591
15590	0.29857	0.32459	0.19557	2.18747	2.03775	1.85089	2.54023	1.67343	0.92627	1.43392	1.39110	1.23701	0.74925	0.61245	0.49471	3.72384	3.12510	2.45800
15750	0.33087	0.34676	0.23991	2.34075	2.17422	2.12575	2.60968	1.77752	1.03515	1.78125	1.79674	1.84181	0.90761	0.79035	0.69550	4.22670	3.55663	2.92504
15910	0.55626	0.61792	0.52155	2.87316	2.66253	2.49393	2.91984	2.04641	1.27333	2.16330	2.11903	2.02539	1.15061	0.96248	0.83754	4.59758	3.85431	3.13426
16080	0.65831	0.73144	0.53912	2.81564	2.65913	2.37787	2.82599	2.02344	1.21187	1.96962	1.91565	1.69484	1.02688	0.88261	0.78121	4.10216	3.45385	2.79995
16240	0.52631	0.58067	0.44938	2.47064	2.41029	2.19830	2.79890	1.92332	1.13827	1.75498	1.74586	1.58712	0.94920	0.75093	0.67490	3.96104	3.27098	2.63008
16400	0.42318	0.43786	0.32836	2.41792	2.29663	2.13288	2.67696	1.82885	1.05202	1.57648	1.50313	1.38178	0.80778	0.70746	0.61236	3.86517	3.18505	2.52178	26.88	6.0	0.00	7.40	0.01271	0.01288	0.01659	0.00773	0.00576	0.00632	0.00467	0.01263	0.01682	0.00673	0.00691	0.00886	0.01487	0.01094	0.01195	0.00215	0.00612	0.00860
16570	0.39320	0.42706	0.29039	2.31112	2.14513	1.97969	2.63135	1.71467	0.97240	1.50385	1.46288	1.29142	0.78503	0.64061	0.52716	3.75213	3.08983	2.44978
16730	0.32210	0.35028	0.23905	2.24360	2.08928	1.90811	2.58351	1.72771	0.94293	1.44510	1.38784	1.26584	0.76829	0.61325	0.51679	3.72455	3.07554	2.44920
16890	0.29444	0.34693	0.20694	2.21432	2.03376	1.86936	2.55747	1.67468	0.95040	1.43542	1.34336	1.24971	0.73913	0.59368	0.49809	3.71830	3.07980	2.40575
17050	0.31147	0.32354	0.20332	2.23568	2.07128	1.88045	2.55463	1.68434	0.92401	1.42878	1.37851	1.25369	0.73340	0.61151	0.50982	3.70466	3.05868	2.42635
17220	0.29920	0.32209	0.19762	2.25087	2.10365	1.86606	2.56466	1.68338	0.92490	1.44613	1.38318	1.25499	0.74674	0.63294	0.49227	3.75472	3.08699	2.44156
17380	0.31808	0.35448	0.21313	2.21979	2.06035	1.88450	2.55347	1.70900	0.95020	1.47684	1.46820	1.32392	0.74873	0.61427	0.51306	3.77852	3.10835	2.42676
17550	0.32408	0.35950	0.21347	2.20932	2.06981	1.87423	2.58258	1.69925	0.94220	1.41483	1.41089	1.26581	0.74166	0.59738	0.49301	3.71085	3.08431	2.40839
17710	0.29840	0.34107	0.20190	2.21194	2.09361	1.91099	2.56671	1.68097	0.93021	1.44055	1.41400	1.31560	0.74500	0.60879	0.49382	3.72730	3.12345	2.47350
17870	0.30238	0.35089	0.22750	2.21019	2.08231	1.89757	2.55089	1.69634	0.93209	1.47356	1.42929	1.30227	0.74321	0.61394	0.50704	3.76706	3.09840	2.45602
18040	0.29472	0.33070	0.20247	2.24280	2.08027	1.90106	2.55481	1.68168	0.95278	1.44430	1.42386	1.26989	0.76818	0.62465	0.54300	3.73800	3.07043	2.43068	26.88	5.9	0.00	6.51	0.01271	0.01288	0.01659	0.00773	0.00576	0.00632	0.00467	0.01263	0.01682	0.00673	0.00691	0.00886	0.01487	0.01094	0.01195	0.00215	0.00612	0.00860
18200	0.32776	0.34442	0.22508	2.20904	2.08424	1.86760	2.57914	1.69273	0.92606	1.43616	1.39759	1.26039	0.74195	0.60316	0.50214	3.72406	3.07437	2.46385
18360	0.30125	0.33016	0.20831	2.20422	2.06666	1.85083	2.55104	1.68463	0.94226	1.44068	1.39966	1.27390	0.76860	0.61128	0.51496	3.71468	3.09887	2.44448
18530	0.31164	0.32402	0.20535	2.20345	2.07518	1.88177	2.55371	1.66811	0.94339	1.45591	1.38537	1.27358	0.74686	0.61548	0.49716	3.73926	3.08191	2.43902
18690	0.29256	0.34820	0.22251	2.25590	2.09236	1.89055	2.55588	1.69476	0.93072	1.44986	1.44017	1.26624	0.73936	0.61103	0.51895	3.79254	3.13990	2.46875
18850	0.30977	0.34857	0.22422	2.22895	2.04768	2.01977	2.57566	1.70670	0.95269	1.44765	1.38071	1.26587	0.75622	0.61498	0.54103	3.75147	3.07775	2.44809
19020	0.30433	0.33042	0.19358	2.22108	2.06802	1.88936	2.53913	1.68633	0.92246	1.43286	1.36010	1.25488	0.73685	0.59406	0.49773	3.72334	3.09122	2.41807
19180	0.31729	0.33760	0.19974	2.17861	2.03400	1.86648	2.55635	1.69115	0.93472	1.40353	1.35908	1.25206	0.74257	0.60793	0.50513	3.74130	3.05839	2.45627
19340	0.30073	0.33330	0.22049	2.24614	2.07610	1.88587	2.56559	1.69555	0.93838	1.48912	1.45160	1.29186	0.74174	0.63905	0.50809	3.77174	3.14894	2.51068
19500	0.32318	0.34442	0.22188	2.23401	2.08560	1.85578	2.56360	1.71357	0.94978	1.56617	1.45184	1.28364	0.75130	0.61370	0.51367	3.76298	3.11442	2.51461
19670	0.31251	0.34825	0.19674	2.20716	2.02666	1.85312	2.54702	1.67859	0.92685	1.44419	1.37713	1.23452	0.73748	0.60334	0.49622	3.72173	3.08058	2.39740	26.82	6.3	0.00	7.80	0.01271	0.01288	0.01658	0.00773	0.00576	0.00632	0.00467	0.01263	0.01682	0.00673	0.00691	0.00886	0.01487	0.01094	0.01195	0.00215	0.00612	0.00860
19830	0.28601	0.33341	0.19881	2.17713	2.04000	1.84805	2.54304	1.67360	0.91973	1.47937	1.36125	1.26809	0.73953	0.59237	0.52040	3.73150	3.08158	2.45559
19990	0.29539	0.32499	0.20273	2.27628	2.07767	1.88370	2.53893	1.69169	0.92028	1.43997	1.39446	1.24713	0.73670	0.58476	0.49901	3.74534	3.11033	2.43065
20160	0.30110	0.32759	0.18949	2.20748	2.07944	1.87449	2.55084	1.66876	0.91096	1.39155	1.36234	1.22361	0.73314	0.59565	0.48140	3.70201	3.05090	2.40969
20320	0.29414	0.32137	0.20423	2.19183	2.07490	1.86197	2.55671	1.68529	0.93981	1.46924	1.49828	1.51978	0.75514	0.64639	0.54789	3.91974	3.32562	2.80825
20480	0.41833	0.49464	0.39732	2.72145	2.71099	2.42314	2.97644	1.93769	1.20501	2.15743	2.16765	2.01920	1.09822	0.90521	0.87970	4.61327	3.86035	3.40766
20650	0.67840	0.70789	0.62029	3.02988	3.02926	2.67718	3.07342	2.21447	1.43388	2.23844	2.03136	1.85323	1.18658	0.99943	0.89848	4.44207	3.72054	3.08678
20810	0.64622	0.70478	0.53286	2.68881	2.55540	2.33843	2.84158	2.01538	1.13853	1.83464	1.72847	1.66156	0.93879	0.83440	0.70201	4.06874	3.35212	2.70928
20980	0.46277	0.49491	0.32358	2.42546	2.26744	2.06734	2.69279	1.85960	1.05066	1.66441	1.57014	1.45153	0.80311	0.70645	0.60589	3.87403	3.17337	2.52834
21140	0.35301	0.40272	0.25894	2.30487	2.12802	1.94826	2.61588	1.76036	0.98005	1.54448	1.45300	1.31931	0.77138	0.64695	0.55932	3.77022	3.13703	2.47402
21300	0.35269	0.37196	0.23347	2.29486	2.17051	1.95670	2.59460	1.72663	0.98428	1.51633	1.45894	1.33959	0.77154	0.64384	0.54330	3.83500	3.13068	2.49512	26.88	6.1	0.00	7.35	0.01271	0.01288	0.01659	0.00773	0.00576	0.00632	0.00467	0.01263	0.01682	0.00673	0.00691	0.00886	0.01487	0.01094	0.01195	0.00215	0.00612	0.00860
21470	0.32578	0.37028	0.23530	2.26781	2.09589	1.95493	2.58465	1.70329	0.98907	1.49854	1.44197	1.29687	0.77989	0.62422	0.51005	3.80637	3.09538	2.48409
21630	0.31102	0.35100	0.21487	2.25164	2.10121	1.88748	2.57332	1.69982	0.95601	1.45815	1.43435	1.28456	0.76038	0.63171	0.51529	3.76778	3.09067	2.46306
21800	0.33565	0.36500	0.21349	2.20541	2.07821	1.88361	2.57535	1.68610	0.94502	1.44076	1.40444	1.29568	0.73705	0.60069	0.50931	3.72325	3.13178	2.45878
21960	0.31097	0.33987	0.21233	2.20614	2.08890	1.85442	2.57041	1.68099	0.91851	1.44693	1.40636	1.26631	0.73132	0.60229	0.50325	3.75308	3.10198	2.47068
22120	0.28762	0.33243	0.20714	2.22359	2.07815	1.90046	2.54074	1.67637	0.92671	1.43687	1.39816	1.26026	0.73522	0.59473	0.49333	3.69805	3.07802	2.42851
22290	0.28659	0.31497	0.20674	2.18784	2.03681	1.82239	2.57053	1.71635	0.94005	1.41456	1.35798	1.22846	0.73019	0.61591	0.49693	3.72034	3.04410	2.38760
22450	0.29058	0.32403	0.19782	2.15788	2.02413	1.86035	2.54083	1.69346	0.93473	1.41939	1.35523	1.23751	0.71983	0.58659	0.49052	3.75302	3.07742	2.43712
22620	0.29170	0.33026	0.19558	2.17994	2.03190	1.86265	2.56423	1.67664	0.94096	1.44740	1.42502	1.26451	0.74879	0.60087	0.49547	3.74296	3.10680	2.47201
22780	0.30171	0.34421	0.23671	2.28929	2.11958	1.97199	2.57648	1.71031	0.96480	1.57332	1.54670	1.34045	0.77407	0.65255	0.55041	3.85727	3.18564	2.68875
22950	0.33716	0.37876	0.25318	2.32762	2.19864	2.04827	2.61865	1.73141	1.00060	1.59022	1.49096	1.41492	0.77236	0.67144	0.54312	3.85507	3.17701	2.52654	26.82	6.1	0.00	7.38	0.01271	0.01288	0.01658	0.00773	0.00576	0.00632	0.00467	0.01263	0.01682	0.00673	0.00691	0.00886	0.01487	0.01094	0.01195	0.00215	0.00612	0.00860
23110	0.33108	0.38630	0.25851	2.24761	2.12251	1.97404	2.58208	1.74757	1.00086	1.47235	1.44892	1.27653	0.77686	0.62567	0.55026	3.81717	3.16346	2.47262
23270	0.33472	0.35960	0.22894	2.26527	2.15867	1.99770	2.57530	1.70133	0.95673	1.49969	1.46607	1.35817	0.75234	0.60455	0.53548	3.79719	3.14956	2.47812
23430	0.33668	0.35014	0.21963	2.27143	2.09511	1.87928	2.56122	1.69029	0.94875	1.50284	1.44380	1.28599	0.76092	0.61373	0.50707	3.74652	3.07273	2.42718
23600	0.30952	0.35072	0.20961	2.22514	2.11424	1.87908	2.58181	1.68554	0.92104	1.45166	1.39776	1.25955	0.73968	0.59697	0.51907	3.73971	3.07157	2.42128
23760	0.30218	0.34147	0.21301	2.30608	2.05554	1.88686	2.56152	1.68690	0.94577	1.46060	1.39760	1.32321	0.74770	0.60851	0.51413	3.78725	3.16568	2.47470
23930	0.32711	0.35325	0.21171	2.26301	2.08711	1.91250	2.56799	1.71088	0.93962	1.43597	1.41193	1.30642	0.74684	0.61308	0.51147	3.78394	3.11249	2.62660
24090	0.29480	0.34426	0.22144	2.26326	2.10030	1.94842	2.55095	1.69346	0.94354	1.40042	1.39281	1.26742	0.73342	0.60688	0.50088	3.70788	3.06840	2.43554
24250	0.29158	0.34743	0.21471	2.20500	2.06723	1.84897	2.54935	1.68299	0.92429	1.42700	1.38596	1.25881	0.72920	0.60390	0.49342	3.72230	3.06375	2.44302
24420	0.28794	0.32541	0.18745	2.20591	2.04625	1.86533	2.53282	1.67478	0.92085	1.44268	1.36336	1.22313	0.73448	0.59041	0.49323	3.72126	3.06452	2.41571
24580	0.29468	0.33535	0.20515	2.20232	2.04679	1.85867	2.56550	1.69796	0.92988	1.42002	1.37744	1.27417	0.75534	0.59253	0.49751	3.75246	3.08865	2.44542	26.88	6.2	0.00	7.42	0.01271	0.01288	0.01658	0.00773	0.00576	0.00632	0.00467	0.01263	0.01682	0.00673	0.00691	0.00886	0.01487	0.01094	0.01195	0.00215	0.00612	0.00860
24750	0.29526	0.34575	0.20703	2.17669	2.10559	1.88963	2.54660	1.68463	0.94774	1.45254	1.42834	1.28592	0.73832	0.61720	0.51373	3.74421	3.09764	2.45560
24910	0.30997	0.33261	0.20808	2.20968	2.06966	1.88076	2.56639	1.69886	0.93547	1.46267	1.41940	1.32405	0.74543	0.62633	0.51015	3.78647	3.14735	2.48905
25070	0.31690	0.34982	0.21427	2.22072	2.19255	1.88432	2.55947	1.73225	0.92936	1.43237	1.37672	1.24343	0.73390	0.61205	0.50233	3.74256	3.12435	2.42068
25240	0.30031	0.33338	0.20726	2.26913	2.07715	1.90775	2.55466	1.68408	0.93890	1.45880	1.37691	1.28855	0.73488	0.60956	0.49900	3.73833	3.06328	2.39922
25400	0.30530	0.33151	0.21462	2.18954	2.04443	1.87492	2.54194	1.67408	0.92989	1.43315	1.37505	1.26582	0.73320	0.59860	0.48398	3.74790	3.08675	2.41033
25570	0.29107	0.31905	0.19434	2.21313	2.07845	1.88904	2.54186	1.65894	0.92151	1.38843	1.36240	1.22956	0.74271	0.59127	0.49708	3.72334	3.06309	2.45750
25730	0.29461	0.33352	0.18993	2.18705	2.06534	1.84088	2.52587	1.66769	0.92669	1.43438	1.35432	1.26850	0.72637	0.60227	0.49669	3.72620	3.08192	2.46111
25900	0.30118	0.34114	0.21714	2.28368	2.04224	1.88160	2.56054	1.67961	0.94612	1.43535	1.37810	1.25001	0.75906	0.59921	0.49719	3.73333	3.06574	2.46457
26060	0.29252	0.32634	0.20270	2.24759	2.05345	1.84339	2.54426	1.68011	0.92663	1.42677	1.37411	1.23522	0.72728	0.60031	0.49655	3.69852	3.04854	2.41752
26220	0.29733	0.32522	0.20222	2.21971	2.08601	1.93041	2.56169	1.69928	0.93057	1.46217	1.38382	1.27615	0.74036	0.63056	0.50662	3.77225	3.11579	2.45057	26.88	6.3	0.00	7.34	0.01271	0.01289	0.01658	0.00773	0.00576	0.00632	0.00467	0.01263	0.01683	0.00673	0.00691	0.00886	0.01488	0.01094	0.01195	0.00215	0.00612	0.00860
26390	0.30818	0.39318	0.22526	2.24322	2.12461	1.95673	2.58698	1.71923	0.96326	1.52017	1.48391	1.38005	0.75838	0.65643	0.53424	3.81505	3.24781	2.53394
26550	0.33561	0.38699	0.26027	2.25324	2.15638	1.95019	2.59454	1.70117	0.97335	1.53005	1.46965	1.30656	0.75842	0.69511	0.56092	3.80167	3.16140	2.54400
26710	0.34673	0.36742	0.23112	2.20708	2.08504	1.91885	2.59722	1.72441	0.96470	1.46536	1.40933	1.25047	0.76777	0.61847	0.53912	3.74885	3.09942	2.45574
26880	0.30723	0.35094	0.20943	2.22281	2.05591	1.85692	2.54606	1.67933	0.93692	1.42741	1.37637	1.24965	0.73809	0.59093	0.50408	3.75611	3.11005	2.47465
27040	0.32059	0.34887	0.22135	2.26302	2.20207	2.16232	2.63416	1.78179	1.03691	1.75947	1.66806	1.71189	0.87924	0.81761	0.70325	4.30123	3.64321	3.18350
27200	0.58558	0.58928	0.49123	2.84954	2.63811	2.59637	2.89864	2.01904	1.28154	2.10053	2.24362	2.00099	1.00763	0.93115	0.82192	4.43673	3.76168	3.18796
27370	0.63123	0.66177	0.53192	2.74751	2.47179	2.24176	2.87549	2.06847	1.24179	1.89526	1.82538	1.64309	1.09189	0.95323	0.80557	4.14687	3.49624	2.81649
27530	0.52425	0.53765	0.44280	2.48370	2.37870	2.16181	2.73673	1.91765	1.08350	1.68867	1.62269	1.44523	0.86927	0.76558	0.60909	3.88755	3.24422	2.57977
27700	0.39096	0.42436	0.25721	2.37504	2.15036	1.96279	2.62723	1.78727	1.02516	1.52940	1.54912	1.39652	0.78838	0.65432	0.54821	3.80498	3.15689	2.51371
27860	0.33070	0.38190	0.25532	2.27112	2.09179	1.94645	2.59524	1.73062	0.96103	1.51069	1.46929	1.31793	0.75207	0.62069	0.52157	3.78504	3.14994	2.47952	26.88	6.2	0.00	7.37	0.01271	0.01289	0.01659	0.00773	0.00576	0.00632	0.00467	0.01263	0.01683	0.00673	0.00691	0.00886	0.01488	0.01094	0.01195	0.00215	0.00612	0.00860
28020	0.30954	0.34520	0.24106	2.25530	2.09597	1.92577	2.57364	1.71170	0.96090	1.46456	1.44199	1.29985	0.75022	0.61758	0.51108	3.73983	3.09289	2.53972
28190	0.31448	0.35587	0.22535	2.31365	2.13947	2.02290	2.64819	1.78484	1.04272	1.59225	1.82333	1.69773	0.86418	0.72399	0.67318	4.18029	3.52005	3.07407
28350	0.53315	0.52744	0.49951	3.01775	2.84958	2.78328	2.93508	2.01131	1.34493	2.39533	2.36897	2.28936	1.20836	0.98383	0.87333	4.58212	3.95990	3.22862
28520	0.65854	0.72638	0.64085	2.88458	2.66277	2.46580	3.03551	2.18109	1.34520	2.00607	2.02603	1.98093	1.08553	0.89457	0.78453	4.40693	3.69299	3.00805
28680	0.57805	0.58281	0.43991	2.68389	2.46207	2.34685	2.76020	1.91466	1.14065	1.72689	1.65036	1.50040	0.90675	0.73699	0.64096	3.92168	3.24238	2.58783
28850	0.42622	0.45270	0.31410	2.34504	2.13343	2.05462	2.62714	1.76655	0.99540	1.55402	1.49830	1.34215	0.82761	0.67584	0.55029	3.80836	3.14161	2.49338
29010	0.35944	0.36857	0.23877	2.25751	2.14387	1.97261	2.58072	1.71156	0.95211	1.48536	1.48015	1.31167	0.78894	0.64608	0.51848	3.82175	3.13675	2.51518
29170	0.33563	0.34561	0.20668	2.20229	2.08052	1.85833	2.58709	1.69146	0.94886	1.42265	1.42037	1.26185	0.74931	0.62100	0.51310	3.75869	3.13032	2.40320
29340	0.29821	0.34143	0.21091	2.24541	2.04002	1.86940	2.58361	1.69599	0.96855	1.43095	1.35405	1.25220	0.72732	0.60716	0.50980	3.71843	3.11771	2.44844
29500	0.31097	0.35373	0.21133	2.23139	2.04571	1.87206	2.56515	1.68536	0.93860	1.47728	1.41879	1.31052	0.73680	0.61872	0.51641	3.76883	3.08142	2.44442	26.88	6.1	0.00	7.40	0.01271	0.01289	0.01658	0.00773	0.00576	0.00632	0.00467	0.01264	0.01683	0.00673	0.00691	0.00886	0.01488	0.01094	0.01195	0.00215	0.00612	0.00860
29670	0.30242	0.34488	0.23164	2.21606	2.05363	1.84945	2.55922	1.69932	0.95096	1.42048	1.38947	1.26086	0.74832	0.61703	0.50712	3.80393	3.13070	2.47011
29830	0.31941	0.36774	0.22619	2.22458	2.06353	1.84712	2.57980	1.71596	0.92730	1.47432	1.39730	1.28167	0.76599	0.63724	0.49929	3.72665	3.10702	2.47446
29990	0.30950	0.34742	0.22182	2.20222	2.07232	1.85888	2.58522	1.68186	0.93509	1.44950	1.37404	1.23846	0.75778	0.61362	0.49611	3.74819	3.09341	2.47399
30160	0.29085	0.32365	0.21841	2.25151	2.09966	1.89376	2.54655	1.67311	0.93082	1.44983	1.41309	1.23965	0.73448	0.60278	0.50211	3.74340	3.10441	2.47200
30320	0.29374	0.32700	0.22668	2.21994	2.06400	1.88108	2.55581	1.69016	0.92935	1.44658	1.39112	1.25201	0.73870	0.60279	0.49501	3.74055	3.12189	2.41176
30490	0.30557	0.34149	0.20807	2.21838	2.07831	1.86852	2.55450	1.71003	0.94127	1.41075	1.36653	1.26534	0.75304	0.59913	0.49420	3.72057	3.06760	2.45372
30650	0.33449	0.34255	0.20998	2.22221	2.09475	1.89337	2.57416	1.70836	0.94142	1.44082	1.42497	1.25106	0.74696	0.59244	0.49630	3.76629	3.14072	2.43625
30810	0.29811	0.33608	0.21085	2.21708	2.06482	1.87985	2.56839	1.76320	0.94160	1.41469	1.36443	1.26379	0.74528	0.60777	0.50978	3.71733	3.03860	2.44543
30980	0.30187	0.33840	0.20303	2.19043	2.05668	1.84667	2.54934	1.66653	0.93458	1.41369	1.35237	1.22787	0.74849	0.60371	0.49935	3.70884	3.09661	2.47067
31140	0.29443	0.33142	0.20343	2.17953	2.04058	1.83775	2.54988	1.68430	0.93321	1.40997	1.33933	1.23537	0.75213	0.59268	0.49912	3.69634	3.06857	2.40477	26.88	6.0	0.00	7.43	0.01271	0.01289	0.01658	0.00773	0.00576	0.00632	0.00467	0.01264	0.01683	0.00673	0.00691	0.00886	0.01488	0.01094	0.01195	0.00215	0.00612	0.00860
31310	0.28676	0.32868	0.19766	2.20206	2.04227	1.87519	2.55934	1.68306	0.92047	1.42939	1.45025	1.30452	0.72631	0.60243	0.51948	3.72028	3.09472	2.45543
31470	0.30788	0.33423	0.20794	2.31814	2.20878	1.93442	2.54721	1.67636	0.94418	1.47989	1.40471	1.24630	0.73790	0.59656	0.50826	3.72922	3.09915	2.44206
31630	0.32112	0.35777	0.20380	2.22615	2.07091	1.86800	2.56715	1.72742	0.95368	1.42901	1.40130	1.26338	0.74747	0.60704	0.51693	3.73685	3.11023	2.48159
31800	0.30318	0.34995	0.22494	2.23302	2.09149	1.87017	2.55804	1.68379	0.93336	1.41549	1.37764	1.25263	0.73727	0.60045	0.51287	3.76755	3.07981	2.44025
31960	0.29883	0.32648	0.21855	2.19239	2.05123	1.85248	2.55685	1.69861	0.93998	1.41757	1.39844	1.23169	0.74576	0.60180	0.50170	3.71567	3.07313	2.42734
32130	0.30876	0.33026	0.20628	2.19119	2.06220	1.86316	2.54656	1.68178	0.94886	1.43526	1.39792	1.25035	0.74695	0.60171	0.50041	3.75175	3.10194	2.44138
32290	0.30244	0.32498	0.20004	2.21674	2.05276	1.87237	2.54789	1.69248	0.94191	1.44054	1.38437	1.25291	0.74620	0.61382	0.51359	3.80448	3.14993	2.48411
32450	0.28466	0.32748	0.20250	2.26191	2.08533	1.88499	2.54807	1.67906	0.94679	1.45488	1.40013	1.25337	0.74540	0.60555	0.48576	3.73878	3.09760	2.43697
32620	0.30599	0.35008	0.21714	2.19621	2.08968	1.88962	2.56418	1.70843	0.95098	1.46946	1.40703	1.28550	0.73370	0.61699	0.51244	3.75747	3.10210	2.45672
32790	0.31653	0.34144	0.21786	2.23550	2.08329	1.91514	2.54857	1.70363	0.95930	1.47644	1.39269	1.29705	0.76936	0.62967	0.55751	3.79297	3.13508	2.48127	26.94	6.1	0.00	7.41	0.01271	0.01289	0.01658	0.00773	0.00576	0.00632	0.00467	0.01264	0.01683	0.00673	0.00691	0.00886	0.01488	0.01094	0.01195	0.00215	0.00612	0.00860
32950	0.33782	0.39182	0.24158	2.26807	2.07610	1.91377	2.56955	1.71091	0.94821	1.46129	1.42164	1.26578	0.74742	0.60989	0.51239	3.72575	3.09178	2.44818
33110	0.30936	0.33788	0.21030	2.25306	2.12116	1.89869	2.57035	1.70305	0.93557	1.45486	1.39701	1.29163	0.76754	0.61023	0.51764	3.74986	3.08906	2.48063
33280	0.29080	0.34498	0.20533	2.22785	2.06493	1.88725	2.56284	1.68112	0.94496	1.45089	1.43985	1.33164	0.78769	0.66743	0.58316	3.90480	3.25968	2.63721
33440	0.41792	0.44303	0.35661	2.54838	2.48632	2.33372	2.70937	1.87741	1.15512	1.93031	1.98717	2.06725	1.00369	0.89242	0.85607	4.46370	3.88893	3.20920
33610	0.71490	0.76298	0.68129	2.96220	2.84658	2.80090	3.00060	2.10415	1.37220	2.05626	1.96259	1.88666	1.09924	0.88055	0.73674	4.22766	3.58147	2.98083
33770	0.52066	0.59245	0.47581	2.62805	2.35498	2.13712	2.80916	1.90414	1.13773	1.69959	1.66360	1.55384	0.83420	0.77491	0.65467	3.97606	3.31368	2.71854
33930	0.44260	0.45975	0.30076	2.42713	2.27554	2.06046	2.63021	1.81933	1.04013	1.64492	1.61842	1.47425	0.79641	0.72998	0.60104	3.91727	3.29545	2.65261
34100	0.38454	0.42862	0.28501	2.35569	2.16600	2.00062	2.61659	1.73928	1.01663	1.51531	1.52404	1.35340	0.78871	0.65483	0.55111	3.80121	3.15600	2.51716
34260	0.33485	0.37046	0.25527	2.29519	2.14027	1.96297	2.57843	1.74336	0.97953	1.46558	1.38632	1.27840	0.76616	0.62174	0.51854	3.77901	3.08987	2.45941
34420	0.31409	0.34653	0.20666	2.22507	2.06789	1.87915	2.58066	1.74319	0.93725	1.46667	1.42579	1.29935	0.73687	0.61457	0.50921	3.74937	3.09352	2.44395	26.88	6.0	0.00	7.45	0.01271	0.01289	0.01658	0.00773	0.00576	0.00632	0.00467	0.01263	0.01683	0.00673	0.00691	0.00886	0.01488	0.01094	0.01195	0.00215	0.00612	0.00861
34590	0.31157	0.33800	0.21710	2.23663	2.08190	1.85305	2.54530	1.69469	0.94313	1.44506	1.36820	1.26214	0.73699	0.62916	0.51834	3.75383	3.09171	2.46514
34750	0.29649	0.33265	0.21484	2.22800	2.08160	1.86742	2.53884	1.68957	0.94568	1.46061	1.39208	1.24988	0.72780	0.60213	0.50704	3.68571	3.05091	2.42017
34910	0.30169	0.32684	0.20681	2.20951	2.04826	1.85305	2.53707	1.68040	0.91834	1.42754	1.37697	1.25307	0.73503	0.60453	0.51267	3.73300	3.04320	2.44654
35080	0.29404	0.33052	0.21506	2.20712	2.05216	1.91360	2.56218	1.68690	0.93725	1.46722	1.42850	1.28328	0.73865	0.60505	0.51527	3.78370	3.13629	2.46566
35240	0.31750	0.35617	0.22036	2.22587	2.09221	1.88036	2.55883	1.70380	0.93723	1.50200	1.42925	1.26763	0.76350	0.61021	0.52678	3.75554	3.07985	2.42505
35400	0.32069	0.35836	0.20715	2.21345	2.08451	1.89821	2.58822	1.69036	0.92762	1.42159	1.37202	1.28594	0.74200	0.61227	0.52104	3.92905	3.08743	2.43140
35570	0.31302	0.33048	0.21216	2.23012	2.05140	1.86818	2.54112	1.70968	0.94412	1.42416	1.37858	1.25882	0.74067	0.60550	0.48984	3.71609	3.10772	2.51755
35730	0.28734	0.34178	0.21584	2.18648	2.11380	1.93573	2.56545	1.68951	0.92430	1.42087	1.37640	1.25604	0.73025	0.61716	0.50759	3.71423	3.06592	2.41984
35900	0.31794	0.34046	0.19851	2.21253	2.06176	1.84983	2.59533	1.69857	0.92781	1.45206	1.39249	1.23354	0.74576	0.61436	0.50042	3.75994	3.16625	2.44550
36060	0.29607	0.33771	0.20700	2.22467	2.05909	1.89112	2.53536	1.67985	0.93154	1.44884	1.39925	1.25662	0.72812	0.58674	0.48922	3.74269	3.08591	2.47053	26.94	6.1	0.00	7.49	0.01271	0.01289	0.01658	0.00773	0.00576	0.00632	0.00467	0.01263	0.01683	0.00673	0.00691	0.00886	0.01488	0.01094	0.01195	0.00215	0.00612	0.00860
36220	0.28751	0.34156	0.20563	2.21847	2.11955	1.88730	2.53107	1.67664	0.92499	1.41797	1.38910	1.27838	0.74497	0.60506	0.51866	3.70159	3.08944	2.49396
36390	0.29145	0.33199	0.19991	2.20780	2.09170	1.86786	2.53513	1.67510	0.93145	1.45783	1.40221	1.29763	0.73544	0.59960	0.49363	3.69655	3.05189	2.40714
36550	0.29691	0.33959	0.20699	2.19801	2.07843	1.88535	2.56095	1.71236	0.92739	1.42813	1.36437	1.25627	0.73687	0.62340	0.50900	3.72412	3.10689	2.45526
36710	0.30708	0.33534	0.21394	2.21644	2.08759	1.91317	2.57598	1.70474	0.96769	1.45737	1.38201	1.26425	0.74104	0.62362	0.52005	3.76630	3.12831	2.49076
36880	0.31526	0.34510	0.21558	2.26071	2.18719	2.09165	2.58765	1.71821	0.98992	1.71101	1.72677	1.62310	0.84330	0.74626	0.60577	4.22569	3.57893	3.00492
37040	0.55061	0.65784	0.44311	3.04079	2.74963	2.58026	2.86341	2.04666	1.34532	2.18000	2.22165	2.10801	1.12456	0.96950	0.85062	4.48846	3.78714	3.17501
37210	0.73434	0.79097	0.56780	2.98890	2.78003	2.39820	2.97378	2.08652	1.27767	2.02156	2.04879	1.82282	1.03633	0.88913	0.81250	4.18601	3.45614	2.69252
37370	0.58188	0.58903	0.43916	2.53945	2.43367	2.20720	2.73847	1.87987	1.09934	1.70848	1.77962	1.52961	0.89358	0.75475	0.65493	4.02306	3.31309	2.62190
37530	0.46391	0.47664	0.29824	2.48558	2.26400	1.98192	2.64783	1.82894	1.22567	1.59477	1.53387	1.35378	0.85107	0.68947	0.55853	3.82302	3.19608	2.60991
37700	0.37801	0.39768	0.26936	2.34411	2.13773	1.95156	2.59747	1.71680	1.01149	1.51990	1.48859	1.35461	0.77730	0.64623	0.53369	3.79241	3.14008	2.51515	26.94	6.1	0.00	7.47	0.01271	0.01289	0.01658	0.00773	0.00576	0.00632	0.00467	0.01263	0.01683	0.00673	0.00691	0.00886	0.01488	0.01094	0.01195	0.00215	0.00612	0.00861
37860	0.35381	0.38719	0.24570	2.30781	2.10017	1.98852	2.61029	1.74926	0.97438	1.52557	1.41624	1.29802	0.75830	0.65989	0.55803	3.79617	3.12784	2.48451
38030	0.32761	0.38058	0.23559	2.24495	2.09150	1.92376	2.56742	1.71032	1.02993	1.47384	1.42394	1.30684	0.74089	0.60675	0.50644	3.78611	3.10607	2.46237
38190	0.32187	0.35267	0.21393	2.22254	2.07781	1.87526	2.55958	1.70317	0.94886	1.45769	1.39874	1.26842	0.76526	0.65151	0.51239	3.73438	3.12473	2.42865
38350	0.30498	0.36136	0.20658	2.21151	2.07120	1.93934	2.56317	1.71231	0.96074	1.57230	1.45818	1.31248	0.76213	0.63312	0.51701	3.78826	3.13401	2.51854
38520	0.31869	0.36102	0.21430	2.24290	2.13222	1.99329	2.60018	1.73040	0.99547	1.55704	1.49369	1.33557	0.81994	0.67652	0.59176	3.75396	3.11368	2.50729
38680	0.33826	0.37517	0.23008	2.25269	2.15142	1.91374	2.59759	1.73478	0.99086	1.57046	1.49318	1.36253	0.77163	0.66591	0.56141	3.74912	3.07863	2.47717
38850	0.36203	0.39450	0.24419	2.27718	2.12806	1.92098	2.57440	1.70694	0.96351	1.50522	1.39677	1.29769	0.75551	0.63657	0.53520	3.76481	3.22877	2.49454
39010	0.31417	0.35812	0.24665	2.33908	2.20750	1.92042	2.58246	1.73175	0.95111	1.54240	1.67937	1.43942	0.84546	0.62583	0.51088	3.80540	3.15669	2.50029
39170	0.29316	0.34893	0.22320	2.29011	2.11827	1.86415	2.57616	1.71218	0.95058	1.53196	1.44556	1.33165	0.78702	0.64294	0.51366	3.77419	3.12978	2.43759
39340	0.33270	0.34216	0.21652	2.18025	2.07243	1.88724	2.55698	1.70489	0.93539	1.43016	1.38892	1.25207	0.73823	0.61012	0.50921	3.75392	3.07831	2.44156	26.94	5.9	0.00	7.52	0.01271	0.01289	0.01658	0.00773	0.00576	0.00632	0.00467	0.01263	0.01683	0.00673	0.00691	0.00886	0.01488	0.01094	0.01195	0.00215	0.00612	0.00860
39500	0.31749	0.33446	0.20169	2.24234	2.08864	1.88669	2.54977	1.69127	0.94999	1.42463	1.36770	1.27052	0.75879	0.62089	0.50305	3.72567	3.08514	2.41449
39660	0.30456	0.34252	0.21881	2.21193	2.06780	1.84968	2.55499	1.67026	0.92388	1.44468	1.42060	1.26275	0.73139	0.59982	0.49406	3.73407	3.11923	2.43875
39830	0.31108	0.35513	0.20653	2.16737	2.02037	1.83984	2.54381	1.69373	0.93494	1.42018	1.36204	1.28144	0.73490	0.60836	0.50054	3.76664	3.09535	2.43354
39990	0.29632	0.33833	0.20065	2.18252	2.07350	1.86479	2.54414	1.67395	0.93323	1.43450	1.41030	1.24648	0.74125	0.61410	0.50268	3.76367	3.09773	2.43924
40150	0.30133	0.34844	0.23369	2.21427	2.06344	1.89060	2.56529	1.70999	0.93948	1.39753	1.37780	1.23902	0.74211	0.61121	0.50193	3.74176	3.08553	2.44349
40320	0.28779	0.32852	0.20273	2.21326	2.08101	1.87327	2.55532	1.68208	0.94360	1.42538	1.38860	1.26529	0.73305	0.60085	0.50231	3.73522	3.07200	2.44158
40480	0.30763	0.33977	0.21269	2.18861	2.03643	1.83717	2.55668	1.68469	0.95214	1.39881	1.34452	1.22599	0.73204	0.59921	0.48527	3.71140	3.05791	2.39220
40640	0.29159	0.32418	0.19349	2.19045	2.02165	1.83882	2.55837	1.67864	0.92524	1.39092	1.36065	1.24677	0.72644	0.59109	0.49346	3.70204	3.05358	2.42074
40810	0.29028	0.32256	0.19665	2.17857	2.05571	1.88833	2.53892	1.67072	0.92097	1.52940	1.40963	1.29255	0.73337	0.59693	0.49595	3.70735	3.04182	2.42991
40970	0.29447	0.33030	0.20351	2.18566	2.05645	1.83879	2.54457	1.70791	0.91907	1.43134	1.40939	1.24086	0.75368	0.62429	0.55190	3.73130	3.10013	2.43291	26.88	6.1	0.00	7.38	0.01271	0.01289	0.01658	0.00773	0.00576	0.00632	0.00467	0.01264	0.01683	0.00673	0.00691	0.00885	0.01488	0.01094	0.01195	0.00215	0.00612	0.00860
41140	0.30576	0.35946	0.22168	2.24344	2.07824	1.91404	2.58237	1.70918	0.94373	1.43992	1.39675	1.26403	0.73287	0.62131	0.49375	3.74404	3.12114	2.41488
41300	0.30099	0.34953	0.20460	2.21764	2.05721	1.86657	2.54431	1.67762	0.93459	1.42841	1.39338	1.26543	0.73389	0.59689	0.49886	3.75438	3.11780	2.47010
41460	0.29622	0.34227	0.20866	2.18095	2.06178	1.90962	2.55738	1.71059	0.94733	1.53671	1.55999	1.42007	0.76504	0.65501	0.56430	4.07778	3.41342	2.78836
41630	0.45388	0.50984	0.39847	2.79483	2.70377	2.54511	2.83258	1.98968	1.23375	2.26494	2.20227	1.97020	1.09712	1.06207	0.93141	4.60880	4.04218	3.23467
41790	0.83320	0.78953	0.68437	3.13072	3.02146	2.62907	2.97935	2.16487	1.39055	2.22589	2.22761	2.03303	1.18195	0.98351	0.86727	4.44489	3.68691	3.16079
41950	0.65334	0.68188	0.54544	2.86480	2.63807	2.28024	2.82825	1.92953	1.22014	1.80754	1.69063	1.59224	1.05835	0.81607	0.74834	4.12964	3.43119	2.72881
42120	0.47242	0.49738	0.40496	2.53298	2.36632	2.18571	2.70839	1.80989	1.04763	1.74824	1.65561	1.50567	0.90443	0.70931	0.65679	3.89220	3.26976	2.65499
42280	0.39308	0.39525	0.29457	2.33355	2.17945	1.98199	2.65264	1.74812	0.99923	1.55385	1.57379	1.37792	0.79525	0.65656	0.55199	3.86662	3.20523	2.57330
42450	0.35391	0.40136	0.23559	2.28237	2.16060	1.93463	2.57443	1.69713	0.98148	1.49673	1.40721	1.29715	0.77882	0.65547	0.55996	3.81195	3.15188	2.51512
42610	0.33681	0.37241	0.23978	2.23057	2.07701	1.88172	2.58802	1.70765	0.94598	1.51277	1.46430	1.32238	0.75669	0.63988	0.52176	3.76996	3.16066	2.48871	26.94	5.9	0.00	7.37	0.01271	0.01289	0.01658	0.00773	0.00576	0.00632	0.00467	0.01263	0.01683	0.00673	0.00691	0.00886	0.01488	0.01094	0.01195	0.00215	0.00612	0.00860
42780	0.29827	0.35626	0.20977	2.24295	2.11776	1.88389	2.58930	1.69423	0.94422	1.45849	1.41585	1.26422	0.76080	0.62385	0.51697	3.70770	3.10556	2.43817
42940	0.30279	0.34859	0.19905	2.20679	2.04706	1.85172	2.56311	1.70179	0.94438	1.43604	1.38772	1.25576	0.73726	0.59276	0.50181	3.71142	3.06145	2.46180
43100	0.29449	0.34048	0.20959	2.18959	2.04421	1.85667	2.54896	1.69458	0.95468	1.44067	1.36210	1.21294	0.73237	0.61544	0.49663	3.71981	3.05275	2.43493
43270	0.30032	0.34281	0.20905	2.18604	2.03293	1.85383	2.56364	1.68363	0.94647	1.42811	1.49591	1.27119	0.74337	0.61989	0.51044	3.73798	3.06991	2.40052
43430	0.29860	0.33780	0.20499	2.18611	2.04848	1.86541	2.53977	1.67782	0.92816	1.41015	1.34477	1.20289	0.73035	0.60470	0.50192	3.72519	3.03905	2.38216
43590	0.29011	0.32119	0.18753	2.17337	2.03330	1.82940	2.53234	1.66826	0.92344	1.40018	1.36770	1.24781	0.72875	0.59706	0.49862	3.73590	3.10331	2.44137
43760	0.31277	0.32794	0.20156	2.17958	2.04931	1.85360	2.53589	1.66396	0.90968	1.41199	1.34793	1.22691	0.72790	0.60005	0.49107	3.70786	3.07206	2.41919
43920	0.29793	0.33162	0.20092	2.14602	2.03289	1.84713	2.55566	1.68112	0.93612	1.41261	1.36927	1.25783	0.74136	0.60367	0.49439	3.73101	3.06355	2.42246
44090	0.30153	0.32896	0.19912	2.19904	2.01989	1.81561	2.53577	1.69102	0.93909	1.38602	1.37376	1.24668	0.73111	0.61109	0.50358	3.72865	3.06546	2.40872
44250	0.31850	0.33020	0.19830	2.20898	2.07640	1.85148	2.54635	1.68807	0.93497	1.43430	1.38157	1.25790	0.72726	0.60565	0.50306	3.70842	3.06573	2.41271	26.94	6.0	0.00	7.52	0.01271	0.01289	0.01658	0.00773	0.00576	0.00632	0.00467	0.01264	0.01683	0.00673	0.00691	0.00886	0.01488	0.01094	0.01195	0.00215	0.00612	0.00860
44410	0.29052	0.33183	0.20129	2.20777	2.04600	1.83306	2.55687	1.68955	0.93668	1.42484	1.37153	1.25152	0.73766	0.61418	0.51254	3.71741	3.11045	2.40500
44580	0.31520	0.34452	0.21174	2.22447	2.05149	1.84694	2.53882	1.67538	0.93726	1.42465	1.38718	1.24976	0.75081	0.60011	0.50132	3.78165	3.09263	2.45092
44740	0.31089	0.33740	0.22166	2.26804	2.08279	1.86679	2.54697	1.69296	0.94741	1.43642	1.40732	1.29587	0.75678	0.60833	0.51047	3.78800	3.08375	2.42835
44910	0.31668	0.33672	0.20629	2.23847	2.07749	1.90711	2.59031	1.69005	0.94660	1.54360	1.43715	1.30017	0.75512	0.63298	0.53213	3.74123	3.15572	2.44745
45070	0.32535	0.37432	0.22797	2.22850	2.10328	1.91190	2.56905	1.71007	0.95846	1.46153	1.41394	1.30453	0.74479	0.61483	0.50781	3.74557	3.07795	2.45221
45230	0.31545	0.34260	0.22004	2.31900	2.13209	1.90393	2.58894	1.73433	0.94038	1.51507	1.44402	1.32131	0.75127	0.63058	0.51287	3.78292	3.15204	2.51461
45400	0.31471	0.35069	0.22364	2.23113	2.08214	1.90256	2.58846	1.72374	0.95051	1.49999	1.44477	1.29803	0.75158	0.62157	0.51380	3.74557	3.10421	2.50506
45560	0.31307	0.35898	0.21925	2.26461	2.12800	1.97129	2.55809	1.69379	0.94885	1.46925	1.39431	1.29542	0.75222	0.60407	0.51124	3.79380	3.07045	2.44567
45730	0.32568	0.34401	0.21543	2.24383	2.07103	1.90595	2.57240	1.69783	0.94462	1.44094	1.37565	1.27751	0.73494	0.59594	0.50205	3.68533	3.08380	2.44513
45890	0.29069	0.32539	0.19544	2.21546	2.03835	1.84253	2.54417	1.68392	0.96485	1.44249	1.38674	1.22746	0.73311	0.60643	0.49281	3.73180	3.08227	2.44150	26.94	6.2	0.00	7.52	0.01271	0.01289	0.01658	0.00773	0.00576	0.00632	0.00467	0.01264	0.01683	0.00673	0.00691	0.00885	0.01488	0.01094	0.01195	0.00215	0.00612	0.00860
46050	0.28896	0.33210	0.20997	2.19045	2.07162	1.86286	2.57955	1.69477	0.92465	1.43400	1.38001	1.26423	0.73712	0.61164	0.49872	3.78983	3.10755	2.42828
46220	0.30659	0.34957	0.19748	2.21863	2.06576	1.89828	2.54073	1.68017	0.92952	1.41344	1.35982	1.26398	0.72748	0.59433	0.48959	3.73602	3.09071	2.49389
46380	0.30005	0.33715	0.19763	2.18725	2.07057	1.86012	2.57789	1.68506	0.93644	1.45697	1.37580	1.22479	0.74625	0.61918	0.49918	3.71896	3.07972	2.44864
46550	0.29318	0.34014	0.21816	2.22336	2.07693	1.89880	2.54811	1.72717	1.00087	1.53060	1.49913	1.41497	0.79779	0.68207	0.56387	3.94694	3.38176	2.80960
46710	0.36722	0.48395	0.38154	2.57255	2.55795	2.31862	2.79290	1.88705	1.20164	1.90950	1.97481	1.84419	1.06533	0.88283	0.72733	4.29220	3.66033	2.93098
46870	0.60162	0.60855	0.50669	2.92660	2.61304	2.51556	2.86684	1.96790	1.24051	2.13422	1.91463	1.81049	1.05884	0.91390	0.73729	4.15421	3.62458	2.89084
47040	0.53694	0.57492	0.43687	2.59280	2.49275	2.20318	2.82540	1.91741	1.14171	1.74120	1.71323	1.62679	0.91463	0.79468	0.63328	3.99298	3.46474	2.78134
47200	0.48375	0.50960	0.34607	2.54804	2.47326	2.18866	2.73324	1.88544	1.14410	1.75053	1.69370	1.56183	0.87198	0.78931	0.63583	4.00849	3.31784	2.67275
47360	0.39900	0.44651	0.29382	2.42235	2.27822	2.08185	2.62434	1.73978	1.01229	1.57148	1.50668	1.40408	0.83103	0.67403	0.59030	3.88097	3.19158	2.52714
47530	0.39984	0.41508	0.25914	2.37874	2.19209	1.99947	2.61319	1.72934	0.96442	1.60645	1.50133	1.37503	0.78103	0.63776	0.53108	3.85564	3.23469	2.57484	26.94	6.2	0.00	7.38	0.01271	0.01289	0.01658	0.00773	0.00576	0.00632	0.00467	0.01264	0.01683	0.00673	0.00691	0.00886	0.01488	0.01094	0.01195	0.00215	0.00612	0.00860
47690	0.36024	0.37737	0.24052	2.30717	2.14629	1.93234	2.59563	1.71201	0.96293	1.51375	1.45347	1.30282	0.76674	0.64378	0.50624	3.75736	3.06147	2.45327
47850	0.32654	0.36489	0.21246	2.20545	2.07131	1.88236	2.55437	1.70016	0.94431	1.43655	1.37767	1.27506	0.75529	0.62013	0.52746	3.71930	3.07613	2.44506
48020	0.31068	0.35765	0.22181	2.22158	2.07286	1.86942	2.55294	1.69358	0.96070	1.46559	1.39400	1.29530	0.75698	0.62179	0.50533	3.74015	3.08579	2.43684
48180	0.31802	0.35818	0.21499	2.22891	2.08583	1.86494	2.58538	1.69389	0.93507	1.42696	1.39066	1.24590	0.74687	0.60806	0.49571	3.71683	3.06961	2.41448
48340	0.29138	0.34461	0.21938	2.20595	2.03445	1.86636	2.55404	1.68274	0.95120	1.43051	1.43145	1.28159	0.74392	0.59681	0.49171	3.74867	3.08735	2.40823
48500	0.29420	0.33516	0.19951	2.17562	2.04169	1.89893	2.54295	1.66884	0.93253	1.46235	1.49290	1.28314	0.71959	0.58996	0.48445	3.76496	3.09075	2.45320
48670	0.30864	0.33824	0.22809	2.20548	2.05479	1.85858	2.55196	1.70134	0.92917	1.42025	1.40108	1.24475	0.72789	0.60231	0.50456	3.71804	3.05729	2.42293
48830	0.29453	0.35332	0.19407	2.18895	2.05819	1.89899	2.55193	1.69797	0.95073	1.45457	1.39934	1.28998	0.73392	0.62511	0.49540	3.78442	3.13854	2.44255
49000	0.28755	0.33565	0.20256	2.22590	2.08288	1.84971	2.53724	1.67172	0.92616	1.42407	1.37242	1.24430	0.73784	0.59623	0.50043	3.74284	3.07950	2.45105
49160	0.28029	0.33010	0.19680	2.18289	2.05494	1.86790	2.53912	1.67628	0.91481	1.40141	1.36945	1.26183	0.72588	0.60667	0.48987	3.73784	3.07161	2.45579	26.94	6.1	0.00	7.35	0.01271	0.01289	0.01658	0.00773	0.00576	0.00632	0.00467	0.01264	0.01683	0.00673	0.00691	0.00886	0.01488	0.01094	0.01195	0.00215	0.00612	0.00861
49320	0.28637	0.33620	0.20200	2.23844	2.05615	1.83460	2.56076	1.68214	0.92669	1.40993	1.39749	1.25376	0.72751	0.58947	0.52858	3.70653	3.06534	2.41059
49490	0.29173	0.33504	0.20552	2.19821	2.04030	1.89030	2.55284	1.67867	0.92432	1.43497	1.35963	1.26586	0.75204	0.61084	0.51124	3.74532	3.10707	2.45763
49650	0.30296	0.33448	0.20477	2.22967	2.05915	1.87761	2.55376	1.67509	0.92476	1.44008	1.38691	1.28150	0.74060	0.61061	0.49896	3.74109	3.13569	2.47125
49820	0.29596	0.32494	0.20166	2.22656	2.08148	1.85463	2.53634	1.69136	0.92213	1.48595	1.42439	1.27236	0.74843	0.61355	0.51576	3.73153	3.11356	2.45323
49980	0.30141	0.33366	0.22918	2.21635	2.07255	1.91886	2.55385	1.69196	0.94031	1.46180	1.46320	1.32840	0.75352	0.60986	0.50078	3.80928	3.11497	2.47040
50150	0.32320	0.35078	0.21025	2.21485	2.03771	1.83820	2.55486	1.69559	0.92727	1.43803	1.36115	1.24511	0.74174	0.60742	0.51885	3.73790	3.07724	2.45275
50310	0.29798	0.33936	0.21857	2.25909	2.05527	1.88134	2.56667	1.69059	0.96281	1.45739	1.41243	1.26798	0.73254	0.59911	0.50826	3.76078	3.10376	2.44976
50470	0.30560	0.33950	0.21635	2.24345	2.08168	1.87718	2.56682	1.68051	0.93187	1.43988	1.41633	1.26421	0.73534	0.62076	0.49616	3.75109	3.08487	2.42106
50640	0.30117	0.33848	0.21515	2.19344	2.07443	1.87671	2.54570	1.69597	0.92405	1.42314	1.37313	1.22877	0.74113	0.61620	0.49902	3.72972	3.06613	2.42633
50800	0.29003	0.32089	0.19223	2.20510	2.04111	1.84658	2.54060	1.68721	0.91558	1.41581	1.37456	1.23605	0.74080	0.60441	0.49276	3.71860	3.05493	2.39213	26.94	6.3	0.00	7.44	0.01271	0.01289	0.01658	0.00773	0.00576	0.00632	0.00467	0.01264	0.01683	0.00673	0.00691	0.00885	0.01488	0.01094	0.01195	0.00215	0.00612	0.00860
50970	0.30364	0.33537	0.19457	2.16170	2.05024	1.88024	2.53177	1.66742	0.91406	1.40626	1.34092	1.21432	0.73611	0.60069	0.50261	3.73199	3.06881	2.41744
51130	0.30710	0.33198	0.20041	2.22070	2.05702	1.84940	2.54744	1.69396	0.94485	1.47280	1.39358	1.24468	0.73480	0.59967	0.48975	3.73407	3.08561	2.44405
51290	0.28404	0.34504	0.21421	2.29132	2.12425	1.92439	2.58316	1.72417	0.97302	1.54548	1.51540	1.49596	0.83163	0.66987	0.64027	3.96334	3.50284	2.91091
51460	0.47101	0.50413	0.44766	2.66224	2.64854	2.46104	2.72852	1.99187	1.20750	1.92070	1.94623	1.67050	0.97077	0.88078	0.79942	4.21947	3.57060	3.05304
51620	0.61617	0.56342	0.45830	2.80051	2.52784	2.28897	2.88055	1.94855	1.27390	2.06101	2.04558	1.80205	0.99201	0.86031	0.78816	4.28967	3.59251	2.89704
51790	0.58260	0.61917	0.52491	2.66834	2.49920	2.31579	2.82283	1.96157	1.24356	1.81824	1.79412	1.68116	0.90446	0.80110	0.71207	4.02984	3.42113	2.80208
51950	0.47565	0.52855	0.40303	2.48666	2.38418	2.14050	2.69444	1.85286	1.11041	1.61097	1.61410	1.50391	0.88719	0.75565	0.60049	3.95324	3.24276	2.58915
52110	0.43180	0.49362	0.33134	2.32837	2.11943	1.98396	2.66266	1.77546	1.03987	1.60386	1.53734	1.38656	0.82132	0.67796	0.56807	3.81072	3.16080	2.51363
52280	0.33414	0.37339	0.24660	2.24506	2.07219	1.89352	2.63565	1.72525	0.96423	1.49683	1.42434	1.29830	0.76093	0.62770	0.50938	3.74934	3.10559	2.45932
52440	0.30360	0.33901	0.21694	2.21501	2.11394	1.88849	2.57086	1.70177	0.95339	1.46318	1.42925	1.26689	0.75005	0.63024	0.53890	3.75891	3.10542	2.46156	26.94	6.2	0.00	7.36	0.01271	0.01289	0.01658	0.00773	0.00576	0.00632	0.00467	0.01264	0.01683	0.00673	0.00691	0.00885	0.01488	0.01094	0.01195	0.00215	0.00612	0.00860
52610	0.31777	0.35230	0.22204	2.21168	2.12381	1.90452	2.54365	1.69431	0.93730	1.43333	1.42255	1.25682	0.75511	0.61973	0.50360	3.74824	3.11439	2.49017
52770	0.30450	0.34834	0.22798	2.19657	2.07934	1.88374	2.55841	1.72526	0.94314	1.47312	1.41841	1.29760	0.76599	0.60030	0.50570	3.72720	3.08715	2.45152
52940	0.30338	0.34815	0.20793	2.23672	2.09176	1.89571	2.54792	1.68930	0.93440	1.44547	1.39975	1.23486	0.75577	0.61308	0.50737	3.76722	3.12775	2.43837
53100	0.29464	0.33794	0.23273	2.19978	2.04410	1.86535	2.55663	1.67236	0.92473	1.42460	1.37491	1.24098	0.72863	0.62040	0.50073	3.68264	3.04843	2.42017
53260	0.30454	0.36347	0.19768	2.22681	2.06451	1.87062	2.54569	1.67810	0.92214	1.43000	1.35997	1.22878	0.77481	0.62513	0.50189	3.72874	3.07061	2.42473
53430	0.31191	0.33042	0.19806	2.20632	2.01912	1.85608	2.54285	1.66985	0.91804	1.44603	1.40966	1.26545	0.72564	0.59851	0.50027	3.70495	3.07961	2.44574
53590	0.28774	0.33514	0.19198	2.20096	2.04395	1.86246	2.56067	1.67667	0.91856	1.41477	1.37015	1.22995	0.74012	0.60460	0.50514	3.75803	3.06605	2.44419
53760	0.29844	0.32825	0.20625	2.23204	2.08101	1.88108	2.56358	1.67700	0.92683	1.43102	1.37914	1.22701	0.74748	0.62064	0.50756	3.70604	3.07253	2.43220
53920	0.31565	0.34099	0.20104	2.21532	2.08363	1.86325	2.56358	1.69781	0.93171	1.45833	1.39582	1.28525	0.72798	0.59114	0.50085	3.72106	3.05536	2.40634
54090	0.29606	0.32671	0.19032	2.17640	2.05912	1.87444	2.54198	1.68769	0.93273	1.41926	1.36157	1.22640	0.74630	0.59771	0.50275	3.68881	3.09203	2.43276	27.00	6.1	0.00	7.41	0.01271	0.01289	0.01658	0.00773	0.00576	0.00632	0.00467	0.01264	0.01683	0.00673	0.00691	0.00885	0.01488	0.01094	0.01195	0.00215	0.00612	0.00860
54250	0.30520	0.33639	0.19827	2.17779	2.03275	1.83258	2.53982	1.67144	0.92107	1.45304	1.38669	1.22750	0.73948	0.59073	0.49178	3.71032	3.09485	2.41044
54410	0.29896	0.32379	0.19848	2.18834	2.06389	1.87539	2.55316	1.68192	0.93149	1.42191	1.36924	1.25080	0.72271	0.59651	0.49213	3.73632	3.07680	2.40790
54580	0.28609	0.32688	0.19688	2.19533	2.10648	1.90006	2.55455	1.70769	0.92070	1.38800	1.37236	1.25738	0.73769	0.60229	0.49506	3.72353	3.08163	2.46723
54740	0.28713	0.33099	0.20699	2.19878	2.06270	1.86667	2.53301	1.67559	0.92800	1.42988	1.38723	1.28037	0.74713	0.60818	0.50275	3.72447	3.08409	2.45662
54900	0.31515	0.33496	0.22342	2.23769	2.07009	1.86955	2.55971	1.67919	0.93389	1.52428	1.44862	1.36634	0.76283	0.61463	0.52916	3.88955	3.16128	2.70866
55070	0.35960	0.38794	0.24386	2.49590	2.34008	2.17165	2.69134	1.83678	1.13156	1.98889	1.95664	1.93008	0.97274	0.88278	0.73715	4.38921	3.66078	3.04528
55230	0.65736	0.73105	0.57676	2.86225	2.68311	2.48560	2.89773	2.11619	1.29618	2.10448	2.00108	1.82091	1.06262	0.91183	0.87695	4.28455	3.60087	3.04296
55400	0.54941	0.62887	0.46953	2.73137	2.53182	2.34517	2.75414	1.97821	1.16099	1.94785	1.86715	1.65546	0.91956	0.85296	0.74416	4.14555	3.36323	2.69164
55560	0.45524	0.49187	0.33181	2.46852	2.29831	2.13314	2.70232	1.82486	1.03413	1.65283	1.57013	1.45035	0.86016	0.74788	0.59807	4.00395	3.26504	2.58677
55730	0.39137	0.46347	0.28769	2.37369	2.14586	1.97211	2.62790	1.79626	1.00361	1.53128	1.54003	1.36622	0.80869	0.64430	0.55182	3.81187	3.19411	2.51199	27.00	6.1	0.00	7.41	0.01271	0.01289	0.01658	0.00773	0.00576	0.00632	0.00467	0.01264	0.01682	0.00673	0.00691	0.00885	0.01488	0.01094	0.01195	0.00215	0.00612	0.00860
55890	0.37615	0.36841	0.24436	2.28190	2.11267	1.92919	2.58622	1.72294	0.96638	1.45665	1.41398	1.29882	0.75178	0.63983	0.54218	3.76322	3.09624	2.48237
56050	0.32766	0.34804	0.22805	2.19136	2.11005	1.90862	2.56775	1.70376	0.94758	1.42756	1.41937	1.26980	0.75009	0.59944	0.52208	3.75787	3.08383	2.41686
56220	0.32678	0.35268	0.21012	2.19919	2.09201	1.91247	2.56523	1.69948	0.94898	1.42462	1.37060	1.26717	0.73619	0.59989	0.50332	3.74962	3.08326	2.43589
56380	0.30853	0.34588	0.22905	2.22230	2.08555	1.87150	2.58854	1.70499	0.96255	1.45620	1.44768	1.32492	0.76302	0.63265	0.50452	3.76316	3.09604	2.46355
56550	0.30767	0.34535	0.21837	2.26873	2.08219	1.95468	2.56081	1.71719	0.95395	1.48110	1.41490	1.28224	0.78553	0.65822	0.53063	3.76101	3.12109	2.44559
56710	0.33765	0.35435	0.24714	2.29711	2.11780	1.93097	2.55992	1.73012	0.97049	1.47343	1.42781	1.26715	0.73532	0.64101	0.53575	3.74186	3.12077	2.45227
56880	0.32323	0.35296	0.22994	2.22484	2.06899	1.85901	2.56918	1.71501	0.95423	1.48547	1.43030	1.27406	0.75064	0.60950	0.50589	3.75809	3.10233	2.43292
57040	0.29387	0.34705	0.22233	2.20127	2.04911	1.87280	2.56149	1.68837	0.93278	1.44914	1.43865	1.29487	0.74663	0.61947	0.50642	3.76454	3.10231	2.43048
57210	0.30134	0.33466	0.21670	2.17814	2.08504	1.86502	2.57034	1.70070	0.93125	1.43520	1.37878	1.28286	0.74822	0.60338	0.50797	3.75523	3.09595	2.45511
57370	0.31797	0.35222	0.23127	2.27056	2.11778	1.91762	2.58485	1.70322	0.94021	1.46520	1.41174	1.31470	0.74466	0.63447	0.53872	3.77663	3.12597	2.46767	26.94	5.9	0.00	7.37	0.01271	0.01289	0.01658	0.00773	0.00576	0.00632	0.00467	0.01264	0.01682	0.00673	0.00691	0.00885	0.01488	0.01094	0.01195	0.00215	0.00612	0.00860
57530	0.32843	0.37585	0.23785	2.23799	2.09073	1.88020	2.56268	1.70098	0.93686	1.45143	1.38206	1.25199	0.75472	0.62204	0.51500	3.75036	3.11095	2.48642
57700	0.30378	0.35316	0.23061	2.26227	2.06599	1.85173	2.59104	1.71843	0.94181	1.45262	1.40896	1.26003	0.79765	0.63128	0.51246	3.75239	3.06835	2.43773
57860	0.31231	0.37271	0.22832	2.19866	2.06725	1.87030	2.55737	1.69325	0.94602	1.43046	1.37123	1.26784	0.73727	0.59296	0.49613	3.75767	3.11263	2.42249
58030	0.29370	0.33477	0.20179	2.20768	2.03272	1.86824	2.53798	1.67131	0.92600	1.45025	1.37488	1.27286	0.72543	0.60762	0.50519	3.72596	3.10410	2.44932
58190	0.31526	0.34690	0.21496	2.18803	2.03017	1.85393	2.55903	1.68139	0.92591	1.43297	1.34565	1.23430	0.73230	0.61650	0.49682	3.74777	3.09367	2.44281
58350	0.29546	0.33562	0.20962	2.24405	2.08493	1.88576	2.55066	1.69376	0.95167	1.48232	1.41350	1.33052	0.74792	0.66484	0.54424	3.88315	3.26545	2.60071
58520	0.43724	0.48673	0.36547	2.54592	2.46925	2.39886	2.71560	1.85696	1.21331	2.01036	1.98356	1.98042	1.07871	0.93868	0.84567	4.37141	3.81110	3.05923
58680	0.67868	0.67447	0.59354	2.83808	2.71837	2.57839	2.87778	2.01095	1.31972	2.17305	2.15771	2.09043	1.16911	1.06042	0.87301	4.51076	3.76908	3.06116
58840	0.67641	0.63484	0.50252	2.80802	2.73936	2.49795	2.84228	1.93862	1.18561	2.01839	1.92862	1.80952	0.88903	0.83987	0.72179	4.21731	3.54379	2.80495
59010	0.48175	0.58629	0.38929	2.60496	2.42913	2.19035	2.77108	1.85764	1.04483	1.78995	1.73743	1.62817	0.86232	0.71183	0.59735	4.01889	3.30503	2.68216	27.00	6.1	0.00	7.37	0.01271	0.01289	0.01658	0.00773	0.00576	0.00632	0.00467	0.01264	0.01682	0.00673	0.00691	0.00885	0.01488	0.01094	0.01195	0.00215	0.00612	0.00860
59170	0.37353	0.41005	0.26648	2.34770	2.28625	1.97076	2.63717	1.79071	1.00695	1.56357	1.51924	1.59861	0.79581	0.67437	0.55331	3.81874	3.18159	2.50212
59330	0.35903	0.40144	0.23813	2.29087	2.07706	1.88540	2.61077	1.72583	0.95758	1.46518	1.41077	1.29297	0.76954	0.62839	0.51469	3.78148	3.10659	2.47249
59500	0.34841	0.36280	0.22457	2.25563	2.12761	1.88281	2.56737	1.71376	0.97790	1.43750	1.41311	1.24293	0.76545	0.63282	0.50039	3.73425	3.06727	2.44598
59660	0.29781	0.33482	0.20130	2.18404	2.07445	1.85721	2.55701	1.68984	0.93286	1.42340	1.38400	1.25238	0.73924	0.61888	0.52048	3.76026	3.11835	2.43798
59820	0.29295	0.33610	0.20327	2.22091	2.06531	1.88490	2.55531	1.71957	0.92308	1.43131	1.37459	1.27012	0.73200	0.59310	0.48895	3.74216	3.07765	2.42298
59990	0.29553	0.33698	0.20490	2.21761	2.07023	1.87787	2.55926	1.69692	0.93730	1.43395	1.37745	1.24417	0.73031	0.62193	0.50123	3.76345	3.18234	2.56101
60150	0.30293	0.34250	0.20652	2.20072	2.07326	1.84718	2.55345	1.69750	0.95948	1.40049	1.38428	1.24637	0.74409	0.62921	0.52832	3.75893	3.11346	2.43845
60310	0.28738	0.32884	0.20752	2.19811	2.04839	1.94394	2.54257	1.68899	0.95302	1.51944	1.50368	1.33822	0.75004	0.62585	0.51156	3.81386	3.13183	2.49802
60480	0.31430	0.35044	0.24486	2.27462	2.11964	1.90506	2.58720	1.72711	0.96508	1.48609	1.44854	1.28821	0.77276	0.65177	0.53807	3.72673	3.10298	2.48505
60640	0.33206	0.36430	0.23280	2.27360	2.09004	1.86890	2.57226	1.70452	0.94484	1.43391	1.42616	1.24448	0.73780	0.61332	0.50355	3.72055	3.08922	2.44430	27.00	6.2	0.00	7.39	0.01271	0.01289	0.01658	0.00773	0.00576	0.00632	0.00467	0.01264	0.01682	0.00673	0.00691	0.00885	0.01488	0.01094	0.01195	0.00215	0.00612	0.00860
60800	0.29922	0.33697	0.21885	2.22526	2.05266	1.88172	2.54176	1.69139	0.96355	1.44174	1.39446	1.26432	0.75349	0.61139	0.49814	3.74016	3.05434	2.43544
60970	0.32247	0.34535	0.22037	2.34946	2.05315	1.92943	2.55021	1.67741	0.92258	1.53833	1.35944	1.26437	0.73821	0.59631	0.50047	3.69366	3.05787	2.40510
61130	0.29112	0.32307	0.20173	2.20480	2.03521	1.86022	2.55391	1.69698	0.92786	1.40738	1.41884	1.27515	0.74298	0.59329	0.49324	3.70395	3.08666	2.45212
61290	0.28753	0.34025	0.20504	2.20472	2.04843	1.84639	2.55110	1.67200	0.92531	1.43666	1.39493	1.29589	0.73651	0.59840	0.50438	3.74109	3.09837	2.51450
61450	0.28960	0.33112	0.20515	2.17913	2.16358	1.92262	2.53817	1.67929	0.93517	1.42503	1.37613	1.26315	0.73371	0.61885	0.49469	3.73378	3.09290	2.41421
61620	0.29242	0.33783	0.20280	2.19854	2.03092	1.86753	2.53880	1.67547	0.94849	1.39762	1.37898	1.27170	0.77806	0.61781	0.50638	3.74703	3.10780	2.45691
61780	0.33528	0.36318	0.21760	2.27442	2.13258	1.90876	2.62910	1.69929	0.93088	1.46291	1.42173	1.26945	0.77564	0.67269	0.51458	3.74373	3.12460	2.43006
61950	0.30526	0.34082	0.20620	2.19700	2.08373	1.96910	2.55661	1.69495	1.02138	1.44388	1.39535	1.30299	0.75919	0.61481	0.52627	3.78489	3.08116	2.51965
62110	0.33612	0.33593	0.21743	2.24559	2.20475	1.95476	2.58121	1.75796	0.95460	1.54116	1.54728	1.69757	0.80477	0.70071	0.59134	3.89230	3.26799	2.63343
62270	0.41083	0.55304	0.31639	2.57023	2.32113	2.08746	2.74647	1.87661	1.09981	1.61861	1.61796	1.46626	0.90301	0.74645	0.63431	3.90308	3.26134	2.60460	26.94	6.1	0.00	7.37	0.01271	0.01289	0.01658	0.00773	0.00576	0.00632	0.00467	0.01264	0.01682	0.00673	0.00691	0.00885	0.01488	0.01094	0.01195	0.00215	0.00612	0.00860
62440	0.41983	0.45366	0.34376	2.34697	2.19626	1.98608	2.72445	1.78796	1.00259	1.56505	1.46858	1.32325	0.80931	0.63987	0.53737	3.75718	3.13993	2.49870
62600	0.36566	0.40463	0.23214	2.23490	2.12123	1.97355	2.58858	1.71275	0.94363	1.47116	1.45455	1.36277	0.77712	0.63923	0.53624	3.77150	3.08347	2.43900
62760	0.33240	0.34778	0.22272	2.20862	2.12091	1.93981	2.53737	1.73171	0.92561	1.47398	1.38466	1.27049	0.73778	0.60799	0.49789	3.72914	3.05880	2.44363
62930	0.29373	0.34766	0.20800	2.19579	2.09250	1.87859	2.56266	1.68251	0.95310	1.42176	1.42211	1.30053	0.74332	0.61210	0.52164	3.71225	3.06449	2.43702
63090	0.29954	0.34135	0.22147	2.28981	2.14507	1.98405	2.58769	1.77962	1.01376	1.63438	1.70190	1.50927	0.90829	0.78301	0.65734	4.14031	3.78623	3.00882
63260	0.56000	0.62679	0.55944	2.94422	2.66897	2.55424	3.00304	2.02661	1.29953	2.11715	2.20445	1.97385	1.24228	0.95336	0.90510	4.49921	3.84183	3.25139
63420	0.71486	0.70927	0.50863	2.72044	2.63865	2.47482	2.92294	1.95531	1.16750	1.97864	1.96689	1.73035	0.92910	0.82887	0.71958	4.12060	3.36512	2.73597
63590	0.47196	0.50740	0.34979	2.50101	2.48511	2.14605	2.69670	1.84326	1.09855	1.63551	1.63087	1.49527	0.85519	0.67212	0.56503	3.85799	3.22806	2.55898
63750	0.39013	0.43427	0.28234	2.38858	2.14538	2.03359	2.62224	1.75133	0.99669	1.49981	1.46188	1.33247	0.78181	0.64747	0.53682	3.83904	3.13219	2.50464
63910	0.34219	0.35707	0.24063	2.21004	2.07895	1.93374	2.59052	1.69198	0.94362	1.47284	1.46367	1.31772	0.74672	0.61881	0.51860	3.79047	3.10758	2.46492	27.00	6.2	0.00	7.39	0.01271	0.01289	0.01658	0.00773	0.00576	0.00632	0.00467	0.01264	0.01682	0.00673	0.00691	0.00885	0.01488	0.01094	0.01195	0.00215	0.00612	0.00860
64080	0.31328	0.35760	0.22551	2.23650	2.07260	1.95658	2.60056	1.70667	0.96240	1.42517	1.42389	1.28953	0.75968	0.63339	0.52804	3.75892	3.14622	2.46139
64240	0.30974	0.35984	0.21483	2.25209	2.11062	1.90991	2.55397	1.68838	0.95054	1.45681	1.39211	1.30378	0.74519	0.61294	0.49339	3.73912	3.08151	2.42063
64400	0.29649	0.33702	0.21539	2.21229	2.08938	1.88834	2.57383	1.68591	0.93962	1.41826	1.40025	1.27456	0.74695	0.61335	0.52610	3.70012	3.11153	2.43999
64570	0.31436	0.33467	0.21355	2.20328	2.05449	1.86371	2.54256	1.69821	0.94309	1.45148	1.38801	1.30172	0.74528	0.60564	0.50231	3.73324	3.07996	2.48142
64730	0.29288	0.33848	0.21434	2.22799	2.04745	1.87038	2.56169	1.67580	0.92824	1.43903	1.38202	1.29743	0.75283	0.59570	0.51104	3.72106	3.04677	2.43134
64900	0.29875	0.33253	0.20689	2.26022	2.03973	1.95413	2.54929	1.67569	0.93226	1.44773	1.41840	1.29420	0.73723	0.60316	0.50151	3.75221	3.07188	2.45724
65060	0.31301	0.33927	0.21087	2.19302	2.06341	1.89109	2.55112	1.70050	0.93634	1.45303	1.37873	1.26524	0.74042	0.62078	0.51565	3.76686	3.06791	2.42644
65220	0.31008	0.36746	0.22665	2.18210	2.07230	1.88721	2.55350	1.67106	0.94898	1.43370	1.41245	1.27583	0.74052	0.61621	0.49992	3.69624	3.03667	2.42864
65390	0.29352	0.32052	0.21191	2.19768	2.06319	1.85334	2.52974	1.68043	0.94375	1.44616	1.42417	1.25646	0.74125	0.60063	0.49539	3.71952	3.10123	2.43538
65550	0.29657	0.33513	0.20485	2.21804	2.10279	1.90468	2.57794	1.68267	0.93411	1.44298	1.39624	1.25829	0.74808	0.60572	0.49833	3.69148	3.06372	2.41333	27.06	6.1	0.00	7.35	0.01271	0.01289	0.01658	0.00773	0.00576	0.00632	0.00467	0.01264	0.01682	0.00673	0.00691	0.00885	0.01488	0.01094	0.01195	0.00215	0.00612	0.00860
65720	0.29723	0.32987	0.21635	2.19408	2.05246	1.87144	2.53847	1.67958	0.92177	1.40523	1.39552	1.25619	0.73848	0.59605	0.51518	3.75330	3.09407	2.43433
65880	0.29448	0.34398	0.21347	2.22883	2.04632	1.85419	2.55848	1.67284	0.92143	1.41583	1.35926	1.25134	0.74832	0.59361	0.50780	3.72484	3.08479	2.65383
66050	0.30332	0.35332	0.21209	2.21147	2.08004	1.88489	2.53992	1.68741	0.92776	1.41586	1.35283	1.25320	0.73107	0.62607	0.49223	3.73384	3.04690	2.43045
66210	0.29622	0.34079	0.20132	2.22554	2.04674	1.86281	2.54321	1.68972	0.92651	1.44396	1.42575	1.28543	0.73235	0.61902	0.51718	3.78731	3.09185	2.48901
66370	0.31466	0.34441	0.22116	2.24892	2.14562	1.93683	2.55905	1.71239	0.95129	1.43654	1.45583	1.32789	0.75270	0.61051	0.49895	3.74731	3.06832	2.52147
66540	0.32796	0.35052	0.22381	2.20892	2.08979	1.92593	2.56790	1.68624	0.95900	1.48269	1.37847	1.27835	0.75718	0.63280	0.53088	3.75853	3.09619	2.44078
66700	0.29977	0.35120	0.22396	2.22606	2.07089	1.88089	2.56288	1.68985	0.94047	1.45971	1.42938	1.27738	0.75013	0.62331	0.51236	3.73423	3.12863	2.44512
66870	0.30992	0.34669	0.21447	2.19802	2.05973	1.84956	2.54790	1.68056	0.92517	1.44429	1.43075	1.24923	0.74918	0.60861	0.50300	3.72983	3.17836	2.59065
67030	0.31471	0.39125	0.23641	2.28307	2.21926	2.12359	2.60444	1.74510	1.12509	1.66135	1.67757	1.67939	0.89134	0.78923	0.74951	4.24387	3.61309	3.04521
67200	0.60397	0.62449	0.46824	2.90385	2.66696	2.52774	2.90547	2.05652	1.28184	2.05739	2.10007	2.01869	1.09546	0.92922	0.87315	4.45412	3.83905	3.05501	27.00	6.1	0.00	7.40	0.01271	0.01289	0.01658	0.00773	0.00576	0.00632	0.00467	0.01264	0.01682	0.00673	0.00691	0.00885	0.01488	0.01094	0.01195	0.00215	0.00612	0.00860
67360	0.69902	0.72373	0.51662	2.95574	2.58378	2.53690	2.90141	2.05615	1.28619	2.05107	2.03780	1.82242	1.06031	0.97292	0.86523	4.22606	3.49752	2.82996
67520	0.62755	0.61428	0.44335	2.69173	2.47441	2.26021	2.76663	1.94972	1.09517	1.70050	1.67202	1.51824	0.95691	0.77063	0.61601	3.95198	3.27764	2.60652
67690	0.41027	0.44981	0.30426	2.32887	2.18065	2.01616	2.73372	1.80822	1.00861	1.52793	1.49169	1.34591	0.82983	0.68072	0.54772	3.80894	3.12716	2.47719
67850	0.33541	0.36786	0.22761	2.29733	2.13291	1.92421	2.59039	1.72760	0.96379	1.46054	1.42443	1.28891	0.75909	0.62684	0.52614	3.74144	3.09416	2.46115
68010	0.29752	0.33488	0.21341	2.24530	2.09870	1.93519	2.56645	1.71376	0.96507	1.45140	1.40091	1.25572	0.73830	0.62819	0.51395	3.73842	3.10434	2.43225
68180	0.34595	0.36527	0.22733	2.20789	2.05329	1.88721	2.54523	1.67250	0.92841	1.42727	1.35994	1.21153	0.73519	0.60236	0.50294	3.71121	3.07930	2.45827
68340	0.28885	0.32072	0.19342	2.23053	2.08312	1.86806	2.56093	1.70069	0.92172	1.41047	1.36451	1.24542	0.73306	0.60121	0.50608	3.71077	3.07815	2.41699
68510	0.28307	0.33604	0.20702	2.17844	2.06622	1.86452	2.55600	1.69003	0.92159	1.44239	1.41024	1.27135	0.74796	0.59871	0.49896	3.77778	3.10960	2.41393
68670	0.31111	0.33801	0.19917	2.20824	2.06725	1.86286	2.54352	1.67284	0.93175	1.43503	1.37493	1.25057	0.73286	0.59853	0.49619	3.72404	3.06713	2.39270
68840	0.29527	0.32166	0.20529	2.17054	2.05374	1.85420	2.58249	1.67049	0.94893	1.42898	1.37461	1.20439	0.73229	0.58968	0.49187	3.73468	3.07529	2.43459	27.06	6.2	0.00	7.34	0.01271	0.01289	0.01658	0.00773	0.00576	0.00632	0.00467	0.01264	0.01682	0.00673	0.00691	0.00885	0.01488	0.01094	0.01195	0.00215	0.00612	0.00860
69000	0.29283	0.33082	0.19032	2.21243	2.05460	1.86129	2.53628	1.68779	0.92822	1.42259	1.36444	1.24226	0.77084	0.62255	0.50067	3.70409	3.05541	2.42400
69160	0.30466	0.34775	0.21351	2.19442	2.04614	1.87526	2.56178	1.68669	0.93384	1.44324	1.40588	1.24544	0.74926	0.61086	0.49672	3.73046	3.06995	2.40807
69330	0.30328	0.35032	0.20531	2.21037	2.11067	1.87348	2.55258	1.70552	0.91864	1.44142	1.35933	1.27977	0.73925	0.61380	0.50415	3.74254	3.26458	2.48639
69490	0.30140	0.34562	0.20811	2.31574	2.05397	1.87809	2.55545	1.71949	0.91256	1.43362	1.41279	1.23905	0.74235	0.60817	0.50714	3.77661	3.11810	2.41699
69660	0.30054	0.33975	0.20235	2.21506	2.05508	1.87075	2.55634	1.68465	0.93262	1.43315	1.41200	1.27865	0.73992	0.60372	0.50104	3.72711	3.09422	2.45765
69820	0.31614	0.34502	0.22886	2.26719	2.15580	1.94167	2.61282	1.73547	0.96049	1.51666	1.43081	1.33199	0.77828	0.62530	0.53910	3.81717	3.17328	2.51873
69980	0.31403	0.37306	0.24382	2.29353	2.11115	1.93764	2.58389	1.70368	0.94073	1.52279	1.42521	1.28074	0.76497	0.62756	0.50753	3.78743	3.11182	2.47290
70150	0.31154	0.35623	0.21903	2.24512	2.11215	1.90722	2.58109	1.70784	0.93465	1.41543	1.41516	1.25630	0.74769	0.61393	0.50178	3.72568	3.09217	2.44303
70310	0.30220	0.33797	0.21650	2.22110	2.04884	1.87652	2.55617	1.70150	0.94958	1.42592	1.44284	1.31084	0.74630	0.60659	0.51147	3.75568	3.12318	2.53016
70480	0.31869	0.35804	0.21774	2.27190	2.10922	1.90062	2.55471	1.69914	0.94505	1.43399	1.45663	1.25893	0.74996	0.63247	0.50577	3.76218	3.13450	2.49189	27.06	6.0	0.00	7.40	0.01271	0.01289	0.01657	0.00773	0.00576	0.00632	0.00467	0.01264	0.01682	0.00673	0.00691	0.00885	0.01488	0.01094	0.01195	0.00215	0.00612	0.00860
70640	0.30509	0.35298	0.22830	2.25039	2.07210	1.92685	2.55260	1.70377	0.93915	1.42788	1.38522	1.24723	0.74312	0.61339	0.50563	3.71301	3.10219	2.40832
70800	0.31896	0.36261	0.20592	2.17400	2.02001	1.82361	2.55408	1.68829	0.91296	1.40653	1.35742	1.24637	0.73909	0.61522	0.48559	3.75882	3.07452	2.40182
70970	0.29520	0.33636	0.21317	2.18168	2.04641	1.89875	2.55708	1.69314	0.95135	1.43301	1.38703	1.32978	0.74367	0.60176	0.51350	3.71301	3.05856	2.41194
71130	0.29851	0.32936	0.20569	2.22810	2.02356	1.82149	2.56406	1.67160	0.93042	1.43881	1.38647	1.22940	0.75481	0.62092	0.52327	3.71017	3.05162	2.40499
71290	0.30451	0.34508	0.23272	2.18828	2.05992	1.84395	2.56121	1.68285	0.92800	1.40083	1.34392	1.22897	0.72790	0.59685	0.49124	3.73100	3.06451	2.44109
71460	0.29493	0.34140	0.21593	2.22930	2.06461	1.89112	2.55892	1.69454	0.95384	1.48128	1.40968	1.30562	0.76278	0.60775	0.52611	3.70442	3.07781	2.47421
71620	0.31437	0.34176	0.20848	2.21007	2.08957	1.86103	2.57166	1.70382	0.93554	1.47691	1.48117	1.26746	0.74777	0.62016	0.51137	3.74776	3.08115	2.47892
71780	0.32377	0.34843	0.22807	2.24368	2.12946	1.88600	2.58141	1.68608	0.93706	1.47791	1.42201	1.32794	0.75668	0.62265	0.50503	3.78114	3.10176	2.47165
71950	0.31285	0.37334	0.21995	2.23656	2.17756	2.00044	2.55379	1.67292	0.93558	1.44508	1.42722	1.30150	0.73604	0.63405	0.50362	3.80876	3.11723	2.45519
72110	0.31013	0.34198	0.22872	2.20364	2.10363	1.90046	2.58158	1.71716	0.96562	1.51418	1.44844	1.31827	0.77576	0.62824	0.51845	3.80571	3.11025	2.47110	27.06	6.3	0.00	7.50	0.01271	0.01289	0.01657	0.00773	0.00576	0.00632	0.00467	0.01264	0.01683	0.00673	0.00691	0.00885	0.01488	0.01094	0.01195	0.00215	0.00612	0.00860
72270	0.30113	0.36036	0.22505	2.24545	2.09513	1.89724	2.56001	1.69634	0.94154	1.46492	1.40455	1.25935	0.75156	0.61252	0.52042	3.75538	3.07096	2.41913
72440	0.31941	0.33696	0.19867	2.16479	2.05846	1.85412	2.57215	1.68976	0.95280	1.41773	1.37520	1.25036	0.74316	0.61315	0.49897	3.69370	3.09865	2.42189
72600	0.30121	0.33036	0.21036	2.20867	2.05061	1.86111	2.57019	1.70120	0.93541	1.44697	1.41483	1.25956	0.75524	0.62095	0.50894	3.73437	3.08579	2.43917
72760	0.30277	0.32902	0.19980	2.23812	2.15437	1.94017	2.57064	1.69534	0.97201	1.59545	1.59669	1.55498	0.82023	0.66048	0.59811	4.03420	3.50632	2.94703
72930	0.42182	0.50640	0.39329	2.87641	2.79245	2.61776	2.94755	2.09391	1.23273	2.22783	2.20705	1.97267	1.04388	0.92171	0.84671	4.48712	3.67921	3.25394
73090	0.62281	0.65192	0.51413	2.83141	2.59065	2.50059	2.84604	1.98904	1.23945	2.02315	2.00332	1.87376	0.99917	0.86411	0.78209	4.18402	3.47297	2.77900
73260	0.56512	0.55192	0.44038	2.54451	2.42497	2.16919	2.74864	1.89351	1.13908	1.72239	1.70272	1.55210	0.89016	0.70544	0.61928	3.94780	3.22164	2.67130
73420	0.41658	0.42509	0.30540	2.36351	2.17988	2.05043	2.61805	1.79072	1.01580	1.60261	1.48035	1.37970	0.82654	0.66688	0.57081	3.81789	3.23469	2.54784
73590	0.35041	0.37079	0.25595	2.33286	2.17553	1.91739	2.58631	1.69387	0.96861	1.44688	1.41824	1.25852	0.76260	0.62469	0.52408	3.75813	3.11497	2.46285
73750	0.32965	0.34931	0.23216	2.24025	2.07881	1.89275	2.57044	1.69723	0.94848	1.46816	1.42773	1.33590	0.75917	0.64199	0.53293	3.82630	3.14116	2.49061	27.11	5.9	0.00	7.75	0.01271	0.01289	0.01657	0.00773	0.00576	0.00632	0.00467	0.01264	0.01682	0.00673	0.00691	0.00885	0.01488	0.01094	0.01195	0.00215	0.00612	0.00860
73910	0.34079	0.36057	0.24064	2.24962	2.08871	1.88113	2.57312	1.72679	0.96194	1.52200	1.45219	1.35202	0.76615	0.63253	0.51256	3.83306	3.14434	2.45272
74080	0.30476	0.35308	0.21687	2.23190	2.06764	1.91572	2.54685	1.67742	0.92893	1.43739	1.40221	1.29131	0.73471	0.61681	0.50228	3.74465	3.08108	2.49611
74240	0.32208	0.33975	0.21019	2.26466	2.11353	1.90022	2.56011	1.72324	0.94469	1.44219	1.39934	1.27602	0.76052	0.62472	0.50927	3.72686	3.11441	2.44408
74400	0.34217	0.35364	0.23896	2.23860	2.11524	1.94109	2.54803	1.70182	0.94899	1.48188	1.47803	1.26914	0.74182	0.61861	0.50660	3.71463	3.08562	2.45308
74570	0.32888	0.34891	0.21421	2.23552	2.06119	1.91818	2.56610	1.68143	0.95392	1.51226	1.43541	1.34529	0.74583	0.60601	0.51206	3.76788	3.06619	2.46488
74730	0.30250	0.34063	0.20588	2.25488	2.12542	1.88152	2.55260	1.68179	0.95504	1.42104	1.36496	1.27303	0.73920	0.60469	0.49656	3.74405	3.08054	2.41847
74890	0.30990	0.34572	0.22252	2.18353	2.06352	1.84327	2.54862	1.69046	0.94745	1.43325	1.35047	1.22310	0.75405	0.60113	0.49879	3.74179	3.06326	2.41078
75060	0.31271	0.33540	0.19772	2.20647	2.04316	1.90619	2.54172	1.68087	0.93548	1.45251	1.38918	1.25551	0.74235	0.60612	0.51077	3.73976	3.06712	2.42522
75220	0.28964	0.32900	0.21176	2.21254	2.04110	1.84324	2.55414	1.68365	0.93935	1.43338	1.40397	1.25895	0.74131	0.62527	0.50036	3.78117	3.10838	2.63657
75390	0.31550	0.36565	0.25207	2.41035	2.28563	2.23824	2.65235	1.76065	1.05847	1.91142	1.92684	1.72216	0.93962	0.82029	0.69354	4.24293	3.52143	3.05302	27.06	6.1	0.00	7.33	0.01271	0.01289	0.01657	0.00773	0.00576	0.00632	0.00467	0.01264	0.01682	0.00673	0.00691	0.00885	0.01488	0.01094	0.01195	0.00215	0.00612	0.00860
75550	0.61535	0.66130	0.48338	2.84586	2.72158	2.56787	2.93934	2.05443	1.33834	2.09213	2.11904	2.02756	1.13162	0.97505	0.83289	4.44574	3.72535	3.32091
75710	0.65415	0.74147	0.49157	2.81897	2.82708	2.50784	2.83131	2.01305	1.26518	2.03238	1.87411	1.74348	1.08415	0.89680	0.76515	4.18851	3.51826	2.81824
75880	0.56242	0.62330	0.39939	2.61091	2.57582	2.35272	2.76258	1.93181	1.13012	1.84624	1.82515	1.68817	0.95535	0.82314	0.69546	4.08640	3.52745	2.77820
76040	0.54074	0.52071	0.39779	2.60361	2.40718	2.18892	2.72289	1.91037	1.10004	1.78163	1.73578	1.56468	0.89561	0.75482	0.63043	4.10503	3.37920	2.72111
76210	0.46947	0.48472	0.32099	2.39685	2.24501	2.06322	2.66827	1.78761	1.02232	1.72065	1.68139	1.51534	0.83086	0.70444	0.58198	3.94294	3.25311	2.67012
76370	0.34353	0.40006	0.24511	2.31989	2.20847	1.97950	2.59449	1.73189	0.95890	1.51692	1.44106	1.29193	0.75951	0.62388	0.51140	3.79294	3.17920	2.48375
76530	0.31642	0.34501	0.21149	2.26728	2.12598	1.92703	2.56572	1.75461	0.94875	1.46962	1.40714	1.28335	0.76376	0.63755	0.53403	3.77521	3.13989	2.47864
76700	0.32375	0.37205	0.22109	2.26934	2.11598	1.89492	2.58531	1.70015	0.94634	1.49026	1.44246	1.29026	0.75833	0.66016	0.50020	3.73518	3.08733	2.43399
76860	0.31693	0.34344	0.21241	2.28993	2.10700	1.87959	2.56688	1.70616	0.94485	1.48553	1.42410	1.29279	0.75308	0.61039	0.50156	3.76782	3.08237	2.48665
77030	0.31222	0.34394	0.21012	2.22993	2.08599	1.88268	2.54507	1.69796	0.96410	1.42809	1.38514	1.22572	0.75697	0.60763	0.50255	3.73667	3.12330	2.47094	27.06	6.0	0.00	7.73	0.01271	0.01289	0.01657	0.00773	0.00576	0.00632	0.00467	0.01264	0.01682	0.00673	0.00691	0.00885	0.01487	0.01094	0.01195	0.00215	0.00612	0.00860
77190	0.31075	0.34885	0.21348	2.24887	2.08579	1.90482	2.57228	1.69677	0.98297	1.47653	1.44934	1.31420	0.77082	0.64183	0.52994	3.83369	3.13537	2.54738
77360	0.32591	0.38232	0.23057	2.27743	2.06533	1.90048	2.57576	1.72845	0.96257	1.48408	1.43036	1.28283	0.77973	0.63059	0.51166	3.74486	3.13745	2.45809
77520	0.32848	0.35308	0.23400	2.20328	2.08567	1.91586	2.57719	1.69658	0.95212	1.45661	1.46562	1.31480	0.73775	0.62254	0.51226	3.74920	3.07266	2.45513
77690	0.31442	0.33667	0.21476	2.31570	2.10437	1.89205	2.57888	1.70706	0.97246	1.40867	1.40383	1.27450	0.75733	0.61734	0.50462	3.71953	3.11056	2.45980
77850	0.32822	0.34060	0.21477	2.21476	2.05986	1.89873	2.55820	1.69787	0.93956	1.43354	1.42175	1.31895	0.76808	0.67303	0.51543	3.74596	3.12932	2.48972
78010	0.30035	0.35299	0.21641	2.27289	2.12238	1.91068	2.56111	1.71487	0.94568	1.49259	1.44514	1.26742	0.74106	0.62079	0.50202	3.74299	3.11901	2.50031
78180	0.32381	0.33313	0.21523	2.25513	2.09654	1.88497	2.54604	1.70718	0.93294	1.44257	1.37505	1.22888	0.73720	0.61085	0.49465	3.69937	3.07310	2.43479
78340	0.29384	0.33439	0.21269	2.22080	2.06003	1.88419	2.54578	1.68150	0.93892	1.50292	1.38950	1.25203	0.74828	0.61313	0.51178	3.73419	3.07045	2.43723
78500	0.28539	0.33787	0.19791	2.21358	2.08188	1.86230	2.53618	1.66837	0.93070	1.41069	1.35130	1.24957	0.73668	0.61186	0.50365	3.73744	3.06975	2.44097
78670	0.29980	0.34953	0.21667	2.22921	2.12194	1.90282	2.58266	1.70949	0.93080	1.49413	1.47471	1.29797	0.74981	0.61501	0.49985	3.73838	3.12510	2.42668	27.11	6.1	0.00	7.37	0.01271	0.01289	0.01657	0.00773	0.00576	0.00632	0.00467	0.01264	0.01682	0.00673	0.00691	0.00885	0.01488	0.01094	0.01195	0.00215	0.00612	0.00860
78830	0.29317	0.34070	0.20673	2.20715	2.05037	1.87382	2.56522	1.69787	0.92579	1.42694	1.38984	1.25473	0.73979	0.61390	0.51409	3.74635	3.11315	2.44416
78990	0.30182	0.33584	0.22259	2.19952	2.05920	1.86731	2.55681	1.68809	0.92726	1.47885	1.39755	1.26330	0.72633	0.60529	0.50301	3.83806	3.12827	2.46244
79160	0.29157	0.34112	0.20184	2.20544	2.05343	1.85418	2.53450	1.70678	0.92587	1.41499	1.36562	1.25570	0.75211	0.62087	0.49086	3.72021	3.06935	2.44903
79320	0.29560	0.38201	0.20115	2.19942	2.02705	1.82618	2.55643	1.68750	0.94649	1.40587	1.39008	1.22850	0.75776	0.60953	0.51729	3.72043	3.10138	2.42512
79480	0.30948	0.33445	0.21844	2.17828	2.06595	1.88554	2.55851	1.70674	0.94397	1.44855	1.41835	1.28564	0.73538	0.60628	0.50281	3.74723	3.11903	2.43979
79650	0.30046	0.34710	0.20509	2.20643	2.07753	1.85111	2.55877	1.68504	0.93591	1.41765	1.39801	1.27846	0.75375	0.60119	0.50841	3.77935	3.08828	2.50266
79810	0.29968	0.33992	0.20961	2.23648	2.06468	1.87826	2.54750	1.67371	0.92991	1.48351	1.40553	1.28245	0.73700	0.60126	0.49560	3.73256	3.08565	2.44196
79970	0.29814	0.32812	0.21341	2.22352	2.04191	1.89636	2.54815	1.69111	0.95410	1.44917	1.39456	1.26986	0.72933	0.59751	0.50359	3.75961	3.08674	2.44550
80140	0.30046	0.32584	0.20356	2.23805	2.12846	1.91554	2.54504	1.70299	0.95922	1.49891	1.46925	1.36714	0.76457	0.68261	0.58178	3.90225	3.35311	2.64364
80300	0.37103	0.46950	0.34844	2.72934	2.47364	2.37606	2.82459	1.93945	1.18530	1.93635	2.04490	1.94587	1.02256	0.92788	0.85857	4.35941	3.72784	3.01356	27.06	6.2	0.00	7.53	0.01271	0.01289	0.01657	0.00773	0.00576	0.00632	0.00467	0.01264	0.01682	0.00673	0.00691	0.00885	0.01488	0.01094	0.01195	0.00215	0.00612	0.00860
80460	0.60619	0.66152	0.52316	3.02081	2.71094	2.58671	2.91734	2.04245	1.24372	2.08858	2.14083	1.93262	1.07987	0.94151	0.84199	4.58193	3.81307	3.11825
80620	0.67766	0.65361	0.46068	2.79221	2.66401	2.34831	2.82882	1.95780	1.22306	1.91229	1.82880	1.68202	0.92652	0.86486	0.78890	4.10570	3.46025	2.79069
80790	0.50908	0.56317	0.43511	2.64009	2.43139	2.16190	2.78393	1.89085	1.10649	1.74556	1.68766	1.44722	0.91066	0.77347	0.60601	3.96104	3.27980	2.70293
80950	0.42017	0.43889	0.29519	2.33723	2.25523	1.99025	2.68118	1.80180	1.03761	1.57884	1.53577	1.36012	0.84019	0.68028	0.56619	3.86440	3.19655	2.56273
81110	0.36047	0.39979	0.25156	2.26522	2.17622	1.94915	2.60908	1.78101	0.99511	1.51295	1.43783	1.32702	0.77137	0.61901	0.54325	3.78561	3.16045	2.48392
81280	0.31463	0.34278	0.20967	2.21903	2.09002	1.88178	2.56852	1.68830	0.92517	1.43873	1.39864	1.26553	0.74155	0.60217	0.50291	3.73304	3.09275	2.47062
81440	0.30429	0.33937	0.21161	2.20052	2.06755	1.86290	2.57758	1.73140	0.93463	1.48833	1.38693	1.23895	0.74927	0.60071	0.51603	3.78015	3.09620	2.44552
81600	0.28723	0.33709	0.20554	2.26313	2.11025	1.87001	2.56858	1.67748	0.96325	1.47092	1.39019	1.31372	0.74015	0.61755	0.50265	3.75634	3.11607	2.46844
81770	0.30538	0.35657	0.19941	2.23095	2.09751	1.88940	2.57508	1.69871	0.94073	1.44421	1.43065	1.31765	0.75299	0.60890	0.49710	3.76537	3.10361	2.44639
81930	0.30881	0.34338	0.20743	2.25167	2.04827	1.93073	2.55036	1.69859	0.91970	1.43594	1.41236	1.27625	0.75022	0.62658	0.51036	3.77529	3.07931	2.43638	27.06	6.1	0.00	7.39	0.01271	0.01289	0.01657	0.00773	0.00576	0.00632	0.00467	0.01264	0.01682	0.00673	0.00691	0.00885	0.01488	0.01094	0.01195	0.00215	0.00612	0.00860
82100	0.31306	0.35114	0.23013	2.24225	2.04569	1.89972	2.58160	1.70251	0.93761	1.45968	1.40135	1.30097	0.74844	0.63404	0.52345	3.77700	3.10774	2.42277
82260	0.32990	0.35286	0.21591	2.21496	2.05766	1.85216	2.55487	1.71722	0.92423	1.44895	1.38624	1.24081	0.74129	0.59492	0.49745	3.74760	3.12089	2.46360
82420	0.28784	0.33046	0.19779	2.18535	2.05186	1.85830	2.55822	1.68059	0.93476	1.42082	1.39568	1.24548	0.75161	0.59736	0.49228	3.75172	3.10053	2.47168
82590	0.30422	0.33898	0.20595	2.23202	2.07837	1.83579	2.55564	1.67894	0.92226	1.45410	1.38463	1.27864	0.73770	0.60915	0.49880	3.77347	3.10910	2.46665
82750	0.29978	0.35874	0.20936	2.31142	2.16050	1.98822	2.60160	1.72560	0.97993	1.64221	1.63459	1.46987	0.84457	0.73338	0.63541	4.19891	3.42264	2.76685
82920	0.52785	0.62721	0.50329	2.65761	2.57581	2.35966	2.83529	1.92924	1.19116	1.87859	1.90929	1.77517	1.02220	0.91769	0.78420	4.30089	3.58899	3.11172
83080	0.64304	0.61612	0.52209	2.86251	2.51738	2.39741	2.87453	1.92794	1.21226	2.06670	2.02095	1.72058	1.01683	0.94831	0.77407	4.15833	3.60871	2.92604
83250	0.57642	0.57699	0.45019	2.68118	2.51408	2.34166	2.75865	1.88642	1.14406	1.76994	1.73270	1.50685	0.95799	0.76235	0.68191	4.06323	3.39958	2.67628
83410	0.47274	0.51775	0.36341	2.45992	2.29967	2.16958	2.73292	1.80739	1.14047	1.66045	1.60270	1.48518	0.85346	0.70245	0.63471	3.91929	3.28625	2.62622
83570	0.39453	0.42334	0.28113	2.32768	2.22126	2.05953	2.62921	1.77664	1.00791	1.56896	1.59541	1.37161	0.78109	0.66211	0.57756	3.81784	3.16476	2.54420	27.06	6.1	0.00	7.40	0.01271	0.01289	0.01657	0.00773	0.00576	0.00632	0.00467	0.01264	0.01683	0.00673	0.00691	0.00885	0.01487	0.01094	0.01195	0.00215	0.00612	0.00860
83740	0.36167	0.38966	0.24309	2.24417	2.11968	1.96095	2.60631	1.72921	0.98518	1.57588	1.50599	1.30227	0.75878	0.62656	0.53828	3.81125	3.15078	2.51844
83900	0.32565	0.34882	0.22543	2.24349	2.10203	1.97629	2.58237	1.70009	0.94300	1.54375	1.54620	1.34540	0.76182	0.64414	0.54699	3.80439	3.14317	2.45684
84060	0.31675	0.35074	0.22029	2.22976	2.07984	1.88150	2.56882	1.68189	0.94575	1.46165	1.43248	1.29598	0.75318	0.61953	0.52113	3.76608	3.09223	2.43356
84230	0.30379	0.32962	0.20814	2.22920	2.06692	1.85466	2.55511	1.69038	0.92799	1.49684	1.40993	1.27601	0.73366	0.60311	0.50355	3.75876	3.12821	2.43212
84390	0.29222	0.32983	0.19475	2.26268	2.09981	1.88047	2.55612	1.68400	0.94251	1.47781	1.38263	1.25922	0.74729	0.62588	0.50198	3.74385	3.10498	2.46481
84550	0.29634	0.32994	0.21063	2.21173	2.06293	1.88069	2.55903	1.68095	0.92761	1.42661	1.42046	1.27032	0.72890	0.60897	0.49696	3.73660	3.11890	2.49864
84720	0.29415	0.33503	0.20244	2.22771	2.04469	1.85925	2.56345	1.70117	0.92949	1.45584	1.36533	1.23460	0.72966	0.60373	0.50154	3.74116	3.09980	2.44620
84880	0.29147	0.33560	0.20310	2.22271	2.07645	1.89220	2.55971	1.68942	0.96305	1.48436	1.38176	1.26756	0.74174	0.62767	0.50317	3.76118	3.14674	2.48208
85040	0.31215	0.33863	0.20648	2.25212	2.10900	1.89292	2.56692	1.69530	0.95512	1.43824	1.42664	1.24857	0.74403	0.59954	0.49751	3.77066	3.11582	2.46389
85210	0.30569	0.36185	0.20781	2.22591	2.10287	1.90453	2.55359	1.70242	0.93502	1.45692	1.40426	1.28408	0.74485	0.61367	0.50366	3.75374	3.15140	2.47040	27.11	6.3	0.00	7.46	0.01271	0.01289	0.01657	0.00773	0.00576	0.00632	0.00467	0.01264	0.01683	0.00673	0.00691	0.00885	0.01488	0.01094	0.01195	0.00215	0.00612	0.00860
85370	0.32575	0.36734	0.22788	2.22720	2.06604	1.88711	2.54642	1.69702	0.93791	1.43999	1.42496	1.27776	0.74494	0.60959	0.49787	3.76772	3.11727	2.45129
85540	0.29760	0.34290	0.20721	2.25441	2.11113	1.89664	2.56246	1.68558	0.93515	1.44016	1.38485	1.27850	0.73492	0.60250	0.50323	3.76216	3.11113	2.45166
85700	0.31949	0.34009	0.20107	2.20383	2.03875	1.88138	2.54808	1.70321	0.94121	1.42973	1.40605	1.23810	0.75970	0.60460	0.49252	3.75412	3.08894	2.42833
85860	0.29086	0.32628	0.19351	2.17899	2.04960	1.85409	2.54713	1.68348	0.91757	1.39388	1.38386	1.25984	0.73214	0.59596	0.49588	3.73417	3.05796	2.44932
86030	0.29481	0.32455	0.20525	2.19043	2.03931	1.83720	2.57217	1.71359	0.93630	1.38784	1.32880	1.20792	0.75665	0.60577	0.49337	3.73346	3.07040	2.43327
86190	0.30659	0.32728	0.19420	2.20229	2.05399	1.83778	2.56015	1.68080	0.92153	1.50034	1.41360	1.27392	0.73508	0.59997	0.52291	3.73752	3.04620	2.42803
86360	0.28477	0.32322	0.19381	2.20682	2.06498	1.85932	2.56029	1.66347	0.91471	1.41495	1.39280	1.28947	0.73054	0.59826	0.49713	3.76232	3.10082	2.45906
86520	0.29742	0.33190	0.20557	2.29147	2.11907	1.89968	2.55608	1.68040	0.93309	1.41320	1.34919	1.23665	0.74713	0.60381	0.49630	3.74978	3.07562	2.44180
86680	0.29467	0.33874	0.19929	2.17692	2.02771	1.86614	2.55178	1.70388	0.92766	1.42974	1.40766	1.23552	0.74062	0.61525	0.50743	3.74604	3.07231	2.47109
86850	0.30675	0.34536	0.20001	2.21412	2.05622	1.86953	2.54722	1.69662	0.91774	1.45232	1.42065	1.34788	0.73101	0.61322	0.55091	3.83600	3.29485	2.62877	27.11	6.2	0.00	7.49	0.01271	0.01289	0.01657	0.00773	0.00576	0.00632	0.00467	0.01264	0.01682	0.00673	0.00691	0.00885	0.01488	0.01094	0.01195	0.00215	0.00612	0.00860
87010	0.34549	0.42372	0.26829	2.53804	2.47348	2.30618	2.68751	1.90667	1.12526	1.95058	2.09222	1.99174	0.94508	0.88806	0.79390	4.45270	3.77880	3.21022
87180	0.64848	0.73127	0.55986	2.93362	2.85370	2.63340	2.86838	2.04089	1.33288	2.17080	2.07320	2.04721	1.05118	0.90789	0.85434	4.34794	3.57371	2.99157
87340	0.56055	0.67054	0.50216	2.71992	2.57604	2.30646	2.81433	1.95139	1.16404	1.84675	1.75582	1.52795	0.91175	0.82925	0.69101	4.05873	3.34925	2.66348
87510	0.47365	0.47473	0.34990	2.39141	2.26091	2.10140	2.68995	1.83093	1.03534	1.56120	1.58924	1.38224	0.80963	0.66937	0.56661	3.87869	3.22112	2.53152
87670	0.36396	0.40407	0.24021	2.33908	2.13439	1.93992	2.57874	1.71206	0.95514	1.50358	1.43531	1.31949	0.77093	0.61891	0.50914	3.81644	3.14782	2.49520
87830	0.31105	0.35441	0.21605	2.23615	2.24631	1.92876	2.60291	1.74495	0.95874	1.50530	1.49532	1.27402	0.76233	0.62972	0.51934	3.79244	3.08506	2.45924
88000	0.32043	0.35419	0.23058	2.24817	2.12162	1.89328	2.59296	1.72349	0.96712	1.49996	1.45312	1.35100	0.76864	0.64671	0.54234	3.83461	3.20729	2.63648
88160	0.34462	0.39146	0.23721	2.38505	2.26942	2.05984	2.61400	1.74696	0.98616	1.63565	1.55679	1.47073	0.81700	0.69394	0.58121	4.00166	3.23420	2.70611
88330	0.40317	0.41448	0.29330	2.42035	2.29385	2.04422	2.64074	1.78562	1.02235	1.59067	1.54738	1.40495	0.85817	0.67872	0.57137	3.86750	3.26507	2.57489
88490	0.40669	0.40292	0.32401	2.29401	2.16405	1.97248	2.64538	1.73758	0.98140	1.53461	1.47886	1.33456	0.80995	0.66785	0.55348	3.81522	3.20694	2.57369	27.11	6.0	0.00	7.49	0.01271	0.01289	0.01657	0.00773	0.00576	0.00632	0.00467	0.01264	0.01682	0.00672	0.00691	0.00885	0.01487	0.01094	0.01195	0.00215	0.00612	0.00860
88650	0.35409	0.37213	0.22941	2.26599	2.14690	1.97628	2.59595	1.70723	0.95693	1.45973	1.42167	1.27765	0.76829	0.65677	0.53259	3.78759	3.13559	2.48122
88820	0.34739	0.36614	0.23847	2.20867	2.12089	1.88570	2.61136	1.75247	0.94855	1.49088	1.41313	1.23710	0.77922	0.62054	0.52188	3.75662	3.11141	2.45454
88980	0.31537	0.34508	0.21763	2.20560	2.09834	1.84037	2.55977	1.68826	0.94344	1.44709	1.40758	1.23933	0.73823	0.59680	0.50044	3.73997	3.09744	2.45975
89150	0.30764	0.36054	0.21595	2.21306	2.07190	1.85575	2.54883	1.69633	0.92882	1.44034	1.38365	1.24634	0.73438	0.63311	0.52172	3.72581	3.07817	2.43732
89310	0.29177	0.32049	0.18765	2.18984	2.07119	1.84149	2.55185	1.68629	0.93311	1.43907	1.38547	1.27664	0.74016	0.60582	0.51092	3.84570	3.18256	2.49857
89470	0.32723	0.37513	0.24843	2.40269	2.21248	2.16994	2.61622	1.77539	1.03241	1.69527	1.76779	1.66992	0.90660	0.81019	0.71638	4.41854	3.67231	3.09095
89640	0.51103	0.61962	0.55435	2.91396	2.75609	2.52339	2.93427	2.06341	1.32543	2.11894	2.09453	2.02934	1.12873	0.93426	0.90580	4.24975	3.77578	2.96776
89800	0.75010	0.67143	0.57974	2.80396	2.62856	2.37387	3.04152	2.06541	1.24188	1.96075	1.84096	1.68162	1.01232	0.83331	0.77546	4.14236	3.49660	2.76737
89970	0.56069	0.52351	0.37875	2.55821	2.39599	2.13976	2.72546	1.84598	1.15362	1.68755	1.63476	1.47470	0.86904	0.73080	0.61817	3.88185	3.28097	2.63102
90130	0.40898	0.44292	0.29322	2.40033	2.20802	1.98113	2.59654	1.76955	0.97800	1.55436	1.49586	1.34324	0.77798	0.64100	0.55529	3.81568	3.14282	2.51766	27.06	6.0	0.00	7.39	0.01271	0.01289	0.01657	0.00773	0.00576	0.00632	0.00467	0.01264	0.01682	0.00672	0.00691	0.00885	0.01487	0.01094	0.01195	0.00215	0.00612	0.00860
90300	0.35300	0.36785	0.23618	2.25144	2.11952	1.88522	2.60717	1.70160	0.93939	1.42654	1.38503	1.25322	0.75500	0.64964	0.52691	3.72807	3.11437	2.48503
90460	0.32983	0.35371	0.21754	2.20106	2.06954	1.87911	2.55579	1.71113	0.93830	1.45939	1.39833	1.25608	0.74098	0.61063	0.50890	3.74097	3.11251	2.46245
90620	0.30654	0.33242	0.19930	2.18112	2.04822	1.88183	2.56585	1.69620	0.93346	1.48430	1.42934	1.32940	0.74296	0.61231	0.50071	3.77338	3.11228	2.46287
90790	0.29815	0.34123	0.19969	2.23352	2.07658	1.88046	2.56009	1.69288	0.93046	1.42611	1.36515	1.25614	0.73087	0.59598	0.53176	3.74427	3.07314	2.40777
90950	0.30561	0.33722	0.20867	2.19541	2.07897	1.86440	2.55834	1.67264	0.92605	1.43409	1.40433	1.26122	0.73406	0.61725	0.51383	3.72527	3.08801	2.42979
91120	0.29235	0.34816	0.20719	2.20211	2.09906	1.89669	2.55348	1.67691	0.94292	1.44024	1.43569	1.27187	0.74111	0.60135	0.50924	3.74877	3.10308	2.46511
91280	0.30544	0.32663	0.20709	2.21064	2.01906	1.85221	2.54583	1.68320	0.92601	1.43446	1.37497	1.24708	0.73877	0.59552	0.51816	3.75119	3.13371	2.45893
91440	0.28612	0.32805	0.20490	2.23158	2.09801	1.89125	2.56128	1.69523	0.94483	1.43725	1.41357	1.27191	0.74076	0.63699	0.51979	3.77889	3.06456	2.47126
91610	0.30269	0.33237	0.21536	2.16371	2.07308	1.90848	2.57185	1.70416	0.93217	1.43608	1.39213	1.22981	0.75533	0.59949	0.49626	3.72083	3.05522	2.38098
91770	0.30477	0.33722	0.20030	2.19623	2.04295	1.86289	2.55235	1.71517	0.95017	1.42320	1.41173	1.25501	0.72959	0.60618	0.50215	3.74781	3.05242	2.47690	27.11	6.0	0.00	7.46	0.01270	0.01289	0.01657	0.00773	0.00576	0.00632	0.00467	0.01264	0.01682	0.00672	0.00691	0.00885	0.01487	0.01094	0.01195	0.00215	0.00612	0.00860
91930	0.29588	0.33962	0.20554	2.21691	2.10586	1.89979	2.56413	1.72001	0.93697	1.48745	1.37810	1.23634	0.73876	0.62737	0.49092	3.70409	3.04780	2.67360
92100	0.29285	0.32267	0.20123	2.23985	2.04351	1.86064	2.55336	1.68984	0.92363	1.41721	1.36845	1.29634	0.72294	0.58587	0.48632	3.74446	3.11127	2.42948
92260	0.30532	0.34266	0.20521	2.20023	2.03562	1.87608	2.56629	1.69946	0.94745	1.56180	1.53651	1.38803	0.76148	0.64953	0.56386	3.91412	3.38453	2.75165
92420	0.44681	0.53777	0.41635	2.68646	2.58970	2.54949	2.84826	2.00180	1.40765	2.13148	2.12124	2.04460	1.13117	1.03350	0.84917	4.82639	4.00940	3.35119
92590	0.72384	0.77941	0.60921	2.92824	2.80215	2.67863	2.99858	2.28246	1.46171	2.11348	2.14732	1.97082	1.10181	0.97837	0.74698	4.38915	3.53369	2.93974
92750	0.59247	0.56059	0.43249	2.67657	2.38461	2.25859	2.83276	1.96717	1.17633	1.74971	1.75165	1.63923	0.93081	0.87306	0.69038	3.96765	3.39284	2.65621
92910	0.41362	0.46874	0.34240	2.45049	2.36462	2.16732	2.68250	1.78847	1.04216	1.72205	1.56901	1.43398	0.82646	0.70061	0.58824	3.94312	3.23930	2.56875
93080	0.36180	0.44561	0.30914	2.34776	2.18211	1.97349	2.62785	1.76289	1.03731	1.51667	1.44540	1.30905	0.80904	0.66761	0.55540	3.76971	3.10957	2.48545
93240	0.33900	0.38437	0.24480	2.30386	2.12416	1.95094	2.59302	1.73990	0.97593	1.49554	1.42800	1.31298	0.78025	0.64476	0.51336	3.79448	3.10561	2.50302
93400	0.32699	0.34779	0.23357	2.25158	2.07967	1.86715	2.56415	1.69554	0.94814	1.47063	1.41411	1.29856	0.73306	0.59969	0.50901	3.75615	3.11693	2.46848	27.17	6.0	0.00	7.36	0.01271	0.01289	0.01657	0.00773	0.00576	0.00632	0.00467	0.01264	0.01682	0.00672	0.00691	0.00885	0.01487	0.01094	0.01195	0.00215	0.00612	0.00860
93570	0.29367	0.33728	0.22241	2.26252	2.08884	1.88024	2.54668	1.69363	0.95432	1.44675	1.40914	1.27014	0.75893	0.61664	0.50723	3.76832	3.11961	2.43405
93730	0.30585	0.35980	0.22778	2.24967	2.06350	1.89053	2.56228	1.69328	0.93642	1.41966	1.38605	1.23076	0.72105	0.59118	0.49076	3.73350	3.10259	2.42024
93890	0.29541	0.33521	0.20150	2.18088	2.06869	1.87122	2.54896	1.67753	0.93122	1.42659	1.34752	1.26559	0.73082	0.60290	0.49122	3.75934	3.07109	2.45709
94060	0.29519	0.33455	0.20134	2.21663	2.07099	1.87699	2.57140	1.69343	0.93204	1.40458	1.41574	1.25831	0.73392	0.59978	0.49411	3.75642	3.08801	2.43281
94220	0.29274	0.34012	0.20294	2.19504	2.03473	1.85016	2.55878	1.68141	0.94964	1.40987	1.36389	1.26100	0.73745	0.59966	0.50111	3.74977	3.07435	2.42771
94380	0.29276	0.33105	0.18832	2.22784	2.05929	1.90360	2.53687	1.67386	0.93157	1.42785	1.34802	1.22636	0.74081	0.60090	0.50993	3.72401	3.08435	2.43426
94550	0.28788	0.33349	0.19537	2.18735	2.03872	1.86735	2.56552	1.67632	0.93801	1.43279	1.37305	1.23949	0.73480	0.60533	0.50142	3.72236	3.07097	2.48530
94710	0.28825	0.33669	0.21070	2.20097	2.05602	1.92975	2.55344	1.70385	0.95366	1.47251	1.40741	1.31630	0.77660	0.63377	0.51220	3.76028	3.16003	2.48381
94870	0.32651	0.35355	0.22342	2.25579	2.12123	1.92651	2.57811	1.71476	0.96059	1.49161	1.40629	1.26814	0.76298	0.67722	0.52614	3.77940	3.15829	2.47091
95040	0.32263	0.34450	0.22503	2.24809	2.14061	1.92067	2.56864	1.69371	1.00739	1.47150	1.46310	1.28839	0.78568	0.62771	0.51631	3.79432	3.12291	2.53927	27.11	6.1	0.00	7.47	0.01271	0.01289	0.01657	0.00773	0.00576	0.00632	0.00467	0.01264	0.01682	0.00673	0.00691	0.00885	0.01487	0.01094	0.01195	0.00215	0.00612	0.00860
95200	0.31197	0.37677	0.21436	2.21978	2.08113	1.90260	2.58204	1.70033	0.92656	1.42862	1.43581	1.35753	0.75517	0.60221	0.49274	3.74397	3.12193	2.44706
