WetView ver 7.1	07-18-2018	10:17:06
AC9 Absorption and Attenuation Meter
00000266		; Serial number
2	; structure version number
Reserved
0.000000	0.000000		; Depth calibration
19200			; Baud rate
0.100000			; Path length (meters)
31			; number of temperature calibration bins
				12.59339	13.44920	14.48425	15.49668	16.50852	17.49564	18.50545	19.52458	20.50176	21.48889	22.47318	23.48707	24.50962	25.49370	26.49784	27.51372	28.50746	29.47237	30.47938	31.50214	32.50470	33.49235	34.50337	35.50914	36.50618	37.52058	38.51018	39.51308	40.49994	41.49866	42.47204	; temperature bins
a650	Blue	20.34952		-0.00383	-0.00415	-0.00430	-0.00391	-0.00363	-0.00317	-0.00269	-0.00237	-0.00179	-0.00130	-0.00099	-0.00071	-0.00015	0.00000	0.00004	-0.00001	0.00015	0.00036	0.00058	0.00101	0.00161	0.00132	0.00160	0.00169	0.00242	0.00273	0.00336	0.00365	0.00427	0.00566	0.00670		; offset and temperature correction info
a676	Green	20.51193		-0.00398	-0.00384	-0.00360	-0.00306	-0.00302	-0.00255	-0.00235	-0.00212	-0.00163	-0.00136	-0.00118	-0.00089	-0.00029	0.00000	0.00068	0.00082	0.00099	0.00137	0.00145	0.00212	0.00260	0.00252	0.00321	0.00354	0.00457	0.00535	0.00617	0.00648	0.00742	0.00887	0.01002		; offset and temperature correction info
a715	Brown	20.23230		-0.00421	-0.00394	-0.00391	-0.00291	-0.00264	-0.00192	-0.00204	-0.00179	-0.00188	-0.00239	-0.00180	-0.00187	-0.00099	0.00000	0.00084	0.00162	0.00188	0.00224	0.00321	0.00381	0.00466	0.00528	0.00588	0.00696	0.00859	0.01041	0.01148	0.01282	0.01333	0.01456	0.01617		; offset and temperature correction info
c510	Red	20.40042		-0.00261	-0.00247	-0.00258	-0.00225	-0.00203	-0.00197	-0.00199	-0.00203	-0.00154	-0.00103	-0.00069	-0.00019	-0.00007	0.00000	0.00011	-0.00021	-0.00042	-0.00056	-0.00040	0.00011	0.00036	0.00050	0.00077	0.00079	0.00050	0.00042	0.00043	0.00092	0.00147	0.00200	0.00232		; offset and temperature correction info
c532	Magenta	20.40760		-0.00248	-0.00265	-0.00278	-0.00279	-0.00296	-0.00292	-0.00238	-0.00206	-0.00129	-0.00096	-0.00092	-0.00052	-0.00009	0.00000	0.00007	-0.00049	-0.00136	-0.00107	-0.00079	-0.00065	-0.00074	-0.00105	-0.00152	-0.00192	-0.00236	-0.00269	-0.00252	-0.00233	-0.00172	-0.00128	-0.00067		; offset and temperature correction info
c555	Black	20.50654		-0.00053	-0.00063	-0.00106	-0.00094	-0.00068	-0.00055	-0.00053	-0.00039	-0.00028	-0.00025	-0.00011	-0.00035	-0.00007	0.00000	-0.00037	-0.00055	-0.00036	-0.00014	0.00019	0.00044	0.00032	0.00040	0.00050	0.00028	0.00014	0.00013	0.00030	0.00073	0.00117	0.00176	0.00241		; offset and temperature correction info
a412	LtBlue	17.15231		-0.01972	-0.01823	-0.01612	-0.01381	-0.01272	-0.01080	-0.00959	-0.00866	-0.00710	-0.00532	-0.00354	-0.00148	-0.00028	0.00000	0.00176	0.00297	0.00394	0.00440	0.00453	0.00487	0.00804	0.00856	0.01065	0.01248	0.01388	0.01439	0.01659	0.01881	0.02256	0.02450	0.02719		; offset and temperature correction info
a440	LtGreen	18.00171		-0.00729	-0.00642	-0.00581	-0.00502	-0.00426	-0.00349	-0.00244	-0.00218	-0.00179	-0.00101	-0.00046	-0.00006	0.00036	0.00000	0.00040	0.00045	0.00030	-0.00015	-0.00024	-0.00035	0.00012	-0.00013	-0.00033	-0.00089	-0.00142	-0.00189	-0.00231	-0.00205	-0.00140	-0.00140	-0.00146		; offset and temperature correction info
a488	Yellow	18.86491		-0.00113	-0.00102	-0.00106	-0.00064	-0.00027	-0.00020	-0.00030	-0.00037	-0.00047	-0.00059	-0.00052	-0.00012	0.00008	0.00000	0.00025	0.00012	-0.00013	-0.00043	-0.00065	-0.00076	-0.00025	0.00010	0.00090	0.00111	0.00113	0.00104	0.00073	0.00068	0.00120	0.00186	0.00258		; offset and temperature correction info
c650	Blue	20.46075		-0.00145	-0.00097	-0.00092	-0.00139	-0.00185	-0.00196	-0.00237	-0.00266	-0.00238	-0.00163	-0.00083	-0.00041	-0.00010	0.00000	0.00005	-0.00001	0.00015	0.00034	0.00029	0.00065	0.00101	0.00164	0.00126	0.00156	0.00175	0.00270	0.00287	0.00371	0.00407	0.00473	0.00534		; offset and temperature correction info
c676	Green	20.10118		-0.00170	-0.00144	-0.00149	-0.00177	-0.00188	-0.00194	-0.00198	-0.00196	-0.00177	-0.00156	-0.00140	-0.00091	-0.00033	0.00000	0.00050	0.00092	0.00110	0.00141	0.00167	0.00199	0.00216	0.00265	0.00269	0.00289	0.00315	0.00374	0.00367	0.00408	0.00486	0.00561	0.00646		; offset and temperature correction info
c715	Brown	19.91219		-0.01201	-0.01097	-0.00859	-0.00680	-0.00651	-0.00592	-0.00535	-0.00440	-0.00387	-0.00303	-0.00222	-0.00153	-0.00028	0.00000	0.00093	0.00149	0.00247	0.00322	0.00330	0.00427	0.00373	0.00464	0.00536	0.00551	0.00643	0.00733	0.00779	0.00884	0.00899	0.01021	0.01120		; offset and temperature correction info
a510	Red	19.21192		0.00201	0.00193	0.00158	0.00098	0.00089	0.00049	0.00011	-0.00016	-0.00016	-0.00005	0.00028	0.00025	0.00006	0.00000	0.00035	-0.00022	-0.00023	-0.00080	-0.00144	-0.00154	-0.00153	-0.00204	-0.00220	-0.00219	-0.00190	-0.00128	-0.00069	-0.00018	0.00068	0.00152	0.00241		; offset and temperature correction info
a532	Magenta	19.41084		-0.00097	-0.00072	-0.00060	-0.00081	-0.00062	-0.00071	-0.00040	0.00020	0.00028	0.00043	0.00000	-0.00035	0.00007	0.00000	-0.00011	-0.00059	-0.00080	-0.00098	-0.00137	-0.00162	-0.00163	-0.00130	-0.00073	-0.00018	0.00090	0.00185	0.00175	0.00247	0.00291	0.00327	0.00349		; offset and temperature correction info
a555	Black	19.69776		0.00171	0.00183	0.00183	0.00186	0.00191	0.00170	0.00115	0.00131	0.00097	0.00073	0.00060	0.00013	0.00015	0.00000	0.00014	-0.00029	-0.00066	-0.00082	-0.00116	-0.00139	-0.00134	-0.00167	-0.00119	-0.00093	-0.00048	0.00053	0.00111	0.00095	0.00178	0.00206	0.00273		; offset and temperature correction info
c412	LtBlue	19.91180		-0.02051	-0.01853	-0.01589	-0.01311	-0.01059	-0.00877	-0.00705	-0.00581	-0.00413	-0.00231	-0.00098	-0.00066	-0.00011	0.00000	-0.00013	-0.00085	-0.00170	-0.00170	-0.00302	-0.00330	-0.00429	-0.00551	-0.00626	-0.00775	-0.00978	-0.01181	-0.01113	-0.01108	-0.01116	-0.01192	-0.01291		; offset and temperature correction info
c440	LtGreen	20.06241		-0.01064	-0.00992	-0.00892	-0.00766	-0.00639	-0.00531	-0.00478	-0.00384	-0.00287	-0.00187	-0.00102	-0.00063	-0.00023	0.00000	-0.00007	-0.00053	-0.00090	-0.00119	-0.00169	-0.00197	-0.00226	-0.00257	-0.00260	-0.00289	-0.00394	-0.00470	-0.00481	-0.00493	-0.00520	-0.00580	-0.00620		; offset and temperature correction info
c488	Yellow	20.35984		-0.01125	-0.01082	-0.00966	-0.00833	-0.00726	-0.00661	-0.00579	-0.00500	-0.00389	-0.00278	-0.00167	-0.00113	-0.00041	0.00000	0.00055	0.00121	0.00187	0.00226	0.00222	0.00251	0.00281	0.00359	0.00414	0.00427	0.00401	0.00404	0.00486	0.00563	0.00638	0.00684	0.00718		; offset and temperature correction info
0.003500	0.004000	0.015000	0.020000	0.015000	0.020000	2500.000000	2000.000000	1000.000000	; maxANoise	maxCNoise	maxADifference	maxCDifference	minACounts	minCCounts	minRCounts	maxTempSdev	maxDepthSdev
0			; auxilliary capabilities
1			; acquisition binsize
0	0.27869	0.31704	0.19360	2.14499	2.02378	1.82616	2.53236	1.66535	0.91815	1.38898	1.33123	1.23748	0.72105	0.59232	0.48147	3.68090	3.02456	2.41333	24.11	6.1	0.00	7.33	0.01275	0.01290	0.01680	0.00776	0.00579	0.00634	0.00468	0.01266	0.01688	0.00676	0.00693	0.00899	0.01490	0.01097	0.01198	0.00216	0.00614	0.00865
160	0.27662	0.31807	0.18275	2.17588	2.01343	1.81921	2.52619	1.66863	0.92802	1.42188	1.36919	1.22659	0.72297	0.58544	0.48569	3.70530	3.04347	2.41726
320	0.28852	0.32145	0.19367	2.18133	2.03826	1.84785	2.53903	1.67147	0.90565	1.38934	1.34772	1.20001	0.73785	0.60347	0.49304	3.69516	3.06353	2.42226
490	0.28956	0.32458	0.19129	2.19715	2.04173	1.88138	2.52970	1.67917	0.90900	1.41838	1.40372	1.26730	0.74108	0.58941	0.48753	3.71725	3.09035	2.43444
650	0.28200	0.31976	0.19965	2.23830	2.06339	1.86648	2.55698	1.67485	0.91841	1.42523	1.36485	1.24320	0.73021	0.59640	0.49637	3.75380	3.12379	2.42944
820	0.28778	0.34251	0.20012	2.21286	2.04689	1.85016	2.54329	1.67644	0.91439	1.52041	1.43487	1.29932	0.72661	0.59881	0.49560	3.71895	3.06596	2.49272
980	0.28439	0.32370	0.21267	2.23148	2.06582	1.84983	2.54202	1.67319	0.92991	1.43527	1.36690	1.28229	0.72649	0.60922	0.48915	3.73890	3.07318	2.43799
1150	0.30748	0.34574	0.21516	2.20961	2.09639	1.90949	2.55068	1.70079	0.93382	1.47241	1.42577	1.27812	0.74674	0.62524	0.51116	3.75495	3.07071	2.47281
1310	0.28910	0.34037	0.21945	2.21098	2.05143	1.86715	2.54338	1.67257	0.92175	1.40624	1.43259	1.28293	0.73315	0.60199	0.50835	3.72594	3.07201	2.44706
1480	0.29440	0.32890	0.19663	2.20735	2.03535	1.83031	2.53673	1.66956	0.91445	1.39203	1.35230	1.26689	0.72694	0.60179	0.49224	3.70797	3.09853	2.50086
1640	0.28256	0.32663	0.19918	2.22046	2.03924	1.86498	2.54016	1.67433	0.91685	1.38923	1.33387	1.24966	0.72495	0.59114	0.48214	3.69286	3.04418	2.41723	24.17	6.0	0.00	7.45	0.01276	0.01290	0.01680	0.00776	0.00579	0.00634	0.00468	0.01265	0.01688	0.00676	0.00693	0.00899	0.01491	0.01097	0.01198	0.00216	0.00614	0.00865
1800	0.27820	0.32611	0.19237	2.20853	2.03668	1.86242	2.53638	1.68111	0.91719	1.41346	1.35343	1.22291	0.72119	0.61170	0.49043	3.69074	3.01752	2.41372
1970	0.27796	0.31965	0.19938	2.18786	2.03642	1.84270	2.53175	1.68065	0.91401	1.39212	1.36184	1.24151	0.71534	0.58481	0.48149	3.73754	3.03295	2.39629
2130	0.29045	0.32599	0.19101	2.20971	2.03729	1.83397	2.53266	1.67507	0.92197	1.43056	1.36489	1.21905	0.78256	0.60376	0.49165	3.70169	3.05017	2.42946
2290	0.29696	0.33168	0.19789	2.19132	2.14138	1.84020	2.54362	1.66550	0.91978	1.44667	1.37106	1.27221	0.72148	0.59346	0.49584	3.71933	3.05481	2.40458
2460	0.30009	0.32277	0.19107	2.22196	2.01761	1.84077	2.55140	1.67681	0.92377	1.38589	1.35913	1.29379	0.73900	0.59251	0.48854	3.70464	3.04857	2.39995
2620	0.29401	0.32253	0.19199	2.16625	2.02419	1.83199	2.53824	1.67202	0.92508	1.37468	1.34401	1.22609	0.72765	0.59269	0.49095	3.70197	3.04888	2.41219
2780	0.28880	0.33846	0.20274	2.18578	2.03784	1.83564	2.56045	1.67136	0.94156	1.40178	1.34712	1.27741	0.72914	0.60057	0.49464	3.71272	3.10685	2.40479
2950	0.27719	0.31776	0.19083	2.19520	2.03947	1.82884	2.53638	1.67284	0.91389	1.42198	1.36215	1.24111	0.75469	0.59461	0.48630	3.70944	3.06116	2.41315
3110	0.29082	0.33804	0.21573	2.15470	2.03116	1.85862	2.54480	1.69132	0.93145	1.42386	1.37307	1.24599	0.73201	0.59363	0.47971	3.73847	3.08049	2.43366
3270	0.30303	0.31681	0.19139	2.20383	2.04366	1.85338	2.52970	1.67712	0.92004	1.43909	1.37575	1.22094	0.72768	0.60006	0.48246	3.71696	3.07603	2.43669	24.11	6.2	0.00	7.32	0.01276	0.01290	0.01680	0.00776	0.00579	0.00634	0.00468	0.01266	0.01688	0.00676	0.00693	0.00899	0.01491	0.01097	0.01198	0.00216	0.00614	0.00865
3440	0.28088	0.32574	0.18459	2.19907	2.03743	1.83251	2.53286	1.66632	0.91443	1.42009	1.34547	1.23381	0.72599	0.59098	0.49259	3.73407	3.07939	2.40355
3600	0.29786	0.33764	0.25652	2.29175	2.03140	1.84537	2.54181	1.67435	0.91946	1.43683	1.38884	1.27671	0.81604	0.62077	0.49043	3.70359	3.06957	2.42717
3760	0.28181	0.32421	0.20341	2.19215	2.04735	1.88850	2.55322	1.68118	0.92183	1.42628	1.34829	1.24988	0.72371	0.58985	0.50675	3.77080	3.09502	2.45431
3930	0.29422	0.33846	0.20074	2.23998	2.04038	1.86261	2.56237	1.68753	0.93152	1.45609	1.45908	1.31267	0.76860	0.60593	0.53309	3.77041	3.13811	2.54228
4090	0.31822	0.35000	0.24866	2.27600	2.13480	1.90999	2.60150	1.88846	1.23650	1.54675	1.48256	1.34997	0.78735	0.63086	0.53361	3.79400	3.14024	2.48160
4260	0.32442	0.36527	0.22383	2.25179	2.14205	1.92715	2.58582	1.70409	0.94365	1.46578	1.43078	1.34023	0.78311	0.61348	0.52671	3.74371	3.09473	2.42168
4420	0.31520	0.33876	0.20659	2.21735	2.04862	1.85264	2.57404	1.68762	0.94820	1.43494	1.38225	1.24780	0.74516	0.60828	0.48773	3.71844	3.05294	2.42181
4590	0.29082	0.33035	0.19915	2.17376	2.02807	1.84008	2.55033	1.66892	0.90528	1.41470	1.38908	1.23318	0.73596	0.59908	0.51190	3.74623	3.05253	2.45374
4750	0.29925	0.33494	0.21433	2.21589	2.17008	1.93209	2.56355	1.70429	0.92608	1.54305	1.54124	1.40045	0.79658	0.65163	0.55180	3.87468	3.27445	2.60013
4920	0.38737	0.44681	0.26572	2.28792	2.22125	2.02288	2.62903	1.80301	1.02294	1.58193	1.51254	1.40915	0.87292	0.71662	0.60833	3.98676	3.21080	2.59280	24.17	6.2	0.00	7.38	0.01276	0.01290	0.01680	0.00776	0.00579	0.00634	0.00468	0.01266	0.01688	0.00676	0.00693	0.00899	0.01491	0.01097	0.01198	0.00216	0.00614	0.00865
5080	0.37948	0.41791	0.29836	2.29033	2.17175	1.96334	2.70347	1.72319	0.99003	1.52389	1.50796	1.39199	0.81249	0.65593	0.58822	3.79187	3.13026	2.51921
5240	0.33319	0.37786	0.29358	2.26478	2.06828	1.85975	2.57055	1.71818	0.96280	1.44387	1.41471	1.27305	0.73377	0.60939	0.50817	3.74597	3.10328	2.44920
5410	0.30592	0.33647	0.19768	2.25322	2.10205	1.88867	2.57129	1.69710	0.94851	1.42208	1.41219	1.29553	0.74772	0.62382	0.51348	3.73146	3.07277	2.45144
5570	0.29057	0.34424	0.20155	2.23111	2.06530	1.87973	2.55690	1.67797	0.94249	1.43693	1.39208	1.26341	0.74521	0.59625	0.49969	3.74087	3.08393	2.45320
5740	0.31440	0.35178	0.21683	2.20915	2.08227	1.88091	2.54968	1.68382	0.92973	1.41650	1.37241	1.24032	0.73572	0.59649	0.48793	3.72490	3.09040	2.42763
5900	0.29823	0.32162	0.18988	2.19063	2.09497	1.98578	2.54521	1.66728	0.92810	1.45296	1.37547	1.23630	0.74266	0.59083	0.48715	3.76005	3.19784	2.41403
6070	0.29137	0.33660	0.20196	2.19865	2.03603	1.85016	2.53954	1.67793	0.93367	1.40554	1.37788	1.23976	0.72480	0.58817	0.48181	3.73797	3.02621	2.39922
6230	0.28122	0.31377	0.19080	2.20689	2.02225	1.83588	2.52493	1.65794	0.92640	1.41631	1.36523	1.23527	0.72603	0.59130	0.49351	3.69956	3.01854	2.40490
6400	0.28004	0.32678	0.21193	2.16097	2.01953	1.82231	2.54134	1.66074	0.93772	1.39990	1.35325	1.21686	0.74860	0.58394	0.49777	3.63765	3.03459	2.40086
6560	0.31213	0.32501	0.19556	2.18340	2.03672	1.83898	2.54024	1.67040	0.92446	1.37978	1.38087	1.23763	0.72605	0.59961	0.48766	3.67738	3.04338	2.41019	24.17	6.3	0.00	7.44	0.01275	0.01290	0.01680	0.00776	0.00579	0.00634	0.00468	0.01266	0.01688	0.00676	0.00693	0.00899	0.01490	0.01097	0.01198	0.00216	0.00614	0.00865
6720	0.28662	0.32948	0.20089	2.16239	2.00545	1.84626	2.52994	1.67416	0.91270	1.45441	1.37206	1.23488	0.73890	0.59352	0.48455	3.69693	3.07892	2.42980
6890	0.28567	0.33203	0.19382	2.22112	2.05590	1.84059	2.53649	1.67382	0.91862	1.44195	1.39118	1.26396	0.73124	0.59607	0.48953	3.73734	3.08249	2.45942
7060	0.29216	0.34231	0.24485	2.26343	2.08494	1.89704	2.55408	1.68186	0.92970	1.47348	1.41889	1.29708	0.74260	0.61149	0.50035	3.74385	3.09257	2.44146
7220	0.31493	0.35500	0.20901	2.22709	2.12753	1.89959	2.55071	1.69062	0.93571	1.43892	1.45232	1.28215	0.74886	0.60975	0.50833	3.72394	3.17537	2.46140
7380	0.29762	0.33489	0.21286	2.31092	2.07919	1.85381	2.54636	1.68605	0.93811	1.44840	1.37929	1.22257	0.74394	0.61207	0.50501	3.92112	3.08461	2.42931
7550	0.29922	0.34144	0.22938	2.15915	2.03003	1.85919	2.56965	1.67588	0.94513	1.41580	1.36978	1.25272	0.72344	0.59643	0.51047	3.70898	3.07610	2.41514
7710	0.28121	0.32569	0.19333	2.17150	2.03123	1.86021	2.54908	1.67936	0.92988	1.39770	1.37099	1.21049	0.73384	0.60999	0.49161	3.69012	3.05562	2.39732
7870	0.28853	0.31984	0.19951	2.15629	2.02663	1.85404	2.54876	1.68931	0.92234	1.40638	1.36854	1.24812	0.74099	0.59759	0.48510	3.72301	3.07441	2.40609
8040	0.28718	0.31747	0.19497	2.17172	2.00426	1.83609	2.53059	1.68340	0.91188	1.37455	1.35029	1.22226	0.72710	0.60687	0.49212	3.68201	3.06101	2.41772
8200	0.29569	0.32070	0.20107	2.16330	2.02599	1.83693	2.53214	1.66562	0.90868	1.36281	1.35576	1.24588	0.74574	0.59491	0.48413	3.71727	3.07728	2.42644	24.11	6.1	0.00	7.34	0.01275	0.01290	0.01680	0.00776	0.00579	0.00634	0.00468	0.01266	0.01688	0.00676	0.00693	0.00899	0.01491	0.01097	0.01198	0.00216	0.00614	0.00865
8370	0.27992	0.31427	0.19442	2.20151	2.03198	1.85200	2.53344	1.66607	0.93397	1.44061	1.56447	1.24283	0.72033	0.58922	0.50070	3.73701	3.06136	2.42390
8530	0.28680	0.32006	0.19463	2.21631	2.07313	1.89404	2.54280	1.67100	0.93485	1.44454	1.41452	1.26576	0.72527	0.60073	0.49851	3.75350	3.10218	2.47092
8700	0.29292	0.33329	0.19744	2.18991	2.01174	1.82945	2.54094	1.67550	0.91696	1.37032	1.36079	1.20134	0.73025	0.58733	0.49014	3.70864	3.05960	2.46221
8860	0.29062	0.33151	0.18975	2.21842	2.10109	1.88148	2.53247	1.67043	0.92391	1.41539	1.36841	1.22751	0.73567	0.59146	0.48006	3.72203	3.04565	2.42071
9020	0.28065	0.31920	0.19068	2.20741	2.05452	1.85223	2.54854	1.67334	0.91523	1.49525	1.41177	1.28370	0.73286	0.59006	0.49059	3.73231	3.09417	2.46253
9190	0.28376	0.32601	0.19188	2.18029	2.04679	1.82832	2.54735	1.67004	0.91785	1.40979	1.38475	1.26384	0.72616	0.65893	0.52090	3.72235	3.06751	2.42963
9350	0.29133	0.31984	0.19254	2.19175	2.01079	1.84477	2.54274	1.66660	0.91409	1.38046	1.30919	1.19930	0.72738	0.58640	0.48550	3.70286	3.03813	2.41768
9510	0.29100	0.31832	0.19425	2.20082	2.07134	1.87935	2.53539	1.67258	0.90615	1.43576	1.39496	1.24735	0.72691	0.58133	0.49146	3.69773	3.07657	2.43222
9680	0.28522	0.33409	0.20664	2.18357	2.01025	1.82166	2.54327	1.67572	0.91584	1.41026	1.38715	1.26978	0.73777	0.59535	0.48254	3.72979	3.09417	2.42869
9840	0.28650	0.32265	0.20386	2.17549	2.01245	1.80880	2.53585	1.67623	0.92326	1.34419	1.32271	1.19110	0.71906	0.58487	0.48299	3.71752	3.09669	2.46728	24.17	6.0	0.00	7.37	0.01276	0.01290	0.01680	0.00776	0.00579	0.00635	0.00468	0.01266	0.01688	0.00676	0.00693	0.00899	0.01491	0.01097	0.01198	0.00216	0.00614	0.00865
10010	0.29994	0.32486	0.19172	2.21331	2.05728	1.85570	2.54158	1.67465	0.92030	1.39972	1.33200	1.20830	0.71889	0.58056	0.48511	3.68366	3.03810	2.44540
10170	0.29403	0.32672	0.19094	2.21616	2.06729	1.88485	2.54870	1.68105	0.92707	1.41079	1.39041	1.23936	0.72546	0.58980	0.48586	3.69499	3.05297	2.38322
10330	0.28590	0.33481	0.20994	2.16272	2.01350	1.84001	2.57543	1.69226	0.94208	1.43260	1.39283	1.26538	0.78010	0.58898	0.49506	3.77010	3.12307	2.46093
10500	0.30381	0.33262	0.19913	2.18465	2.07508	1.88863	2.55843	1.68286	0.92213	1.40134	1.35350	1.24675	0.73277	0.59770	0.49195	3.71212	3.09353	2.44486
10660	0.30075	0.33926	0.19436	2.20818	2.06417	1.87341	2.55642	1.69236	0.91891	1.44419	1.35120	1.23301	0.72937	0.59569	0.48904	3.70835	3.08577	2.58964
10830	0.28896	0.32921	0.19959	2.21136	2.04651	1.84181	2.55648	1.66470	0.92715	1.41247	1.36034	1.24156	0.72518	0.58755	0.50850	3.69695	3.05418	2.41593
10990	0.29406	0.32391	0.19023	2.21156	2.07439	1.85174	2.54075	1.69070	0.93922	1.41172	1.35997	1.25502	0.73845	0.58741	0.49459	3.89976	3.04902	2.44019
11160	0.28875	0.32395	0.19593	2.16856	2.03997	1.88408	2.52985	1.68652	0.92178	1.39539	1.36509	1.24885	0.73048	0.59741	0.48836	3.75550	3.06478	2.42510
11320	0.27554	0.31798	0.19217	2.17537	2.03129	1.83137	2.55015	1.67094	0.90981	1.40972	1.39422	1.25924	0.72192	0.59473	0.48413	3.67936	3.05889	2.42250
11480	0.28175	0.31834	0.19542	2.16887	2.03143	1.84611	2.56585	1.69665	0.92415	1.39290	1.37351	1.23942	0.71659	0.58377	0.49087	3.74622	3.06182	2.40699	24.23	6.1	0.00	7.31	0.01276	0.01290	0.01680	0.00776	0.00579	0.00635	0.00468	0.01266	0.01688	0.00676	0.00693	0.00899	0.01491	0.01097	0.01198	0.00216	0.00614	0.00865
11650	0.28868	0.32942	0.19780	2.20149	2.05507	1.83513	2.55552	1.67793	0.93372	1.43320	1.40443	1.25627	0.73027	0.60314	0.49076	3.73221	3.06845	2.57169
11810	0.29287	0.33204	0.20193	2.24923	2.10919	2.17585	2.54730	1.68458	0.94845	1.42579	1.37323	1.31661	0.74849	0.59398	0.50536	3.72543	3.08495	2.46165
11970	0.28638	0.32859	0.20037	2.23104	2.05581	1.85447	2.55736	1.70010	0.92060	1.43258	1.38024	1.25239	0.75047	0.62572	0.51219	3.74249	3.11411	2.45158
12140	0.32366	0.33585	0.19770	2.24727	2.05806	1.85668	2.56020	1.68583	0.92685	1.42126	1.36418	1.33880	0.74218	0.58285	0.48966	3.70822	3.08067	2.45539
12300	0.28923	0.33090	0.19576	2.18790	2.05027	1.86601	2.54098	1.66521	0.92200	1.43754	1.42188	1.27946	0.73156	0.59924	0.50548	3.78167	3.04916	2.40480
12470	0.28881	0.33603	0.20832	2.21584	2.05162	1.88647	2.53112	1.68017	0.92027	1.41482	1.36943	1.25639	0.72782	0.59144	0.49469	3.71832	3.07303	2.45233
12630	0.29001	0.33289	0.19606	2.19384	2.05142	1.86058	2.54284	1.67639	0.93547	1.44138	1.40617	1.25173	0.71951	0.58357	0.48950	3.70173	3.07335	2.43143
12800	0.29481	0.34386	0.20313	2.18908	2.04169	1.85479	2.54219	1.69331	0.91931	1.41859	1.35192	1.24344	0.74691	0.60795	0.50607	3.72570	3.09902	2.41858
12960	0.29519	0.32907	0.20129	2.19853	2.05623	1.84784	2.57110	1.69466	0.92365	1.40989	1.38570	1.27584	0.72874	0.60198	0.48334	3.71767	3.06428	2.56539
13130	0.28822	0.32717	0.20200	2.18142	2.07399	1.86225	2.57495	1.69323	0.92370	1.44119	1.41006	1.29393	0.72577	0.61057	0.50360	3.75966	3.10253	2.45456	24.23	6.1	0.00	7.31	0.01276	0.01290	0.01680	0.00776	0.00579	0.00635	0.00468	0.01266	0.01688	0.00676	0.00693	0.00899	0.01491	0.01098	0.01198	0.00216	0.00614	0.00865
13290	0.29212	0.33534	0.21039	2.25839	2.05799	1.85798	2.55520	1.68458	0.93239	1.44154	1.39366	1.23893	0.74008	0.61207	0.50707	3.71697	3.08456	2.44492
13450	0.29752	0.32898	0.21111	2.18868	2.07213	1.87241	2.54993	1.68178	0.91654	1.45216	1.42705	1.25586	0.74227	0.60734	0.50283	3.73392	3.07511	2.42240
13620	0.29426	0.34347	0.19854	2.18940	2.04134	1.86421	2.56150	1.69386	0.93668	1.40642	1.36799	1.27844	0.73070	0.60463	0.50024	3.72462	3.09529	2.44322
13780	0.29774	0.33345	0.19503	2.19621	2.05839	1.85246	2.56822	1.66909	0.92710	1.45247	1.40445	1.26907	0.73970	0.59933	0.49232	3.72315	3.11356	2.46024
13950	0.30004	0.34607	0.19769	2.23022	2.07024	1.85114	2.53811	1.67233	0.92613	1.41252	1.37841	1.23288	0.73325	0.59567	0.49805	3.69614	3.08067	2.42492
14110	0.29071	0.33707	0.20601	2.21136	2.03465	1.89720	2.54715	1.68273	0.93547	1.44201	1.38791	1.26755	0.71747	0.59062	0.50329	3.75757	3.09516	2.44342
14280	0.29091	0.33663	0.20942	2.21619	2.06092	1.89130	2.55188	1.68662	0.92166	1.43429	1.38162	1.25108	0.74029	0.60682	0.51060	3.73096	3.08106	2.43667
14440	0.29799	0.34114	0.20396	2.22861	2.05300	1.84948	2.55602	1.69121	0.92944	1.43177	1.39414	1.26980	0.74870	0.60522	0.51083	3.72697	3.09799	2.44109
14610	0.31130	0.34764	0.20502	2.24014	2.05134	1.86515	2.56541	1.69681	0.91905	1.44877	1.38296	1.27329	0.73032	0.59989	0.48843	3.70715	3.09027	2.41926
14770	0.29200	0.33903	0.18663	2.21284	2.06161	1.83190	2.54070	1.67253	0.92591	1.40680	1.49938	1.44752	0.72178	0.59318	0.48362	3.71609	3.05837	2.42745	24.23	6.1	0.00	7.43	0.01276	0.01290	0.01680	0.00776	0.00579	0.00635	0.00468	0.01266	0.01688	0.00676	0.00693	0.00899	0.01491	0.01097	0.01198	0.00216	0.00614	0.00865
14930	0.27990	0.32557	0.20194	2.19418	2.04644	1.87068	2.53784	1.67840	0.92011	1.42317	1.38469	1.25609	0.72179	0.59406	0.49384	3.82369	3.14828	2.43342
15100	0.29560	0.33654	0.20114	2.20546	2.03404	1.85577	2.55087	1.66871	0.92325	1.42555	1.35460	1.22746	0.72298	0.59294	0.48275	3.68943	3.04776	2.39676
15260	0.28368	0.31554	0.18911	2.17418	2.03073	1.82742	2.54649	1.66667	0.91353	1.42304	1.34592	1.22036	0.72866	0.58808	0.47896	3.71456	3.04272	2.39897
15420	0.28984	0.32078	0.19586	2.19137	2.27632	2.12581	2.53102	1.68469	0.92360	1.43330	1.38985	1.24362	0.72633	0.58796	0.50119	3.70889	3.07512	2.42957
15590	0.28854	0.32697	0.21146	2.20036	2.06435	1.85447	2.55551	1.66731	0.92419	1.42360	1.36146	1.22380	0.71788	0.59428	0.49135	3.69210	3.03074	2.38782
15750	0.28948	0.32303	0.19743	2.18331	2.03701	1.83124	2.56463	1.67554	0.92284	1.40618	1.37650	1.24393	0.74262	0.59802	0.50817	3.73303	3.05106	2.42349
15910	0.29100	0.32227	0.20151	2.20600	2.03973	1.88530	2.54138	1.66633	0.92489	1.42616	1.39615	1.25483	0.73649	0.60271	0.48886	3.75291	3.08619	2.48537
16080	0.28710	0.33007	0.21043	2.18266	2.03137	1.84871	2.57639	1.69041	0.92759	1.41400	1.38224	1.23733	0.73372	0.59591	0.48306	3.72084	3.09172	2.43050
16240	0.28330	0.32605	0.18965	2.18406	2.02466	1.86404	2.53249	1.67068	0.92680	1.44375	1.35455	1.22899	0.72951	0.59977	0.49322	3.70736	3.09407	2.44984
16400	0.29471	0.33492	0.20065	2.19730	2.06031	1.82264	2.54869	1.69010	0.92277	1.41919	1.36349	1.26466	0.73128	0.60012	0.49000	3.70127	3.05714	2.43354	24.23	6.1	0.00	7.32	0.01275	0.01290	0.01680	0.00776	0.00579	0.00635	0.00468	0.01266	0.01688	0.00676	0.00693	0.00899	0.01491	0.01097	0.01198	0.00216	0.00614	0.00865
16570	0.28433	0.32271	0.19528	2.23487	2.07314	1.85311	2.54378	1.68638	0.93239	1.42128	1.37563	1.22545	0.72236	0.59575	0.49649	3.69075	3.03871	2.41465
16730	0.29648	0.34097	0.20013	2.19486	2.03391	1.81093	2.54810	1.66768	0.91575	1.42405	1.34842	1.24298	0.72016	0.58290	0.48490	3.72332	3.07110	2.41679
16890	0.30564	0.32988	0.20236	2.20184	2.05182	1.86252	2.54349	1.67677	0.92373	1.42257	1.37616	1.26870	0.73706	0.59406	0.49895	3.75265	3.14789	2.59661
17060	0.29848	0.33106	0.20700	2.23656	2.10162	1.88307	2.55159	1.70123	0.94977	1.43630	1.37854	1.27263	0.74928	0.60530	0.50429	3.76251	3.07841	2.43447
17220	0.30711	0.33429	0.19949	2.19082	2.06855	1.88162	2.57095	1.67947	0.92969	1.43294	1.40235	1.28896	0.74271	0.59979	0.52152	3.74711	3.10253	2.47133
17390	0.28719	0.33203	0.21168	2.20865	2.07812	1.88288	2.55401	1.69277	0.94174	1.47229	1.44948	1.25755	0.76171	0.61669	0.52226	3.68928	3.06844	2.41630
17550	0.30186	0.34165	0.21322	2.20149	2.07233	1.88620	2.58239	1.68495	0.93570	1.42632	1.38882	1.22195	0.75430	0.59891	0.51683	3.72556	3.09875	2.42867
17710	0.29790	0.32878	0.20469	2.17416	2.04026	1.83987	2.54653	1.67205	0.92739	1.41912	1.39549	1.25459	0.73160	0.61071	0.49135	3.71382	3.08812	2.42730
17880	0.28655	0.33381	0.20591	2.20418	2.05442	1.87169	2.57592	1.71681	0.91964	1.39243	1.35855	1.24197	0.73932	0.59522	0.49421	3.71851	3.05434	2.44331
18040	0.28063	0.33771	0.19325	2.19044	2.04732	1.86081	2.55248	1.67593	0.91571	1.41151	1.36772	1.23000	0.72884	0.58393	0.48578	3.67727	3.04916	2.40585	24.23	6.1	0.00	7.30	0.01275	0.01290	0.01680	0.00776	0.00579	0.00635	0.00468	0.01266	0.01688	0.00676	0.00693	0.00899	0.01491	0.01097	0.01198	0.00216	0.00614	0.00865
18210	0.28469	0.32762	0.18575	2.18144	2.03409	1.84009	2.53714	1.67591	0.92487	1.40328	1.38319	1.23819	0.72975	0.59403	0.48263	3.72398	3.07402	2.42568
18370	0.29163	0.31969	0.19706	2.20357	2.02657	1.84416	2.53818	1.70777	0.92527	1.41911	1.37812	1.25565	0.72961	0.60536	0.49875	3.73196	3.10370	2.45328
18530	0.29881	0.33631	0.19846	2.26711	2.08660	1.93602	2.53830	1.70221	0.92794	1.48245	1.42208	1.34479	0.74205	0.60509	0.51630	3.76350	3.12193	2.46950
18700	0.34697	0.38054	0.23606	2.19898	2.09084	1.89765	2.55502	1.71395	1.08377	1.46573	1.40357	1.26385	0.74002	0.61319	0.53034	3.74055	3.13071	2.42264
18860	0.30526	0.33045	0.19993	2.22929	2.06212	1.86903	2.54648	1.68010	0.91727	1.43123	1.37093	1.25942	0.73973	0.60198	0.50446	3.75243	3.14969	2.44751
19030	0.30075	0.34077	0.19638	2.18852	2.09598	1.85017	2.53620	1.67471	0.93043	1.42066	1.37664	1.25342	0.73779	0.62763	0.52204	3.76795	3.09982	2.45061
19190	0.29424	0.33677	0.20357	2.21621	2.09021	1.89166	2.53847	1.70005	0.93889	1.47677	1.38076	1.27269	0.75839	0.59865	0.50321	3.76049	3.14939	2.51639
19360	0.30165	0.32163	0.19562	2.23282	2.06431	1.98203	2.54994	1.70044	0.93170	1.43678	1.42958	1.21224	0.73342	0.59994	0.49960	3.72769	3.07241	2.41344
19520	0.28819	0.32927	0.20024	2.18986	2.05768	1.84377	2.53157	1.66768	0.92684	1.41765	1.38442	1.24133	0.72726	0.59163	0.49288	3.71601	3.05104	2.44632
19680	0.28379	0.32559	0.18751	2.21542	2.04941	1.83775	2.52575	1.67485	0.93457	1.41725	1.36030	1.23706	0.72462	0.61207	0.50064	3.69174	3.07823	2.43602	24.23	6.1	0.00	7.39	0.01275	0.01290	0.01680	0.00776	0.00579	0.00634	0.00468	0.01266	0.01688	0.00676	0.00693	0.00899	0.01491	0.01097	0.01198	0.00216	0.00614	0.00865
19850	0.28856	0.34516	0.21025	2.18296	2.04902	1.87385	2.59103	1.69011	0.94411	1.39973	1.37177	1.26339	0.73921	0.60206	0.49701	3.72605	3.08539	2.42480
20010	0.29931	0.35128	0.21077	2.18540	2.05048	1.88241	2.54666	1.68299	0.93456	1.42376	1.36756	1.26065	0.73995	0.59690	0.48342	3.71267	3.06229	2.43000
20170	0.28323	0.32179	0.19496	2.19293	2.03154	1.91348	2.54485	1.66925	0.91900	1.43042	1.36103	1.24535	0.72480	0.61610	0.48651	3.73715	3.07292	2.42242
20340	0.28481	0.31850	0.19508	2.17056	2.04936	1.86794	2.55816	1.67843	0.92797	1.42608	1.43333	1.24620	0.73078	0.59142	0.49349	3.78157	3.08837	2.43973
20500	0.28831	0.32476	0.19850	2.23986	2.07790	1.87295	2.56005	1.68143	0.93555	1.43205	1.38685	1.26831	0.73556	0.59536	0.49709	3.69838	3.06669	2.42692
20670	0.28909	0.34147	0.19439	2.17729	2.04477	1.84129	2.54810	1.68075	0.92900	1.41901	1.37816	1.24793	0.73950	0.60634	0.50021	3.74492	3.09611	2.43539
20830	0.28616	0.31747	0.19728	2.26324	2.09655	1.88637	2.55198	1.68154	0.94870	1.43516	1.35280	1.27445	0.73979	0.61038	0.51075	3.75780	3.11708	2.47177
20990	0.29994	0.33011	0.20422	2.24157	2.05258	1.84923	2.54615	1.68080	0.92822	1.41140	1.37818	1.24247	0.73474	0.60004	0.48750	3.69604	3.03199	2.41612
21160	0.29160	0.33296	0.20357	2.17294	2.06142	1.89136	2.55680	1.67013	0.92566	1.44033	1.35962	1.25891	0.72115	0.58413	0.48585	3.71868	3.04999	2.41386
21320	0.29149	0.33108	0.19630	2.16977	2.02487	1.84305	2.55787	1.67767	0.91570	1.40986	1.40369	1.28707	0.72679	0.60055	0.50553	3.72258	3.10355	2.47836	24.23	6.1	0.00	7.30	0.01275	0.01290	0.01680	0.00776	0.00579	0.00634	0.00468	0.01266	0.01688	0.00676	0.00693	0.00899	0.01491	0.01097	0.01198	0.00216	0.00614	0.00865
21490	0.28499	0.31596	0.19076	2.23660	2.05358	1.85657	2.53381	1.68338	0.91477	1.40822	1.36680	1.26854	0.72689	0.60562	0.48373	3.72985	3.05635	2.42334
21650	0.28479	0.32953	0.20283	2.21434	2.03819	1.87012	2.54530	1.66473	0.92528	1.40498	1.39814	1.22059	0.72148	0.59924	0.48901	3.69350	3.04939	2.41524
21810	0.29131	0.31760	0.18841	2.19651	2.03001	1.84181	2.53361	1.65990	0.92400	1.43083	1.38867	1.22719	0.72494	0.59331	0.50552	3.75065	3.08970	2.44262
21980	0.28727	0.33626	0.20901	2.16726	2.04634	1.86128	2.53322	1.68454	0.93052	1.40548	1.39084	1.26956	0.73189	0.60822	0.49624	3.75520	3.10172	2.50640
22140	0.29032	0.33354	0.18895	2.21212	2.03693	1.84045	2.54474	1.67806	0.91564	1.41704	1.44565	1.22804	0.74426	0.60640	0.50161	3.71220	3.09700	2.43893
22310	0.29141	0.32473	0.19381	2.19967	2.05943	1.86055	2.57804	1.67696	0.93295	1.38632	1.36237	1.24559	0.72998	0.59806	0.48921	3.71848	3.10250	2.40007
22470	0.28880	0.33729	0.19862	2.19618	2.06642	1.87152	2.55657	1.67933	0.93433	1.66015	1.40978	1.27759	0.72830	0.60241	0.48638	3.80715	3.04808	2.42621
22640	0.28536	0.31715	0.18583	2.18955	2.04687	1.83687	2.54007	1.67088	0.91840	1.40785	1.35847	1.24855	0.72266	0.59566	0.48840	3.69252	3.07971	2.43011
22800	0.28542	0.32081	0.18893	2.19709	2.02852	1.86259	2.54433	1.66830	0.92153	1.39442	1.35301	1.27863	0.71458	0.60002	0.48762	3.70969	3.04271	2.41979
22970	0.28013	0.32045	0.18924	2.18049	2.03019	1.87096	2.54973	1.66623	0.91340	1.41348	1.37900	1.22875	0.71854	0.60044	0.49273	3.70347	3.04855	2.40651	24.23	6.1	0.00	7.38	0.01275	0.01290	0.01679	0.00776	0.00579	0.00634	0.00468	0.01266	0.01688	0.00676	0.00693	0.00899	0.01490	0.01097	0.01198	0.00216	0.00614	0.00865
23130	0.30063	0.32781	0.20002	2.19360	2.07096	1.86495	2.54985	1.68928	0.92505	1.42410	1.39415	1.24381	0.75917	0.60582	0.48921	3.72597	3.08485	2.42822
23300	0.30681	0.35505	0.22373	2.23036	2.07027	1.84896	2.54855	1.68065	0.96033	1.42900	1.35967	1.24497	0.73114	0.60911	0.48805	3.69050	3.04389	2.42400
23460	0.29789	0.33546	0.21957	2.19487	2.02742	1.83275	2.56332	1.69330	0.92939	1.40901	1.37279	1.23112	0.76038	0.59844	0.48999	3.74452	3.08629	2.45866
23620	0.28591	0.32518	0.19099	2.28870	2.11282	1.88048	2.54093	1.66664	0.93348	1.43540	1.40222	1.23640	0.72562	0.59278	0.49819	3.72996	3.12261	2.50008
23790	0.28324	0.32280	0.19901	2.24570	2.08405	1.86666	2.56148	1.66756	0.91532	1.41411	1.39357	1.23352	0.75247	0.59842	0.48756	3.79988	3.07937	2.40324
23950	0.30486	0.33840	0.19954	2.20875	2.04544	1.86395	2.54911	1.69104	0.96624	1.40255	1.40491	1.28051	0.71682	0.58697	0.48749	3.85382	3.06203	2.41261
24120	0.30022	0.32522	0.18277	2.22637	2.05997	1.83031	2.53130	1.66430	0.91794	1.39148	1.36173	1.23729	0.71462	0.59027	0.48411	3.69470	3.05194	2.46484
24280	0.28911	0.32932	0.19953	2.18969	2.49340	1.94831	2.52850	1.66105	0.90961	1.42643	1.37646	1.27987	0.71955	0.59705	0.48491	3.74435	3.05488	2.40351
24440	0.28511	0.33624	0.20448	2.15995	2.03306	1.85968	2.54090	1.67720	0.91913	1.42333	1.37747	1.22231	0.74003	0.60129	0.50250	3.68925	3.05376	2.38790
24610	0.29516	0.32170	0.19295	2.17792	2.01177	1.81785	2.52720	1.68501	0.91956	1.38759	1.32552	1.23777	0.71935	0.58375	0.48202	3.69816	3.00834	2.37454	24.23	5.9	0.00	7.35	0.01275	0.01290	0.01679	0.00776	0.00579	0.00634	0.00468	0.01266	0.01688	0.00676	0.00693	0.00899	0.01490	0.01097	0.01198	0.00216	0.00614	0.00865
24770	0.27715	0.31014	0.19203	2.17777	2.00585	1.83120	2.54607	1.66669	0.93857	1.39276	1.33756	1.24599	0.71858	0.58708	0.47793	3.71272	3.07082	2.45004
24930	0.27806	0.32090	0.19175	2.18502	2.06081	1.84074	2.52664	1.65961	0.90732	1.40690	1.36766	1.24609	0.72157	0.59187	0.49098	3.67959	3.03148	2.43377
25100	0.28360	0.31545	0.18806	2.16472	2.01422	1.84059	2.52779	1.67416	0.92571	1.39020	1.37908	1.23643	0.72105	0.58735	0.48875	3.77376	3.04358	2.42116
25260	0.27775	0.31997	0.19438	2.19060	2.01727	1.84661	2.53183	1.66937	0.92397	1.40229	1.35818	1.21377	0.73604	0.60660	0.48958	3.72320	3.07263	2.41063
25430	0.29476	0.33420	0.19741	2.16115	2.03289	1.83661	2.52345	1.67086	0.91811	1.41778	1.34930	1.20948	0.73730	0.60201	0.49094	3.72533	3.06040	2.45125
25590	0.27931	0.32019	0.19212	2.18052	2.02693	1.82722	2.54131	1.66911	0.92477	1.41792	1.35125	1.22531	0.73731	0.61203	0.50315	3.73600	3.04952	2.41144
25750	0.29212	0.33673	0.20526	2.18860	2.02395	1.83565	2.53552	1.69302	0.93296	1.42411	1.35352	1.21316	0.73755	0.60502	0.49312	3.68661	3.05545	2.41005
25920	0.30706	0.33124	0.19794	2.17192	2.04885	1.87191	2.54618	1.68952	0.94938	1.39760	1.37021	1.22224	0.74365	0.60405	0.49171	3.71938	3.06095	2.45233
26080	0.30087	0.33298	0.21267	2.27436	2.06408	2.09256	2.55115	1.67794	0.93769	1.45414	1.40778	1.25414	0.74332	0.59941	0.49124	3.77200	3.08053	2.43183
26250	0.30613	0.33682	0.19399	2.20943	2.07650	1.85001	2.54516	1.67814	0.93064	1.41672	1.36238	1.24098	0.73438	0.58794	0.48670	3.72831	3.05523	2.40369	24.23	6.1	0.00	7.34	0.01275	0.01290	0.01679	0.00776	0.00579	0.00634	0.00468	0.01266	0.01688	0.00676	0.00693	0.00899	0.01490	0.01097	0.01198	0.00216	0.00614	0.00865
26410	0.28593	0.32825	0.19401	2.16821	2.02094	1.82621	2.53042	1.67414	0.92159	1.38893	1.35646	1.24962	0.72263	0.59576	0.49012	3.71246	3.02117	2.52253
26570	0.29204	0.33050	0.19818	2.21200	2.04042	1.82401	2.55557	1.69297	0.92811	1.42633	1.37933	1.24656	0.73997	0.59570	0.49427	3.72683	3.06050	2.43093
26740	0.30866	0.32682	0.21153	2.20236	2.05004	1.83908	2.56004	1.67844	0.93800	1.40178	1.35245	1.23171	0.73486	0.60640	0.48037	3.70798	3.04076	2.42039
26900	0.28364	0.32545	0.19394	2.19032	2.05713	1.87949	2.55347	1.68839	0.92087	1.44942	1.37445	1.24733	0.72896	0.59709	0.48966	3.74922	3.09746	2.42932
27070	0.29623	0.32954	0.21898	2.24655	2.03384	1.86931	2.59070	1.68868	0.94555	1.42537	1.37895	1.26528	0.74239	0.60108	0.51346	3.75037	3.08913	2.44195
27230	0.30975	0.32971	0.20476	2.19715	2.07341	1.90464	2.55874	1.69091	0.94182	1.45152	1.41457	1.28223	0.74302	0.59958	0.50364	3.80208	3.11651	2.46002
27390	0.31511	0.33921	0.21158	2.38743	2.11401	1.89254	2.56398	1.71135	0.93900	1.45068	1.37991	1.26878	0.76532	0.63046	0.51321	3.72366	3.11273	2.44477
27560	0.29227	0.32672	0.20662	2.21787	2.05518	1.86002	2.56436	1.70814	0.92844	1.42065	1.35635	1.23882	0.74614	0.62193	0.50435	3.72743	3.06256	2.44455
27720	0.29950	0.33137	0.19828	2.19279	2.04341	1.85059	2.53193	1.67410	0.94126	1.41679	1.35743	1.23924	0.73342	0.59607	0.49105	3.69473	3.04960	2.42016
27890	0.29411	0.32924	0.19795	2.19269	2.04228	1.85438	2.54763	1.69182	0.91934	1.40104	1.34908	1.24457	0.72719	0.59300	0.50158	3.72893	3.07566	2.41786	24.30	6.0	0.00	7.37	0.01275	0.01290	0.01679	0.00776	0.00579	0.00634	0.00468	0.01265	0.01688	0.00676	0.00693	0.00899	0.01490	0.01097	0.01198	0.00216	0.00614	0.00864
28050	0.29071	0.31630	0.19851	2.18985	2.04270	1.83877	2.55011	1.67541	0.92632	1.40458	1.36314	1.23155	0.73001	0.59295	0.48563	3.71472	3.05835	2.42857
28210	0.30801	0.31890	0.19236	2.35433	2.07273	1.87915	2.54408	1.68803	0.93205	1.46203	1.40431	1.25062	0.74116	0.59049	0.49791	3.71701	3.09727	2.41953
28380	0.29615	0.32543	0.20679	2.23440	2.02829	1.83841	2.54450	1.66909	0.91969	1.39123	1.35673	1.23310	0.71777	0.59070	0.49331	3.71264	3.06098	2.41340
28540	0.29165	0.31946	0.19179	2.21223	2.07424	1.87327	2.54530	1.66771	0.92073	1.42035	1.36683	1.24759	0.73292	0.60451	0.50550	3.72351	3.05794	2.42412
28710	0.29016	0.32148	0.19419	2.24175	2.03770	1.88036	2.53690	1.68383	0.91729	1.43804	1.37151	1.25711	0.74094	0.60470	0.49672	3.70009	3.07523	2.43273
28870	0.29451	0.32791	0.20387	2.20582	2.04989	1.84590	2.53803	1.66663	0.92847	1.40908	1.37022	1.27236	0.74159	0.60227	0.49364	3.73500	3.06406	2.43230
29040	0.29062	0.32326	0.20655	2.20702	2.06345	1.88018	2.56699	1.67650	0.94159	1.42350	1.38844	1.27499	0.73739	0.60399	0.49774	3.70446	3.05722	2.42157
29200	0.29117	0.32446	0.19903	2.20029	2.06001	1.83824	2.53608	1.66891	0.91969	1.42243	1.38738	1.26757	0.75083	0.59380	0.49959	3.70457	3.05832	2.41229
29360	0.29096	0.32389	0.20970	2.20764	2.03113	1.85898	2.55461	1.68226	0.91528	1.40798	1.38280	1.25685	0.74064	0.59732	0.49984	3.75335	3.08636	2.42725
29530	0.29181	0.32277	0.19383	2.25877	2.08815	1.85686	2.54689	1.67952	0.91829	1.42506	1.38293	1.26076	0.73678	0.61308	0.50019	3.75160	3.06346	2.44152	24.23	6.1	0.00	7.41	0.01275	0.01290	0.01679	0.00776	0.00579	0.00634	0.00468	0.01265	0.01687	0.00676	0.00693	0.00899	0.01490	0.01097	0.01198	0.00216	0.00614	0.00864
29690	0.30672	0.33665	0.21291	2.18787	2.06181	1.85486	2.54270	1.67259	0.92581	1.41081	1.37375	1.23167	0.73292	0.59534	0.49215	3.73161	3.07035	2.45929
29860	0.29904	0.32935	0.21648	2.19440	2.05101	1.85343	2.55402	1.67701	0.93120	1.43818	1.36012	1.26292	0.73450	0.59609	0.49404	3.70647	3.08803	2.44838
30020	0.29074	0.33981	0.20938	2.19563	2.03677	1.85415	2.54086	1.68378	0.93116	1.42920	1.37023	1.27628	0.73041	0.59631	0.48922	3.71155	3.06325	2.43628
30190	0.28881	0.32815	0.20057	2.18336	2.05279	1.85750	2.54211	1.67844	0.92397	1.42934	1.38711	1.26536	0.73401	0.59037	0.51602	3.73177	3.08940	2.45813
30350	0.29685	0.36394	0.21585	2.22672	2.09691	1.87755	2.56285	1.67370	0.93716	1.42934	1.40515	1.29263	0.73345	0.60552	0.50834	3.75517	3.12525	2.45052
30520	0.29360	0.35862	0.22340	2.21178	2.12131	1.90098	2.55651	1.69737	0.94024	1.45478	1.38797	1.26579	0.72697	0.60042	0.49263	3.73916	3.09307	2.44817
30680	0.29198	0.33225	0.21375	2.24211	2.08879	1.89037	2.54048	1.68370	0.93239	1.45921	1.38147	1.27275	0.72849	0.59524	0.50166	3.74388	3.10236	2.44624
30840	0.29543	0.32547	0.20718	2.20383	2.07099	1.86759	2.55938	1.68366	0.94158	1.47759	1.41965	1.29863	0.75076	0.61454	0.50469	3.77043	3.11013	2.43302
31010	0.29976	0.33899	0.21794	2.20646	2.05211	1.85042	2.55417	1.68447	0.93150	1.45427	1.40679	1.24855	0.74033	0.60747	0.50058	3.74804	3.13300	2.45274
31170	0.29365	0.34250	0.21103	2.20894	2.09885	1.88786	2.55584	1.68489	0.92336	1.42298	1.39176	1.27234	0.74392	0.59497	0.48614	3.73443	3.09430	2.51496	24.30	6.0	0.00	7.31	0.01275	0.01290	0.01679	0.00776	0.00579	0.00634	0.00468	0.01265	0.01687	0.00676	0.00693	0.00898	0.01490	0.01097	0.01197	0.00216	0.00614	0.00864
31340	0.29201	0.33204	0.20769	2.17970	2.06332	1.83913	2.55258	1.68018	0.91764	1.42099	1.35148	1.24094	0.73562	0.60181	0.49377	3.68660	3.04903	2.42064
31500	0.29179	0.35163	0.19672	2.18731	2.03845	1.87326	2.54628	1.68422	0.90912	1.41451	1.37605	1.23265	0.73269	0.59231	0.49522	3.71802	3.06522	2.41857
31670	0.28609	0.32890	0.20117	2.28353	2.04617	1.84274	2.53473	1.68227	0.92787	1.40820	1.35647	1.23485	0.72879	0.60018	0.49038	3.71125	3.08045	2.43977
31830	0.28441	0.32299	0.19151	2.20899	2.03362	1.86035	2.54590	1.67642	0.91371	1.38221	1.34692	1.23646	0.72746	0.59149	0.48239	3.72611	3.07663	2.42869
31990	0.28786	0.31675	0.20159	2.23499	2.08797	1.87180	2.55542	1.68670	0.92922	1.42399	1.38967	1.23015	0.73152	0.60841	0.49954	3.68927	3.06233	2.45693
32160	0.28928	0.33631	0.20249	2.23672	2.08373	1.83840	2.54687	1.68985	0.92088	1.43693	1.38440	1.27486	0.73106	0.59722	0.49331	3.82941	3.10586	2.43582
32320	0.29776	0.32813	0.20048	2.29047	2.12055	1.91209	2.54690	1.68993	0.93456	1.44576	1.37047	1.23143	0.74007	0.60583	0.50077	3.76288	3.11321	2.43827
32490	0.29480	0.33204	0.19948	2.23426	2.04750	1.84642	2.53798	1.67944	0.92784	1.41083	1.37285	1.23244	0.72893	0.58897	0.49378	3.71698	3.07252	2.42050
32650	0.30209	0.32094	0.20142	2.21324	2.03176	1.85848	2.54912	1.68461	0.92173	1.42811	1.35138	1.22664	0.74573	0.59633	0.48506	3.72360	3.06086	2.41092
32810	0.28710	0.31789	0.19853	2.21933	2.05222	1.84754	2.54857	1.67483	0.92077	1.38929	1.35899	1.25274	0.72326	0.60488	0.49360	3.73580	3.11146	2.43999	24.23	6.0	0.00	7.31	0.01275	0.01290	0.01679	0.00776	0.00579	0.00634	0.00468	0.01265	0.01687	0.00676	0.00693	0.00898	0.01490	0.01097	0.01197	0.00216	0.00614	0.00864
32980	0.29032	0.33548	0.20293	2.23514	2.05016	1.86608	2.54420	1.68945	0.93082	1.44189	1.38376	1.25170	0.74968	0.58626	0.50678	3.73054	3.05617	2.41433
33140	0.29532	0.32604	0.21084	2.23191	2.04348	1.86256	2.53060	1.67080	0.92734	1.40616	1.38117	1.23484	0.72175	0.59232	0.49338	3.68007	3.04219	2.40352
33310	0.29770	0.33282	0.20262	2.18369	2.01776	1.83167	2.55360	1.67149	0.92539	1.42314	1.36882	1.27055	0.72368	0.59213	0.48921	3.68786	3.03539	2.39127
33470	0.29322	0.32997	0.20595	2.18839	2.02009	1.84067	2.54026	1.67163	0.91190	1.43417	1.35684	1.22632	0.72085	0.58230	0.47829	3.66925	3.04490	2.40927
33630	0.28098	0.32935	0.18900	2.16120	2.01204	1.82612	2.54118	1.67059	0.91526	1.38678	1.34323	1.23239	0.74979	0.60916	0.49005	3.69254	3.09088	2.42869
33800	0.29496	0.33193	0.19455	2.18084	2.02115	1.87897	2.53102	1.67132	0.91636	1.37842	1.34846	1.21685	0.72631	0.59665	0.48964	3.70956	3.05007	2.41645
33960	0.28171	0.32383	0.19444	2.20629	2.05885	1.86921	2.54496	1.67248	0.94282	1.52902	1.40073	1.22793	0.71950	0.58832	0.48679	3.68084	3.08256	2.45949
34120	0.29853	0.32541	0.19549	2.18716	2.03326	1.85358	2.55739	1.68643	0.92717	1.41638	1.38159	1.25052	0.73372	0.61308	0.50026	3.71934	3.07001	2.45075
34290	0.29940	0.33909	0.21317	2.16554	2.04195	1.82581	2.55511	1.68487	0.93953	1.39932	1.36904	1.22251	0.73164	0.59856	0.48715	3.69914	3.02796	2.39183
34450	0.29059	0.32429	0.19446	2.20382	2.05695	1.86563	2.55300	1.69435	0.92860	1.38805	1.36853	1.23351	0.73236	0.58600	0.49381	3.68963	3.05581	2.39770	24.30	6.2	0.00	7.35	0.01275	0.01290	0.01679	0.00776	0.00579	0.00634	0.00468	0.01265	0.01687	0.00676	0.00693	0.00898	0.01490	0.01097	0.01197	0.00216	0.00614	0.00864
34610	0.28824	0.32084	0.19631	2.17421	2.07443	1.84683	2.54205	1.67273	0.92715	1.44151	1.34849	1.24736	0.72887	0.58041	0.48830	3.69110	3.06773	2.39177
34780	0.29209	0.31978	0.20362	2.18946	2.06053	1.85615	2.54539	1.67619	0.92890	1.42198	1.39198	1.22403	0.72743	0.59202	0.49540	3.70637	3.06805	2.44190
34940	0.28834	0.32438	0.19481	2.17937	2.03039	1.85955	2.53718	1.69198	0.92407	1.38753	1.36032	1.25304	0.73490	0.58205	0.48684	3.72576	3.07867	2.42679
35100	0.29051	0.34001	0.21623	2.21078	2.07524	1.90361	2.53741	1.67654	0.92158	1.43452	1.38595	1.24756	0.72970	0.58493	0.49449	3.74398	3.07738	2.43614
35270	0.29075	0.32670	0.20142	2.20725	2.04553	1.83622	2.54637	1.67952	0.92069	1.39335	1.37936	1.24866	0.73284	0.59560	0.49913	3.80634	3.06871	2.43820
35430	0.29575	0.33460	0.19677	2.20732	2.07168	1.94888	2.55750	1.68040	0.92227	1.40249	1.36858	1.24051	0.73764	0.59246	0.50484	3.73511	3.09395	2.45255
35590	0.28412	0.35576	0.19763	2.25716	2.08890	1.86573	2.55581	1.67365	0.92153	1.41919	1.35768	1.23993	0.73222	0.59286	0.48719	3.70904	3.13095	2.48015
35760	0.28686	0.37174	0.21872	2.26671	2.10557	1.91126	2.56054	1.70846	0.94775	1.46225	1.42509	1.30700	0.77924	0.62088	0.50394	3.80254	3.22215	2.94986
35920	0.30796	0.34133	0.21060	2.33373	2.26858	1.95511	2.57563	1.71484	0.96722	1.45067	1.37383	1.23657	0.73278	0.61801	0.49965	3.73166	3.13340	2.47412
36080	0.30927	0.32730	0.20133	2.18838	2.04437	1.82905	2.56133	1.68193	0.93589	1.43821	1.40283	1.26783	0.73476	0.60269	0.48811	3.73005	3.07814	2.44162	24.30	6.1	0.00	7.35	0.01275	0.01290	0.01679	0.00776	0.00579	0.00634	0.00468	0.01265	0.01687	0.00676	0.00693	0.00898	0.01490	0.01097	0.01197	0.00216	0.00614	0.00864
36250	0.29260	0.35156	0.19314	2.18335	2.04581	1.85977	2.54639	1.68963	0.93158	1.41505	1.38466	1.27876	0.76315	0.60415	0.51325	3.77002	3.07927	2.40902
36410	0.31406	0.33271	0.21177	2.25207	2.07455	1.86115	2.55645	1.68623	0.93521	1.47261	1.40146	1.29860	0.73155	0.61571	0.50048	3.77254	3.09927	2.45742
36570	0.29423	0.32835	0.20946	2.22754	2.06687	1.89557	2.53844	1.70319	0.93074	1.40803	1.38447	1.26589	0.74630	0.60100	0.50738	3.70808	3.07503	2.43380
36740	0.29149	0.33541	0.19971	2.18930	2.06247	1.85301	2.55858	1.68757	0.94873	1.43603	1.36650	1.24745	0.73124	0.59292	0.49138	3.71425	3.08484	2.43258
36900	0.29895	0.33268	0.19960	2.18492	2.04446	1.86934	2.52553	1.68285	0.94380	1.41773	1.39594	1.26842	0.74112	0.60562	0.48652	3.71747	3.09592	2.40434
37060	0.29833	0.33514	0.20691	2.20920	2.05218	1.84424	2.55615	1.69194	0.93755	1.43195	1.38987	1.24717	0.72931	0.62424	0.49927	3.69907	3.09190	2.43820
37230	0.30681	0.33332	0.19852	2.20263	2.08139	1.85072	2.54943	1.66936	0.92248	1.39676	1.38201	1.22991	0.74205	0.61283	0.49444	3.72245	3.04772	2.41282
37390	0.29240	0.34492	0.20833	2.20661	2.05685	1.84656	2.56006	1.66370	0.92840	1.42032	1.38991	1.27297	0.73536	0.59206	0.49444	3.74319	3.11107	2.44759
37550	0.29294	0.33301	0.20904	2.21452	2.06512	1.87856	2.54157	1.68050	0.92322	1.42996	1.40138	1.26287	0.74026	0.59899	0.48926	3.71829	3.04675	2.42300
37720	0.28464	0.31570	0.19562	2.21927	2.05334	1.85590	2.52981	1.67447	0.91033	1.43192	1.39524	1.24807	0.72668	0.59385	0.48668	3.73887	3.04224	2.40096	24.30	6.0	0.00	7.45	0.01275	0.01290	0.01678	0.00776	0.00579	0.00634	0.00468	0.01265	0.01687	0.00676	0.00693	0.00898	0.01490	0.01097	0.01197	0.00216	0.00614	0.00864
37880	0.28863	0.33156	0.19941	2.20522	2.03138	1.91067	2.53438	1.68454	0.90764	1.42749	1.36655	1.24898	0.72887	0.59180	0.49956	3.73421	3.09377	2.44127
38050	0.28937	0.32512	0.19899	2.20449	2.05390	1.85835	2.54633	1.68632	0.94031	1.43234	1.37977	1.21928	0.73415	0.61408	0.49128	3.73350	3.04917	2.41667
38210	0.29323	0.33842	0.20972	2.22304	2.10372	1.88737	2.54781	1.73203	0.93137	1.43447	1.36425	1.23958	0.73826	0.61104	0.49449	3.71131	3.05766	2.45698
38370	0.28755	0.32385	0.19864	2.19183	2.03130	1.84378	2.55725	1.67269	0.91222	1.43795	1.36212	1.25650	0.72747	0.58825	0.48875	3.72081	3.04780	2.41385
38540	0.28558	0.33658	0.20556	2.17739	2.02387	1.82688	2.56439	1.67847	0.91952	1.43792	1.37660	1.25890	0.74010	0.58787	0.49259	3.69129	3.03252	2.39015
38700	0.29901	0.33617	0.19967	2.18402	2.03988	1.84039	2.54284	1.67573	0.92829	1.42715	1.39035	1.25730	0.72619	0.60135	0.50569	3.73011	3.07428	2.41084
38870	0.29585	0.33694	0.20770	2.23145	2.05316	1.85115	2.55310	1.68874	0.92396	1.40858	1.37102	1.24744	0.72650	0.60026	0.48222	3.69766	3.06306	2.40870
39030	0.29489	0.34324	0.20625	2.18641	2.06984	1.87704	2.54831	1.68375	0.93663	1.40902	1.39527	1.27645	0.73854	0.60345	0.50447	3.78954	3.08126	2.43436
39200	0.30194	0.32433	0.19472	2.17589	2.07282	1.87018	2.54831	1.67867	0.94108	1.45644	1.38500	1.26470	0.74482	0.61758	0.52237	3.74582	3.08370	2.45895
39360	0.30876	0.34090	0.20821	2.23593	2.08291	1.89934	2.56499	1.70797	0.96152	1.45912	1.40010	1.28845	0.73677	0.59737	0.51981	3.75517	3.06649	2.44227	24.30	6.2	0.00	7.44	0.01275	0.01290	0.01678	0.00776	0.00579	0.00634	0.00468	0.01265	0.01687	0.00676	0.00693	0.00898	0.01490	0.01097	0.01197	0.00216	0.00614	0.00864
39520	0.29220	0.34169	0.21542	2.22438	2.07775	1.86527	2.55551	1.70519	0.94049	1.44553	1.39929	1.25425	0.73443	0.59905	0.49784	3.71672	3.05086	2.41530
39690	0.30253	0.33867	0.20296	2.21303	2.06542	1.84743	2.53753	1.66810	0.92560	1.46140	1.38674	1.29060	0.72644	0.58682	0.49122	3.77395	3.07418	2.43429
39850	0.28667	0.32321	0.18677	2.19482	2.06659	1.87565	2.52607	1.66380	0.91383	1.40180	1.38299	1.26426	0.72197	0.59407	0.49364	3.70951	3.06026	2.43456
40020	0.28112	0.32407	0.20342	2.21081	2.06796	1.86490	2.53327	1.66682	0.92968	1.39059	1.35558	1.25147	0.72792	0.58764	0.48237	3.71224	3.08910	2.43714
40180	0.28081	0.32175	0.19997	2.20345	2.03430	1.85460	2.53490	1.67759	0.92522	1.41973	1.36279	1.25253	0.73705	0.60596	0.49297	3.74048	3.08403	2.41484
40350	0.29055	0.32529	0.19535	2.20483	2.04482	1.86429	2.52539	1.66485	0.92756	1.42220	1.35562	1.23423	0.73596	0.60372	0.49621	3.72323	3.08089	2.41979
40510	0.29160	0.33436	0.19822	2.20131	2.03770	1.86858	2.55178	1.68106	0.93429	1.42588	1.43705	1.26818	0.73319	0.60717	0.49633	3.71760	3.08103	2.55804
40680	0.30363	0.33488	0.20229	2.29029	2.19296	1.99324	2.57760	1.67951	1.09240	1.45219	1.36317	1.25895	0.75046	0.60681	0.50268	3.69788	3.13814	2.52261
40840	0.31623	0.34086	0.20916	2.24448	2.04959	1.90550	2.55184	1.70099	0.92742	1.49097	1.43568	1.29083	0.75239	0.60847	0.52388	3.76978	3.24146	2.57726
41000	0.33554	0.36570	0.21857	2.26881	2.07529	1.89211	2.56437	1.71561	0.94061	1.47476	1.41680	1.29522	0.77285	0.63431	0.52505	3.77257	3.12617	2.49294	24.36	6.2	0.00	7.29	0.01275	0.01290	0.01678	0.00776	0.00579	0.00634	0.00468	0.01265	0.01687	0.00676	0.00693	0.00898	0.01490	0.01097	0.01197	0.00216	0.00614	0.00864
41170	0.32293	0.35864	0.21694	2.22844	2.08649	1.88834	2.54075	1.67357	0.92957	1.42004	1.37917	1.25282	0.73900	0.59781	0.49185	3.71957	3.07369	2.45516
41330	0.29917	0.34553	0.20883	2.18671	2.08710	1.87944	2.56182	1.67279	0.95078	1.43098	1.38061	1.27930	0.75947	0.61648	0.49967	3.76856	3.06545	2.43114
41490	0.30000	0.34275	0.21215	2.22681	2.04012	1.84334	2.54951	1.68145	0.93224	1.42610	1.36736	1.25740	0.73049	0.59111	0.49525	3.74239	3.08650	2.48630
41660	0.30197	0.32670	0.20529	2.20801	2.03906	1.89526	2.54897	1.67806	0.93000	1.43118	1.38376	1.26007	0.72211	0.60041	0.49956	3.72969	3.10366	2.43248
41820	0.29774	0.33733	0.21310	2.17961	2.08732	1.86266	2.55359	1.67753	0.92521	1.44614	1.43820	1.27449	0.73298	0.58953	0.49587	3.73084	3.09298	2.44666
41980	0.31760	0.34694	0.20367	2.21016	2.05796	1.85647	2.53189	1.68414	0.91868	1.41249	1.36913	1.25379	0.72708	0.60228	0.48982	3.70827	3.05910	2.42970
42150	0.28637	0.32136	0.18844	2.16998	2.02320	1.84499	2.52699	1.67863	0.91190	1.38538	1.34533	1.23406	0.72913	0.60129	0.48246	3.69000	3.05359	2.42893
42310	0.28774	0.33771	0.20004	2.19019	2.03041	1.84897	2.53910	1.67333	0.91814	1.38388	1.34619	1.21581	0.72152	0.58286	0.48283	3.68003	3.02228	2.40695
42470	0.27896	0.31375	0.19059	2.18679	2.02146	1.84651	2.53469	1.66190	0.91985	1.40071	1.38690	1.23931	0.74005	0.60172	0.50130	3.70243	3.07060	2.40088
42640	0.29624	0.33271	0.20794	2.19029	2.08957	1.84694	2.53891	1.68477	0.91880	1.40114	1.35814	1.26154	0.72619	0.60526	0.51286	3.70344	3.08732	2.41982	24.30	6.1	0.00	6.52	0.01275	0.01290	0.01679	0.00776	0.00579	0.00634	0.00468	0.01265	0.01687	0.00676	0.00693	0.00898	0.01490	0.01097	0.01198	0.00216	0.00614	0.00865
42800	0.28552	0.33287	0.18988	2.24302	2.09770	1.87699	2.53755	1.68144	0.92423	1.40540	1.36540	1.23374	0.74134	0.59968	0.50502	3.68665	3.07973	2.41203
42960	0.29216	0.32525	0.19283	2.17338	2.02894	1.84041	2.54069	1.67978	0.93297	1.41022	1.35389	1.24715	0.73898	0.59466	0.50215	3.69444	3.07854	2.41344
43130	0.30355	0.33291	0.20560	2.21045	2.04597	1.85519	2.54663	1.67508	0.91874	1.40917	1.41752	1.27284	0.72917	0.59365	0.47959	3.73682	3.10293	2.43395
43290	0.28401	0.32964	0.18833	2.18133	2.04991	1.84421	2.54296	1.68470	0.93621	1.44239	1.38860	1.22832	0.72894	0.60188	0.50448	3.72129	3.05714	2.39202
43450	0.29011	0.31814	0.18744	2.18395	2.03978	1.84380	2.52884	1.67115	0.95706	1.41205	1.35648	1.23020	0.72287	0.59075	0.51024	3.72555	3.08775	2.43008
43620	0.28657	0.32654	0.19252	2.19443	2.02753	1.84816	2.53215	1.67572	0.92421	1.40618	1.37615	1.26840	0.74639	0.59405	0.50779	3.74470	3.08714	2.46611
43780	0.29142	0.33419	0.19300	2.19034	2.07998	1.89305	2.53785	1.65851	0.91071	1.46014	1.38472	1.24821	0.73759	0.59206	0.48174	3.68791	3.05765	2.41356
43950	0.29423	0.32253	0.20485	2.21295	2.03545	1.82931	2.54003	1.67933	0.94645	1.40799	1.40650	1.25494	0.73231	0.63140	0.53135	3.71643	3.08439	2.43277
44110	0.30253	0.33202	0.20757	2.20508	2.04572	1.87187	2.54763	1.68795	0.95934	1.42517	1.37451	1.21878	0.74301	0.59760	0.50113	3.73217	3.06549	2.41684
44270	0.29826	0.32617	0.18804	2.17428	2.02843	1.84210	2.57455	1.69734	0.91234	1.40468	1.33866	1.24822	0.74177	0.59587	0.49645	3.70460	3.07330	2.41805	24.36	6.1	0.00	7.29	0.01275	0.01290	0.01679	0.00776	0.00579	0.00634	0.00468	0.01265	0.01687	0.00676	0.00693	0.00898	0.01490	0.01097	0.01198	0.00216	0.00614	0.00865
44440	0.29334	0.32340	0.20020	2.18243	2.06645	1.84871	2.53880	1.66866	0.91851	1.39945	1.37202	1.25943	0.72379	0.59112	0.49478	3.74224	3.09461	2.41849
44600	0.28738	0.31883	0.19360	2.20267	2.06347	1.84275	2.53641	1.67313	0.92765	1.51416	1.41207	1.26583	0.72796	0.58986	0.48901	3.74930	3.11543	2.42151
44770	0.29502	0.34369	0.20367	2.16175	2.04062	1.87264	2.54022	1.68216	0.91572	1.40018	1.38548	1.25288	0.72347	0.59300	0.48239	3.76097	3.08278	2.41476
44930	0.29689	0.32448	0.18927	2.16900	2.02816	1.85880	2.54409	1.66565	0.92385	1.40558	1.35523	1.23520	0.72355	0.59695	0.50170	3.73152	3.08248	2.41999
45100	0.27782	0.32050	0.19662	2.20477	2.02423	1.86414	2.56086	1.72574	0.91676	1.41554	1.36343	1.25817	0.74343	0.59119	0.49354	3.67803	3.05179	2.40158
45260	0.28440	0.32804	0.19538	2.22529	2.03482	1.85217	2.53579	1.66811	0.91204	1.42463	1.39495	1.26515	0.71928	0.59164	0.47720	3.70902	3.06287	2.44460
45430	0.28891	0.32868	0.19637	2.18954	2.03095	1.85107	2.52602	1.67071	0.91270	1.42321	1.39366	1.27283	0.74143	0.63517	0.52160	3.76876	3.09256	2.46564
45590	0.30181	0.33439	0.19607	2.25932	2.04483	1.85316	2.55959	1.68393	0.92894	1.42256	1.37377	1.27367	0.73455	0.60815	0.49564	3.71082	3.09023	2.47639
45760	0.28786	0.34420	0.22756	2.22274	2.08550	1.86180	2.55722	1.68286	0.93113	1.45383	1.38933	1.28362	0.75101	0.61748	0.51740	3.78392	3.18924	2.48001
45920	0.29975	0.33253	0.20111	2.18680	2.09103	1.85770	2.55175	1.68507	0.93913	1.48705	1.42196	1.24834	0.76175	0.59726	0.50781	3.73236	3.11006	2.44591	24.36	6.0	0.00	7.38	0.01275	0.01290	0.01679	0.00776	0.00579	0.00634	0.00468	0.01265	0.01688	0.00676	0.00693	0.00898	0.01490	0.01097	0.01198	0.00216	0.00614	0.00865
46090	0.30175	0.34275	0.22769	2.23925	2.06039	1.86873	2.56783	1.67444	0.93292	1.43104	1.38194	1.28281	0.75155	0.61146	0.50291	3.71968	3.12397	2.45973
46250	0.29520	0.33016	0.19338	2.22342	2.04508	1.85354	2.54244	1.67546	0.93627	1.41836	1.38813	1.24038	0.73532	0.60714	0.49593	3.71788	3.06061	2.41372
46410	0.29391	0.35168	0.22038	2.19794	2.05781	1.86385	2.53597	1.68073	0.94791	1.45238	1.41762	1.23334	0.74817	0.60788	0.49834	3.73148	3.10580	2.46417
46580	0.29914	0.34011	0.20545	2.22194	2.08600	1.90648	2.54605	1.70449	0.93629	1.42615	1.38746	1.25608	0.74287	0.61462	0.49756	3.73761	3.07535	2.41908
46740	0.28768	0.34121	0.21161	2.20355	2.04567	1.85216	2.53807	1.67195	0.93338	1.42801	1.37009	1.22861	0.73694	0.60227	0.49954	3.77888	3.05697	2.41709
46910	0.28785	0.35413	0.19957	2.18522	2.04003	1.86210	2.55483	1.69045	0.91786	1.41340	1.34915	1.26027	0.73423	0.60671	0.49865	3.73958	3.08562	2.42831
47070	0.28563	0.31911	0.19396	2.18862	2.01272	1.84991	2.54557	1.67917	0.95225	1.37890	1.36721	1.26776	0.72707	0.59976	0.48898	3.70196	3.06978	2.40832
47240	0.27958	0.31239	0.18826	2.16806	2.01787	1.80167	2.53807	1.65963	0.90871	1.39287	1.37477	1.23209	0.73250	0.58538	0.48294	3.69820	3.06261	2.42225
47400	0.30349	0.33735	0.20888	2.15971	2.01648	1.85173	2.53228	1.69069	0.92820	1.40735	1.36047	1.22614	0.71913	0.59118	0.47805	3.73712	3.06799	2.52531
47570	0.28213	0.32286	0.20799	2.22270	2.05776	1.88776	2.53222	1.66745	0.93696	1.47688	1.39199	1.24100	0.71978	0.59514	0.49086	3.73425	3.06340	2.51615	24.36	6.2	0.00	7.28	0.01275	0.01290	0.01679	0.00776	0.00579	0.00634	0.00468	0.01266	0.01688	0.00676	0.00693	0.00898	0.01490	0.01097	0.01198	0.00216	0.00614	0.00865
47730	0.28770	0.33448	0.20374	2.18210	2.07427	1.84270	2.54616	1.65953	0.91836	1.42964	1.36441	1.31821	0.91814	0.59978	0.50518	3.77530	3.10450	2.50918
47890	0.29173	0.33900	0.20496	2.22708	2.10233	1.87058	2.56169	1.67817	0.92633	1.44674	1.45830	1.25917	0.73569	0.59866	0.48378	3.73299	3.06587	2.42500
48060	0.28979	0.33533	0.20133	2.18069	2.05081	1.87688	2.54548	1.66592	0.91100	1.44747	1.38334	1.28978	0.72545	0.59748	0.48938	3.73343	3.13421	2.44487
48220	0.28596	0.32471	0.19603	2.19604	2.03135	1.86111	2.55340	1.67623	0.92731	1.42630	1.44569	1.26240	0.73812	0.60740	0.51007	3.76421	3.08777	2.47308
48380	0.29572	0.34234	0.19981	2.18183	2.03306	1.84369	2.55317	1.67299	0.92955	1.40268	1.36554	1.23910	0.73367	0.60339	0.50026	3.69195	3.05532	2.44192
48550	0.29018	0.33467	0.19706	2.18411	2.08190	1.86777	2.54164	1.66919	0.92355	1.48470	1.40472	1.33922	0.73240	0.59195	0.48445	3.72070	3.12354	2.45962
48710	0.28845	0.33748	0.20813	2.20805	2.06616	1.83930	2.55006	1.71397	0.93463	1.44341	1.44487	1.28898	0.73694	0.60912	0.49158	3.78782	3.07751	2.44753
48880	0.29958	0.32878	0.19887	2.24216	2.09088	1.86875	2.54108	1.66483	0.92423	1.43086	1.40540	1.24100	0.72238	0.60422	0.48883	3.74278	3.13005	2.48167
49040	0.31572	0.34114	0.20536	2.28879	2.12252	1.94298	2.54826	1.69553	0.92970	1.41270	1.36854	1.23913	0.74397	0.61521	0.51630	3.72703	3.10328	2.44764
49210	0.30817	0.34226	0.20182	2.22206	2.10283	1.88721	2.57163	1.69581	0.93468	1.43199	1.37768	1.24071	0.73928	0.63109	0.50202	3.69414	3.06639	2.42919	24.36	6.3	0.00	7.32	0.01275	0.01290	0.01679	0.00776	0.00579	0.00634	0.00468	0.01266	0.01688	0.00676	0.00693	0.00898	0.01490	0.01097	0.01198	0.00216	0.00614	0.00865
49370	0.29043	0.33763	0.19999	2.20612	2.04963	1.84972	2.53492	1.68187	0.92536	1.43955	1.37545	1.23076	0.72138	0.59724	0.49185	3.71449	3.09339	2.41854
49530	0.29212	0.34203	0.20257	2.20681	2.07918	1.87490	2.54390	1.68372	0.91555	1.41465	1.38119	1.29604	0.72829	0.59356	0.52215	3.72541	3.05573	2.42689
49700	0.31040	0.34431	0.21796	2.20430	2.07875	1.91925	2.56754	1.69487	0.96342	1.48363	1.43556	1.31847	0.75287	0.62209	0.49309	3.76512	3.15192	2.51376
49860	0.31728	0.35557	0.23504	2.26812	2.09789	1.90287	2.55928	1.70753	0.95297	1.51980	1.41116	1.31395	0.75015	0.62335	0.51036	3.75695	3.07908	2.45064
50030	0.31109	0.35398	0.20304	2.24847	2.09959	1.87018	2.54940	1.69327	0.92482	1.40742	1.37670	1.23211	0.73150	0.60487	0.50314	3.71902	3.06626	2.41371
50190	0.29619	0.34445	0.20470	2.23103	2.09792	1.84796	2.54585	1.68753	0.92557	1.48790	1.41179	1.24749	0.73028	0.61058	0.49827	3.72077	3.08436	2.42601
50360	0.31043	0.33573	0.19536	2.20493	2.07080	1.83906	2.54881	1.67476	0.93495	1.44557	1.38909	1.27386	0.73894	0.60511	0.49369	3.70270	3.09857	2.39715
50520	0.30093	0.32803	0.21269	2.19701	2.06361	1.89705	2.53900	1.68919	0.93589	1.51243	1.36627	1.27242	0.73150	0.60040	0.48871	3.69403	3.08770	2.43484
50690	0.30925	0.32989	0.19715	2.18439	2.00554	1.83452	2.54644	1.69535	0.92695	1.39782	1.36795	1.21356	0.75454	0.59208	0.48715	3.73788	3.08049	2.46701
50850	0.28669	0.33075	0.21148	2.20102	2.03874	1.82607	2.56770	1.69119	0.96152	1.44043	1.36829	1.24419	0.73112	0.60824	0.49961	3.75653	3.12238	2.48121	24.36	6.1	0.00	7.36	0.01275	0.01290	0.01678	0.00776	0.00579	0.00634	0.00468	0.01265	0.01688	0.00676	0.00693	0.00898	0.01490	0.01097	0.01198	0.00216	0.00614	0.00865
51020	0.30209	0.34113	0.20862	2.21822	2.07906	1.92387	2.53183	1.67839	0.91289	1.41668	1.36219	1.22677	0.73020	0.59476	0.49847	3.72085	3.06940	2.44572
51180	0.30900	0.34144	0.19642	2.18083	2.01261	1.84841	2.55545	1.70460	0.94464	1.41882	1.35239	1.23306	0.72455	0.59262	0.49171	3.70044	3.05280	2.43391
51350	0.29111	0.33176	0.22550	2.23575	2.04364	1.89301	2.57153	1.69336	0.92672	1.42241	1.36884	1.27414	0.74059	0.60223	0.49402	3.74946	3.08933	2.43415
51510	0.28879	0.32557	0.20288	2.25231	2.06475	1.83442	2.53009	1.68984	0.92340	1.41844	1.37913	1.23159	0.74003	0.60709	0.49519	3.72774	3.09914	2.42986
51670	0.29567	0.33067	0.20830	2.19327	2.04614	1.88724	2.56587	1.67847	0.93577	1.46260	1.37935	1.26481	0.74714	0.61066	0.49314	3.73479	3.08334	2.49093
51840	0.31219	0.34186	0.21527	2.26887	2.07066	1.85980	2.57532	1.68124	0.93512	1.45145	1.45451	1.28176	0.74603	0.59697	0.50134	3.73222	3.10248	2.45868
52000	0.29511	0.34090	0.21061	2.20939	2.04963	1.84785	2.57108	1.70711	0.96925	1.42290	1.37659	1.26039	0.73821	0.64800	0.51806	3.75340	3.12561	2.46719
52170	0.30839	0.33274	0.21252	2.23398	2.07838	1.87554	2.55293	1.71048	0.93237	1.45711	1.37393	1.26939	0.74142	0.61785	0.49430	3.72642	3.06191	2.43521
52330	0.28279	0.32404	0.19485	2.17224	2.07901	1.90788	2.56145	1.67737	0.92113	1.40082	1.39270	1.26544	0.74530	0.61799	0.49173	3.77260	3.11369	2.44665
52500	0.30947	0.36189	0.21690	2.22590	2.06380	1.85191	2.56955	1.69019	0.93018	1.43784	1.38613	1.26709	0.75555	0.61904	0.51936	3.77556	3.10706	2.49128	24.36	6.0	0.00	7.37	0.01275	0.01290	0.01678	0.00776	0.00579	0.00634	0.00468	0.01265	0.01687	0.00676	0.00693	0.00898	0.01490	0.01097	0.01198	0.00216	0.00614	0.00865
52660	0.31482	0.34657	0.22183	2.28184	2.08999	1.90574	2.57183	1.70194	0.95371	1.48888	1.40175	1.28716	0.74950	0.61746	0.51523	3.73220	3.14112	2.47282
52820	0.31092	0.33803	0.20108	2.22102	2.13419	1.90279	2.57708	1.68062	0.93822	1.49216	1.41317	1.26080	0.72189	0.61234	0.51630	3.72242	3.05978	2.46719
52990	0.29629	0.32600	0.19703	2.19606	2.06523	1.84691	2.55193	1.67908	0.92685	1.41425	1.38156	1.24171	0.72589	0.61001	0.49787	3.69584	3.05513	2.45916
53150	0.29586	0.31772	0.20346	2.18876	2.07233	1.86935	2.54016	1.69303	0.94233	1.43390	1.39687	1.27617	0.73920	0.59646	0.50226	3.72061	3.05733	2.42278
53320	0.28874	0.32684	0.19896	2.20974	2.06014	1.88348	2.54566	1.68235	0.92816	1.43421	1.44541	1.30366	0.73171	0.60079	0.49697	3.73762	3.09588	2.45791
53480	0.28945	0.33917	0.19590	2.25194	2.08270	1.87134	2.54803	1.68259	0.92737	1.40449	1.37486	1.27607	0.73708	0.60383	0.53040	3.74890	3.07403	2.44853
53650	0.31992	0.35237	0.22975	2.22829	2.10472	1.88165	2.57827	1.69343	0.94239	1.46700	1.40924	1.27965	0.75946	0.63357	0.50515	3.71919	3.10074	2.49575
53810	0.29345	0.34009	0.21173	2.21834	2.08987	1.85193	2.54983	1.71076	0.94179	1.45015	1.38212	1.28569	0.74614	0.60527	0.52480	3.78149	3.07358	2.43028
53970	0.28942	0.33395	0.21464	2.25979	2.08170	1.89538	2.56611	1.69769	0.94309	1.42426	1.38090	1.31162	0.73237	0.59976	0.50203	3.73702	3.08709	2.48217
54140	0.30612	0.33225	0.20139	2.23158	2.05770	1.90529	2.56104	1.69763	0.92507	1.41530	1.39862	1.25661	0.74207	0.59735	0.50544	3.72194	3.09244	2.43219	24.42	6.2	0.00	7.28	0.01275	0.01290	0.01678	0.00776	0.00579	0.00634	0.00468	0.01265	0.01687	0.00676	0.00693	0.00898	0.01490	0.01097	0.01198	0.00216	0.00614	0.00864
54300	0.29418	0.33872	0.20520	2.26362	2.13999	1.84609	2.55382	1.69175	0.95002	1.42426	1.37825	1.23822	0.74129	0.60014	0.49951	3.71664	3.09958	2.42419
54470	0.30406	0.33980	0.20864	2.19132	2.03913	1.84781	2.53253	1.67866	0.92766	1.41668	1.38169	1.23635	0.73207	0.61242	0.48747	3.69388	3.05151	2.43539
54630	0.29450	0.32098	0.19584	2.16916	2.05448	1.84408	2.53185	1.67809	0.91817	1.43554	1.37484	1.23186	0.74055	0.59608	0.49881	3.74340	3.08039	2.43795
54790	0.29288	0.32958	0.20125	2.17707	2.02236	1.85463	2.54069	1.68462	0.92514	1.40493	1.35973	1.23468	0.72985	0.61073	0.50569	3.70594	3.07082	2.41326
54960	0.29829	0.33440	0.20856	2.22879	2.09294	1.98355	2.55548	1.67958	0.93065	1.41654	1.37775	1.25911	0.74634	0.61286	0.51140	3.73967	3.11794	2.46487
55120	0.31097	0.33940	0.21487	2.21752	2.08648	1.89147	2.56803	1.68960	0.93342	1.43859	1.35389	1.23449	0.74599	0.60796	0.51111	3.72047	3.07371	2.44436
55290	0.29798	0.33372	0.20696	2.21623	2.09085	1.87213	2.55696	1.67900	0.93246	1.41320	1.38496	1.25291	0.74993	0.60753	0.50232	3.77204	3.07382	2.42359
55450	0.29900	0.34229	0.20503	2.21449	2.04827	1.82006	2.54802	1.67971	0.94805	1.44041	1.38765	1.22518	0.72608	0.58399	0.48220	3.73190	3.08112	2.42692
55610	0.28299	0.32145	0.19090	2.17079	2.02844	1.83832	2.53466	1.68333	0.92866	1.44226	1.37289	1.24032	0.72420	0.62352	0.48435	3.72336	3.11130	2.45389
55780	0.29942	0.33553	0.20262	2.22214	2.07482	1.90711	2.53550	1.69775	0.92037	1.42625	1.37720	1.25202	0.72811	0.59229	0.48781	3.71977	3.08117	2.44694	24.42	6.2	0.00	6.68	0.01275	0.01290	0.01678	0.00776	0.00579	0.00634	0.00468	0.01265	0.01687	0.00676	0.00693	0.00898	0.01490	0.01097	0.01198	0.00216	0.00614	0.00864
55940	0.29406	0.32393	0.19514	2.21410	2.05360	1.84438	2.52874	1.67027	0.93453	1.43239	1.36878	1.22796	0.72638	0.60010	0.49525	3.70290	3.09882	2.43598
56110	0.29852	0.34619	0.22550	2.19966	2.05279	1.85323	2.54877	1.69658	0.91452	1.42412	1.35932	1.22254	0.71328	0.59210	0.49943	3.68393	3.05844	2.39236
56270	0.28806	0.32436	0.20397	2.19359	2.02045	1.85461	2.54573	1.67486	0.94262	1.40208	1.35564	1.26198	0.74403	0.59278	0.49081	3.71234	3.06096	2.41355
56430	0.28129	0.33069	0.18980	2.24855	2.09339	1.85209	2.53624	1.66591	0.92263	1.39310	1.36402	1.25360	0.72214	0.59503	0.49411	3.70284	3.09669	2.41113
56600	0.27931	0.32084	0.19304	2.34115	2.05542	1.87138	2.53255	1.67071	0.91468	1.53156	1.43244	1.35430	0.71185	0.58276	0.48064	3.72874	3.07296	2.44939
56760	0.28714	0.31661	0.20515	2.18346	2.05472	1.85864	2.53270	1.66570	0.91159	1.39494	1.36124	1.25666	0.71872	0.58053	0.48335	3.69597	3.05504	2.42552
56920	0.28820	0.31996	0.18830	2.20038	2.05596	1.86495	2.52638	1.67026	0.92144	1.42178	1.39573	1.23392	0.72510	0.58972	0.48358	3.69706	3.04791	2.43192
57090	0.27947	0.31912	0.19042	2.19338	2.04857	1.89472	2.53007	1.68182	0.91090	1.38646	1.37274	1.22522	0.72863	0.59087	0.48886	3.69167	3.05979	2.43571
57250	0.28041	0.31778	0.18298	2.18527	2.01766	1.84004	2.52771	1.66587	0.92246	1.42772	1.35311	1.23485	0.71708	0.59239	0.48460	3.71540	3.07064	2.41695
57420	0.28307	0.32041	0.19160	2.17873	2.04599	1.83383	2.52518	1.67424	0.93524	1.38803	1.36846	1.23077	0.72057	0.58581	0.47744	3.70916	3.06805	2.39364	24.42	6.1	0.00	6.60	0.01275	0.01290	0.01678	0.00776	0.00579	0.00634	0.00468	0.01266	0.01688	0.00676	0.00693	0.00898	0.01490	0.01097	0.01198	0.00216	0.00614	0.00864
57580	0.27990	0.31517	0.19087	2.19744	2.04118	1.82420	2.52072	1.66950	0.90759	1.42430	1.36426	1.30126	0.71156	0.58282	0.49035	3.68446	3.05396	2.40472
57750	0.28773	0.32023	0.19155	2.19140	2.04238	1.82635	2.53264	1.66946	0.91864	1.43442	1.35044	1.24493	0.73574	0.59414	0.50507	3.71856	3.06581	2.41787
57910	0.28265	0.31842	0.19980	2.23155	2.02544	1.83559	2.54934	1.66684	0.93061	1.39593	1.36521	1.23870	0.72393	0.58841	0.48796	3.69710	3.04793	2.43189
58080	0.28726	0.32190	0.19122	2.20241	2.04051	1.85906	2.55150	1.67028	0.91925	1.40872	1.38354	1.25734	0.72399	0.58100	0.49304	3.73037	3.05215	2.43422
58240	0.28302	0.32360	0.18475	2.20596	2.05172	1.85799	2.55351	1.66709	0.92098	1.42180	1.35424	1.23368	0.72666	0.58811	0.48650	3.67988	3.07224	2.42967
58400	0.29133	0.33458	0.20476	2.20784	2.05741	1.84710	2.53952	1.66573	0.91625	1.41143	1.37208	1.22754	0.74053	0.59302	0.49088	3.70152	3.08660	2.42072
58570	0.29146	0.32569	0.20947	2.19302	2.06609	1.86661	2.54401	1.67237	0.90900	1.41742	1.37865	1.23080	0.74282	0.61538	0.50689	3.70845	3.02946	2.40126
58740	0.27922	0.33355	0.18895	2.20199	2.03162	1.83717	2.53973	1.67151	0.92956	1.42415	1.37025	1.21107	0.73003	0.59134	0.49482	3.69421	3.06872	2.45346
58900	0.30477	0.31658	0.18703	2.19046	2.01380	1.83479	2.54076	1.66882	0.92506	1.43480	1.34754	1.22942	0.73412	0.59124	0.49392	3.71118	3.03843	2.45659
59060	0.30147	0.33204	0.20148	2.18140	2.05160	1.83752	2.57218	1.68475	0.94262	1.41904	1.35541	1.24269	0.72943	0.59301	0.48699	3.75278	3.06359	2.40535	24.42	6.2	0.00	7.30	0.01275	0.01290	0.01678	0.00776	0.00579	0.00634	0.00468	0.01266	0.01688	0.00676	0.00693	0.00898	0.01491	0.01097	0.01198	0.00216	0.00614	0.00864
59230	0.28315	0.33339	0.19760	2.18714	2.08065	1.85505	2.53583	1.67035	0.92285	1.43837	1.38664	1.27368	0.74033	0.60358	0.49042	3.69636	3.07744	2.41541
59390	0.28105	0.33519	0.19852	2.19318	2.04379	1.86233	2.53665	1.68495	0.93471	1.41691	1.40206	1.24848	0.72584	0.59560	0.48456	3.74911	3.03825	2.40240
59560	0.27936	0.32611	0.19327	2.20937	2.05408	1.83912	2.54720	1.66992	0.91579	1.41826	1.37284	1.24851	0.71562	0.58536	0.48673	3.72890	3.06947	2.42687
59720	0.28594	0.32680	0.18645	2.19572	2.04179	1.83770	2.52069	1.67580	0.91425	1.39594	1.37541	1.24801	0.72276	0.57716	0.48688	3.68214	3.04688	2.42535
59880	0.28433	0.31850	0.19480	2.28154	2.04597	1.98708	2.54247	1.69606	0.91690	1.47830	1.41450	1.26352	0.72828	0.60575	0.49964	3.72672	3.08411	2.41375
60050	0.28733	0.32501	0.19086	2.21797	2.03813	1.86406	2.53958	1.67630	0.92796	1.39711	1.36080	1.26536	0.74277	0.61242	0.51276	3.74489	3.09686	2.45609
60210	0.29543	0.33494	0.20247	2.23936	2.05487	1.87267	2.54824	1.67476	0.92748	1.41690	1.38060	1.24796	0.75549	0.59017	0.48881	3.80556	3.08489	2.42226
60370	0.29664	0.33252	0.19256	2.22054	2.07370	1.87457	2.56096	1.67438	0.92369	1.46470	1.47144	1.24294	0.72008	0.59218	0.49433	3.73498	3.06830	2.40835
60540	0.28190	0.33513	0.19235	2.18493	2.04018	1.83449	2.55063	1.67693	0.92744	1.42502	1.38262	1.24850	0.75448	0.58918	0.48859	3.73574	3.13083	2.48888
60700	0.28855	0.33100	0.19624	2.16593	2.02589	1.82025	2.52588	1.67259	0.91675	1.42175	1.34314	1.25575	0.72000	0.59446	0.49200	3.70062	3.08073	2.41179	24.42	5.9	0.00	7.35	0.01275	0.01290	0.01678	0.00776	0.00579	0.00634	0.00468	0.01266	0.01688	0.00676	0.00693	0.00898	0.01491	0.01097	0.01198	0.00216	0.00614	0.00865
60860	0.28545	0.32544	0.19986	2.18020	2.06207	1.85988	2.54141	1.67195	0.91533	1.39971	1.37932	1.27327	0.74946	0.59076	0.49365	3.72634	3.06915	2.48000
61030	0.29188	0.31867	0.20125	2.21017	2.08577	1.85052	2.54129	1.66794	0.90986	1.42751	1.38525	1.23851	0.72464	0.58175	0.48048	3.69997	3.05262	2.40586
61190	0.28102	0.32259	0.19228	2.17257	2.03160	1.82242	2.53898	1.67316	0.91580	1.41003	1.36859	1.22139	0.73047	0.58985	0.55948	3.71754	3.04527	2.42306
61350	0.28852	0.32298	0.20395	2.21046	2.05256	1.84304	2.55542	1.68577	0.92257	1.45574	1.36909	1.23689	0.72862	0.59046	0.47800	3.72924	3.06278	2.47256
61520	0.29171	0.33143	0.19993	2.25142	2.09948	1.85831	2.55927	1.66451	0.92514	1.42162	1.42932	1.24748	0.74220	0.59345	0.48757	3.88463	3.16565	2.44783
61680	0.29704	0.33067	0.19387	2.22465	2.06242	1.87686	2.54948	1.68266	0.94799	1.41715	1.37652	1.25392	0.74439	0.60296	0.49455	3.73159	3.06196	2.39697
61850	0.30852	0.33892	0.21559	2.20645	2.04120	1.82982	2.54903	1.68930	0.93394	1.38688	1.36341	1.23514	0.73807	0.60062	0.49275	3.73482	3.06150	2.41271
62010	0.29050	0.34018	0.20492	2.19311	2.03761	1.83884	2.55362	1.71796	0.95141	1.39865	1.39338	1.27483	0.72673	0.60156	0.49040	3.65986	3.03279	2.39152
62180	0.28697	0.33655	0.19972	2.20741	2.03505	1.83534	2.54061	1.66345	0.93000	1.40008	1.37995	1.21947	0.73567	0.59962	0.48913	3.70739	3.06297	2.40743
62340	0.28889	0.33231	0.20112	2.21547	2.02605	1.85943	2.54125	1.68149	0.93849	1.41096	1.41784	1.27175	0.72068	0.58949	0.47648	3.73325	3.04760	2.42867	24.48	6.0	0.00	7.64	0.01275	0.01290	0.01678	0.00776	0.00579	0.00634	0.00468	0.01266	0.01688	0.00676	0.00693	0.00898	0.01491	0.01097	0.01198	0.00216	0.00614	0.00865
62500	0.29334	0.32148	0.19419	2.17777	2.01418	1.85815	2.55308	1.67909	0.92456	1.39585	1.38559	1.24619	0.72849	0.59804	0.49037	3.67145	3.03486	2.40110
62670	0.27952	0.31920	0.19899	2.16864	2.00152	1.81453	2.53641	1.66153	0.92853	1.40459	1.34092	1.22386	0.73308	0.58908	0.48964	3.68827	3.07180	2.43417
62830	0.28464	0.33754	0.21532	2.20043	2.05249	1.87577	2.53862	1.67884	0.91789	1.41040	1.38179	1.24282	0.72459	0.60747	0.49939	3.67934	3.02874	2.37238
62990	0.29036	0.33087	0.19435	2.19014	2.05071	1.83919	2.53907	1.66259	0.92899	1.39896	1.36503	1.23701	0.73101	0.58738	0.49077	3.76208	3.08691	2.43546
63160	0.28492	0.31823	0.18972	2.19712	2.04110	1.82947	2.53124	1.66277	0.93276	1.41624	1.40887	1.25740	0.71458	0.60158	0.48786	3.69573	3.05470	2.41487
63320	0.27930	0.32405	0.20234	2.16795	2.04805	1.84417	2.54495	1.67179	0.92386	1.42716	1.38472	1.22277	0.74985	0.60686	0.49428	3.75593	3.08324	2.46658
63490	0.28957	0.34589	0.20172	2.19665	2.05500	1.86720	2.53582	1.74043	0.98091	1.39950	1.38841	1.24024	0.72963	0.58485	0.48488	3.71062	3.06705	2.43264
63650	0.30472	0.33989	0.19688	2.19177	2.02464	1.84701	2.55749	1.69199	0.92673	1.39384	1.37079	1.23665	0.72845	0.61109	0.48930	3.70588	3.05157	2.42055
63810	0.28709	0.32413	0.20054	2.22180	2.05298	1.84496	2.53387	1.67530	0.92370	1.42245	1.40018	1.24625	0.72497	0.59716	0.49443	3.69470	3.05743	2.43155
63980	0.28556	0.32010	0.19528	2.19238	2.04785	1.85164	2.54535	1.67688	0.91344	1.43065	1.37724	1.26958	0.73357	0.60623	0.49378	3.72894	3.12126	2.45608	24.42	6.2	0.00	7.41	0.01275	0.01290	0.01678	0.00776	0.00579	0.00634	0.00468	0.01266	0.01688	0.00676	0.00693	0.00898	0.01491	0.01097	0.01198	0.00216	0.00614	0.00865
64140	0.30049	0.34875	0.19753	2.24367	2.05958	1.87523	2.55029	1.69783	0.92675	1.45321	1.41946	1.30115	0.75332	0.61687	0.50293	3.75341	3.09219	2.47046
64310	0.29670	0.33833	0.20616	2.24356	2.06969	1.88283	2.56751	1.70192	0.93755	1.46945	1.40374	1.27406	0.74160	0.59674	0.49934	3.76071	3.09868	2.45646
64470	0.28974	0.34683	0.21079	2.23758	2.06535	1.88356	2.55600	1.68092	0.93304	1.44422	1.40194	1.25946	0.73179	0.59097	0.49121	3.73381	3.09783	2.42280
64640	0.29395	0.31894	0.20588	2.21355	2.07030	1.85517	2.54402	1.66781	0.92030	1.44089	1.36823	1.24038	0.72341	0.59958	0.50433	3.71392	3.07571	2.43955
64800	0.29058	0.32925	0.25377	2.21559	2.02855	1.84918	2.55289	1.68507	0.92723	1.39788	1.39847	1.39307	0.73480	0.59389	0.48803	3.71315	3.41441	2.68104
64960	0.29132	0.31482	0.18820	2.29571	2.38265	1.86528	2.53918	1.66393	0.91889	1.40946	1.40403	1.25701	0.73216	0.59424	0.49471	3.71714	3.08059	2.45537
65130	0.28754	0.32764	0.19788	2.21687	2.09029	1.88505	2.54751	1.68677	0.95075	1.41442	1.40083	1.24079	0.75263	0.60186	0.48459	3.69984	3.08817	2.42928
65290	0.29214	0.32208	0.19187	2.23918	2.12152	1.85062	2.52006	1.67602	0.91680	1.42513	1.38183	1.27938	0.72903	0.58672	0.49109	3.79350	3.14497	2.44387
65450	0.29267	0.32485	0.19383	2.21759	2.05176	1.84964	2.54251	1.66425	0.91811	1.45313	1.37211	1.23332	0.72338	0.60071	0.49731	3.75012	3.09493	2.43979
65620	0.28651	0.32731	0.20594	2.21507	2.06329	1.89997	2.53122	1.67988	0.93946	1.48133	1.40326	1.24778	0.72243	0.59834	0.49298	3.69812	3.07233	2.47358	24.42	6.3	0.00	5.69	0.01275	0.01290	0.01678	0.00776	0.00579	0.00634	0.00468	0.01266	0.01688	0.00676	0.00693	0.00898	0.01491	0.01097	0.01198	0.00216	0.00614	0.00865
65780	0.27913	0.31657	0.18959	2.18301	2.04781	1.85643	2.52137	1.65473	0.92233	1.40217	1.38166	1.23879	0.71784	0.58391	0.48913	3.69703	3.03768	2.40803
65940	0.28755	0.31753	0.18645	2.18853	2.05054	1.84517	2.52166	1.70088	0.91569	1.39896	1.37564	1.23410	0.73122	0.60113	0.48626	3.72644	3.07512	2.39702
66110	0.28988	0.32537	0.19956	2.21870	2.06615	1.83593	2.53665	1.69209	0.93164	1.41010	1.34426	1.21377	0.73030	0.59538	0.47924	3.70329	3.05177	2.41633
66270	0.28654	0.33613	0.19662	2.16909	2.03328	1.84252	2.56151	1.67038	0.91655	1.40715	1.35488	1.24534	0.72900	0.59794	0.48735	3.71453	3.06649	2.42579
66440	0.29033	0.32995	0.20110	2.17858	2.02758	1.86080	2.52986	1.66698	0.91036	1.36977	1.35086	1.20800	0.73176	0.59574	0.49321	3.70559	3.07652	2.42259
66600	0.28970	0.34079	0.20111	2.16447	2.03234	1.84181	2.55843	1.67699	0.92111	1.40791	1.36551	1.24548	0.73341	0.59826	0.48731	3.71502	3.08347	2.43694
66760	0.30978	0.32718	0.19418	2.20374	2.04325	1.87563	2.55160	1.70242	0.93671	1.44984	1.40203	1.28433	0.75438	0.62960	0.49462	3.73689	3.08046	2.43429
66930	0.29073	0.32836	0.21054	2.20639	2.10096	1.89904	2.55441	1.68933	0.93573	1.46241	1.37695	1.27021	0.74884	0.61568	0.50616	3.75896	3.09599	2.46711
67090	0.29464	0.33534	0.20280	2.19246	2.06348	1.86454	2.55790	1.67456	0.91798	1.44454	1.39607	1.25523	0.73977	0.60339	0.48889	3.70220	3.05124	2.40889
67260	0.29277	0.34587	0.20860	2.20514	2.05764	1.85353	2.56394	1.69058	0.94132	1.41457	1.37889	1.26947	0.73038	0.61768	0.50964	3.74166	3.07110	2.40471	24.42	6.1	0.00	7.38	0.01275	0.01290	0.01678	0.00776	0.00579	0.00634	0.00468	0.01266	0.01688	0.00676	0.00693	0.00898	0.01491	0.01097	0.01198	0.00216	0.00614	0.00865
67420	0.28408	0.34149	0.20078	2.22744	2.05402	1.85321	2.55648	1.69037	0.95189	1.44724	1.39656	1.27324	0.73233	0.60078	0.48984	3.74264	3.08183	2.46181
67590	0.29232	0.33515	0.20508	2.24550	2.06935	1.89588	2.55586	1.67379	0.92355	1.42770	1.40487	1.22937	0.73133	0.59232	0.50001	3.70271	3.07347	2.42183
67750	0.28731	0.32297	0.19948	2.19450	2.04291	1.87801	2.56755	1.69793	0.92561	1.42299	1.39049	1.32781	0.74497	0.59982	0.48608	3.78350	3.10358	2.45059
67920	0.29047	0.33709	0.23109	2.20007	2.07720	1.86638	2.54359	1.67788	0.93333	1.49781	1.39236	1.27362	0.74116	0.60218	0.50786	3.68664	3.07581	2.42936
68080	0.29386	0.35600	0.22991	2.21818	2.04706	1.85757	2.56228	1.68357	0.94704	1.40882	1.38101	1.26794	0.72893	0.60668	0.48986	3.70533	3.06403	2.41768
68250	0.30040	0.34393	0.20150	2.24575	2.05738	1.84079	2.55051	1.67056	0.92185	1.42623	1.36927	1.24709	0.74955	0.60181	0.49150	3.71646	3.04496	2.39984
68410	0.28845	0.32981	0.20686	2.19923	2.05720	1.84985	2.55083	1.69342	0.92677	1.44608	1.37559	1.26819	0.76001	0.60252	0.50563	3.70865	3.08224	2.44619
68580	0.29690	0.34678	0.20422	2.20643	2.05301	1.87212	2.55642	1.68747	0.94842	1.43387	1.37709	1.24766	0.73465	0.60311	0.50217	3.73526	3.10216	2.42939
68740	0.28644	0.32562	0.20281	2.20754	2.06056	1.84782	2.55293	1.70190	0.96227	1.41129	1.39022	1.24314	0.74337	0.59113	0.48919	3.74762	3.07613	2.42679
68900	0.30365	0.34343	0.20696	2.21872	2.05198	1.85996	2.55811	1.69883	0.98094	1.44013	1.37982	1.23176	0.73760	0.61797	0.49283	3.72024	3.12199	2.43778	24.48	6.3	0.00	7.34	0.01275	0.01290	0.01678	0.00776	0.00579	0.00634	0.00468	0.01266	0.01688	0.00676	0.00693	0.00898	0.01491	0.01097	0.01198	0.00216	0.00614	0.00865
69070	0.30503	0.34313	0.20724	2.24436	2.07691	1.88925	2.55714	1.67660	0.93442	1.41671	1.39227	1.24180	0.76244	0.62662	0.51916	3.78149	3.09246	2.46784
69230	0.30452	0.34837	0.21148	2.25169	2.08657	1.88169	2.54658	1.70980	0.95167	1.45085	1.39253	1.25979	0.74458	0.60723	0.50809	3.73971	3.09031	2.45562
69390	0.30596	0.34597	0.19784	2.23030	2.11357	1.84857	2.55554	1.68749	0.93462	1.45259	1.38017	1.29454	0.73886	0.61111	0.51828	3.74294	3.10641	2.44456
69560	0.31287	0.35870	0.21527	2.32966	2.08977	1.88191	2.57123	1.68132	0.92689	1.47060	1.40131	1.28828	0.74760	0.59886	0.50412	3.74381	3.09231	2.43163
69720	0.29572	0.32992	0.20055	2.22951	2.06388	1.86729	2.55930	1.67898	0.92105	1.44161	1.39223	1.25176	0.75909	0.59796	0.51181	3.70295	3.10376	2.42342
69890	0.30449	0.34281	0.20103	2.16748	2.01775	1.85205	2.55699	1.71951	0.95303	1.40311	1.36537	1.24979	0.75933	0.60105	0.48872	3.67736	3.06511	2.40852
70050	0.29357	0.33305	0.18860	2.21782	2.05202	1.91340	2.55042	1.67506	0.92932	1.42971	1.37510	1.27135	0.73495	0.59707	0.49086	3.77364	3.11831	2.47351
70210	0.30232	0.32955	0.19614	2.25518	2.09925	1.86193	2.54430	1.68647	0.91828	1.41649	1.36065	1.23211	0.72822	0.59208	0.50491	3.71768	3.04616	2.42727
70380	0.29119	0.33408	0.20413	2.20175	2.05479	1.88441	2.52249	1.67578	0.93344	1.49273	1.44200	1.26331	0.73200	0.59314	0.49138	3.72150	3.05420	2.42435
70540	0.28054	0.34321	0.20329	2.18545	2.05136	1.86330	2.54656	1.67458	0.93205	1.40132	1.35221	1.22696	0.72696	0.59625	0.49817	3.70706	3.14859	2.45500	24.48	6.1	0.00	7.34	0.01275	0.01290	0.01678	0.00776	0.00579	0.00634	0.00468	0.01266	0.01688	0.00676	0.00693	0.00898	0.01491	0.01097	0.01198	0.00216	0.00614	0.00865
70710	0.29671	0.33623	0.20605	2.17512	2.04381	1.85711	2.55711	1.67568	0.93867	1.42723	1.39291	1.23847	0.72230	0.59519	0.49495	3.72338	3.09837	2.43956
70870	0.30375	0.33525	0.20164	2.19726	2.04420	1.84421	2.55862	1.68368	0.92943	1.43485	1.36105	1.24119	0.74099	0.59039	0.48550	3.74592	3.04686	2.42821
71040	0.29152	0.33344	0.20083	2.17937	2.04778	1.84158	2.54871	1.70219	0.92348	1.40127	1.34919	1.22735	0.72102	0.60116	0.49055	3.69158	3.07618	2.40947
71200	0.28973	0.32283	0.19621	2.18989	2.01747	1.84194	2.59108	1.69475	0.94704	1.40214	1.35084	1.24034	0.73034	0.59586	0.49207	3.70024	3.06096	2.41161
71360	0.29117	0.32625	0.19380	2.17374	2.05200	1.82262	2.52742	1.66678	0.90324	1.40887	1.36163	1.22091	0.72367	0.57970	0.49356	3.69375	3.05984	2.43144
71530	0.29330	0.32874	0.20294	2.27462	2.05054	1.87451	2.55779	1.66877	0.92472	1.41565	1.47145	1.29014	0.73359	0.59757	0.50032	3.69446	3.06091	2.43222
71690	0.29865	0.33677	0.21070	2.21800	2.09367	1.89378	2.54975	1.69697	0.94143	1.44026	1.38308	1.23789	0.75503	0.61730	0.53999	3.71099	3.06757	2.44906
71860	0.30049	0.33455	0.21350	2.27301	2.08154	1.87789	2.54602	1.68943	0.94548	1.40371	1.37810	1.24042	0.74328	0.60426	0.48745	3.73142	3.06303	2.41147
72020	0.29713	0.32101	0.19295	2.18040	2.02841	1.84273	2.54665	1.67931	0.91524	1.43217	1.34935	1.25298	0.71765	0.60268	0.48457	3.70668	3.06750	2.43921
72180	0.28056	0.32228	0.19787	2.18241	2.06104	1.85517	2.55009	1.67672	0.91943	1.42528	1.36931	1.26786	0.72655	0.59684	0.49661	3.71131	3.07274	2.44666	24.48	6.2	0.00	7.35	0.01275	0.01290	0.01678	0.00776	0.00579	0.00634	0.00468	0.01266	0.01688	0.00676	0.00693	0.00898	0.01491	0.01097	0.01198	0.00216	0.00614	0.00865
72350	0.28173	0.32041	0.19158	2.19500	2.07252	1.85460	2.55822	1.68705	0.93415	1.44286	1.38570	1.27798	0.73311	0.61061	0.48880	3.72976	3.07633	2.44094
72510	0.28738	0.32044	0.19727	2.21327	2.05596	1.89036	2.54060	1.67495	0.93583	1.44714	1.42826	1.23747	0.73258	0.59724	0.50076	3.73824	3.10498	2.42930
72670	0.28465	0.32614	0.20379	2.22091	2.08227	1.88540	2.54303	1.67543	0.91414	1.43422	1.38513	1.27544	0.72905	0.59603	0.49633	3.75357	3.08601	2.42345
72840	0.29234	0.33319	0.20329	2.20799	2.05889	1.85897	2.54796	1.70159	0.93484	1.44687	1.38965	1.25322	0.72966	0.60259	0.48833	3.72665	3.07938	2.43512
73000	0.28537	0.34134	0.19884	2.20080	2.05496	1.86596	2.56133	1.69257	0.93789	1.43497	1.39190	1.26779	0.75051	0.62073	0.51619	3.72528	3.08427	2.43769
73170	0.29544	0.32368	0.20384	2.16323	2.04591	1.87390	2.55950	1.69811	0.93156	1.46615	1.42434	1.27084	0.76958	0.60368	0.50288	3.73561	3.08422	2.49414
73330	0.28935	0.33263	0.20693	2.22342	2.05978	1.86658	2.55982	1.69371	0.98250	1.42669	1.38352	1.25031	0.74811	0.61367	0.50582	3.73901	3.10838	2.44792
73490	0.30606	0.33014	0.20813	2.22752	2.09119	1.89292	2.56281	1.67388	0.93242	1.41461	1.36920	1.24056	0.72894	0.59818	0.51578	3.73862	3.09015	2.44923
73660	0.30110	0.33147	0.19852	2.19837	2.05703	1.85389	2.58165	1.69370	0.93281	1.41550	1.38478	1.24345	0.72567	0.59150	0.48476	3.72222	3.07139	2.42970
73820	0.28952	0.34343	0.19878	2.18410	2.04026	1.84594	2.54496	1.66467	0.93154	1.41096	1.35836	1.24181	0.75574	0.59538	0.49093	3.71427	3.07043	2.45096	24.48	6.1	0.00	7.31	0.01275	0.01290	0.01678	0.00776	0.00579	0.00634	0.00468	0.01266	0.01688	0.00676	0.00693	0.00898	0.01491	0.01097	0.01198	0.00216	0.00614	0.00865
73990	0.29781	0.35211	0.19912	2.22323	2.05122	1.86740	2.54239	1.68567	0.92971	1.41425	1.37890	1.25564	0.73203	0.61593	0.48538	3.76646	3.10101	2.45002
74150	0.29788	0.31858	0.18973	2.19862	2.03712	1.88315	2.53038	1.67302	0.92920	1.43923	1.41573	1.26732	0.75190	0.59610	0.50135	3.75062	3.06555	2.44327
74320	0.28962	0.33560	0.19909	2.19219	2.02467	1.86186	2.54535	1.68124	0.92418	1.42187	1.39605	1.24917	0.72263	0.59016	0.48551	3.73005	3.09249	2.42048
74480	0.27894	0.32421	0.20449	2.17847	2.04595	1.83608	2.54741	1.68634	0.93088	1.40966	1.38258	1.25941	0.74090	0.59451	0.50498	3.70620	3.12655	2.43468
74640	0.29110	0.32535	0.20076	2.20267	2.05930	1.82863	2.53418	1.66711	0.92563	1.42443	1.36095	1.22755	0.71826	0.58957	0.49262	3.71264	3.07245	2.42529
74810	0.28394	0.32646	0.18959	2.18174	2.03884	1.84539	2.55179	1.67104	0.92294	1.42988	1.38054	1.26878	0.73490	0.58944	0.49147	3.73765	3.07137	2.42139
74970	0.29060	0.32648	0.19343	2.19612	2.06943	1.87473	2.56279	1.66650	0.91664	1.38057	1.38671	1.25609	0.72800	0.60631	0.49825	3.73410	3.05908	2.40746
75140	0.28143	0.33593	0.19439	2.20051	2.03957	1.85322	2.56273	1.68697	0.92378	1.43383	1.39321	1.25894	0.72280	0.59983	0.49726	3.70549	3.05945	2.44508
75300	0.28825	0.32829	0.19982	2.18565	2.04099	1.85585	2.55658	1.69028	0.92620	1.51617	1.38191	1.24944	0.74944	0.59825	0.50011	3.85599	3.15545	2.44812
75470	0.28344	0.32982	0.20076	2.20742	2.06352	1.87423	2.54892	1.69237	0.93300	1.43701	1.39062	1.24807	0.72642	0.58754	0.49485	3.70812	3.11081	2.43940	24.48	6.1	0.00	7.40	0.01275	0.01290	0.01678	0.00776	0.00579	0.00634	0.00468	0.01266	0.01688	0.00676	0.00693	0.00898	0.01491	0.01097	0.01198	0.00216	0.00614	0.00865
75630	0.29432	0.32076	0.19933	2.20011	2.03760	1.83848	2.53318	1.67821	0.92132	1.43677	1.37267	1.23125	0.71805	0.59940	0.48811	3.70469	3.10265	2.43528
75800	0.29358	0.32625	0.19739	2.48734	2.12031	1.86270	2.55149	1.67279	0.91265	1.42628	1.36914	1.29334	0.73622	0.59663	0.50020	3.75611	3.08592	2.45582
75960	0.30099	0.34838	0.20508	2.21019	2.05523	1.90444	2.56146	1.72719	0.92782	1.43057	1.39944	1.27214	0.73413	0.59507	0.51083	3.73045	3.09055	2.43784
76120	0.29477	0.32477	0.21432	2.23602	2.08768	1.88342	2.55927	1.68317	0.92917	1.40325	1.37584	1.31645	0.74504	0.60529	0.50092	3.70240	3.04302	2.43533
76290	0.30345	0.34383	0.20488	2.15048	2.00484	1.83475	2.55191	1.69421	0.93599	1.40127	1.35303	1.22771	0.72588	0.61589	0.49076	3.68993	3.04083	2.40634
76450	0.29329	0.33691	0.20076	2.19495	2.05333	1.84271	2.54827	1.66285	0.92208	1.42461	1.39068	1.28285	0.73084	0.59465	0.49487	3.72072	3.12648	2.48547
76610	0.28726	0.33687	0.21114	2.22071	2.06639	1.84224	2.53687	1.66758	0.95471	1.43789	1.36409	1.26356	0.73486	0.58871	0.49449	3.73116	3.08412	2.45574
76780	0.31017	0.34612	0.20969	2.16122	2.04699	1.85421	2.55185	1.68257	0.94445	1.41694	1.38487	1.27770	0.73139	0.60380	0.49450	3.75118	3.08712	2.43054
76940	0.29773	0.33433	0.20076	2.20842	2.06357	1.86634	2.54984	1.70034	0.93758	1.40737	1.46176	1.25536	0.72363	0.61421	0.51072	3.71314	3.08641	2.43040
77100	0.30026	0.35115	0.20540	2.22813	2.05247	1.88282	2.55417	1.67246	0.93437	1.48594	1.38579	1.27836	0.73627	0.60306	0.50550	3.73222	3.13879	2.50008	24.48	6.1	0.00	7.36	0.01275	0.01290	0.01678	0.00776	0.00579	0.00634	0.00468	0.01266	0.01688	0.00676	0.00693	0.00898	0.01491	0.01097	0.01198	0.00216	0.00614	0.00865
77270	0.28934	0.33202	0.20495	2.21385	2.06346	1.85761	2.55482	1.68236	0.94473	1.41743	1.38643	1.25516	0.73370	0.60227	0.49433	3.75148	3.06236	2.46201
77430	0.30949	0.34637	0.20261	2.19895	2.06170	1.90814	2.56156	1.69687	0.93650	1.45183	1.41165	1.28246	0.73400	0.61059	0.52125	3.72342	3.07311	2.44728
77590	0.30073	0.33403	0.19710	2.22275	2.08583	1.85704	2.54125	1.67979	0.93851	1.43836	1.37194	1.25995	0.75946	0.58853	0.48420	3.73030	3.10591	2.43199
77760	0.28326	0.32561	0.22979	2.19322	2.03950	1.84938	2.53777	1.69752	0.93432	1.43472	1.36421	1.24893	0.73298	0.60317	0.49202	3.75313	3.05632	2.48804
77920	0.29196	0.32131	0.19051	2.24120	2.11315	1.88008	2.52853	1.67347	0.91638	1.44232	1.40718	1.28940	0.73893	0.60727	0.50014	3.72659	3.09143	2.44516
78080	0.28781	0.34599	0.20902	2.23337	2.06009	1.86365	2.54935	1.68053	0.94811	1.42528	1.37796	1.27034	0.75142	0.62109	0.49660	3.72790	3.07610	2.46802
78250	0.29887	0.34119	0.21579	2.18810	2.02170	1.85058	2.55780	1.69228	0.93419	1.41051	1.37381	1.27505	0.73858	0.62438	0.49994	3.72484	3.10217	2.46360
78410	0.30191	0.34858	0.21747	2.21956	2.07666	1.90194	2.55325	1.67356	0.94674	1.43822	1.39887	1.23974	0.74779	0.61611	0.49996	3.82323	3.18325	2.47846
78570	0.29228	0.33166	0.21887	2.22648	2.07305	1.91404	2.58369	1.67299	0.94004	1.44553	1.37641	1.25086	0.72638	0.60913	0.52524	3.72325	3.07871	2.43253
78740	0.29947	0.35857	0.20191	2.19264	2.03687	1.84456	2.54763	1.67017	0.93440	1.40693	1.36255	1.24771	0.72011	0.58823	0.50984	3.72460	3.08794	2.42149	24.48	6.1	0.00	7.30	0.01275	0.01290	0.01678	0.00776	0.00579	0.00634	0.00468	0.01266	0.01688	0.00676	0.00693	0.00898	0.01491	0.01098	0.01198	0.00216	0.00614	0.00865
78900	0.29554	0.32392	0.19243	2.20452	2.04015	1.83586	2.55118	1.67220	0.94981	1.40159	1.34763	1.25178	0.73003	0.58911	0.48276	3.72411	3.06807	2.43355
79060	0.29328	0.32061	0.19000	2.17733	2.03983	1.83654	2.53918	1.67254	0.91913	1.39856	1.35272	1.24291	0.73560	0.59207	0.52785	3.69890	3.07245	2.44454
79230	0.29515	0.32682	0.20863	2.19848	2.03749	1.86308	2.54332	1.67096	0.91736	1.41166	1.34879	1.24398	0.72417	0.59056	0.48864	3.70293	3.04127	2.41123
79390	0.28402	0.32120	0.19461	2.17725	2.03990	1.85217	2.53543	1.65971	0.91625	1.39814	1.36776	1.23092	0.71237	0.59646	0.48190	3.69683	3.05844	2.41708
79550	0.29710	0.32927	0.20530	2.21583	2.06995	1.87559	2.54296	1.67795	0.92098	1.41080	1.41643	1.22632	0.73150	0.59784	0.50042	3.74550	3.10776	2.45632
79720	0.29856	0.34145	0.20464	2.27012	2.09073	1.86131	2.55588	1.70162	0.93566	1.43058	1.36731	1.27983	0.74806	0.60588	0.48874	3.81650	3.09205	2.45084
79880	0.29820	0.34240	0.20358	2.22120	2.05646	1.89449	2.55372	1.68591	0.92841	1.42079	1.40308	1.25827	0.71890	0.58761	0.48525	3.72908	3.12372	2.45329
80040	0.29023	0.32519	0.21000	2.19997	2.05298	1.85626	2.55541	1.68517	0.94496	1.43330	1.39098	1.23918	0.74068	0.61144	0.49685	3.73904	3.09902	2.51159
80210	0.30759	0.33617	0.20261	2.23439	2.07511	1.90580	2.54485	1.69741	0.93492	1.45982	1.43483	1.26790	0.72771	0.60338	0.50659	3.76946	3.14263	2.47264
80370	0.30113	0.34531	0.21167	2.23771	2.11317	1.91461	2.55092	1.69740	0.94303	1.45944	1.39160	1.25962	0.73554	0.59914	0.49468	3.76908	3.08057	2.43843	24.48	6.2	0.00	7.32	0.01275	0.01290	0.01678	0.00776	0.00579	0.00634	0.00468	0.01266	0.01688	0.00676	0.00693	0.00898	0.01491	0.01097	0.01198	0.00216	0.00614	0.00865
80530	0.29699	0.34481	0.20670	2.25950	2.06096	1.88416	2.55598	1.67301	0.92309	1.45252	1.44501	1.27876	0.73206	0.59715	0.51001	3.73151	3.09314	2.45307
80700	0.29310	0.32768	0.20497	2.21673	2.06917	1.87412	2.53527	1.68078	0.93149	1.45245	1.38926	1.25629	0.73938	0.59466	0.48834	3.81181	3.18224	2.45065
80860	0.29958	0.33005	0.19282	2.19217	2.04889	1.85124	2.53255	1.67046	0.90672	1.43318	1.40095	1.23068	0.75971	0.61874	0.49743	3.69723	3.07668	2.42221
81030	0.29138	0.33519	0.20275	2.18480	2.05004	1.85103	2.55773	1.68136	0.92314	1.45285	1.38625	1.22377	0.74233	0.61621	0.49639	3.74436	3.10538	2.41541
81190	0.29432	0.33735	0.20078	2.21877	2.05866	1.86485	2.54930	1.67286	0.92730	1.42909	1.41898	1.27693	0.73733	0.60185	0.48595	3.79447	3.09367	2.42084
81360	0.28549	0.33077	0.19934	2.20620	2.03247	1.83682	2.54915	1.67187	0.91884	1.40183	1.38907	1.23107	0.72739	0.59729	0.50257	3.71250	3.09637	2.44206
81520	0.29048	0.33108	0.19403	2.19744	2.01375	1.82885	2.53456	1.66164	0.91626	1.42202	1.37054	1.23906	0.73421	0.60118	0.48823	3.69538	3.02233	2.39636
81690	0.29885	0.32892	0.19939	2.26082	2.05751	1.86081	2.55477	1.72947	0.92974	1.42848	1.41360	1.29151	0.73457	0.58970	0.49102	3.71168	3.10971	2.43198
81850	0.29095	0.32464	0.19411	2.19661	2.05344	1.88633	2.54649	1.70490	0.93952	1.43873	1.48566	1.27422	0.74783	0.61964	0.52506	3.77792	3.12699	2.46727
82020	0.32066	0.34077	0.20023	2.22261	2.06163	1.87776	2.56366	1.68296	0.93420	1.43077	1.42639	1.25835	0.75770	0.60233	0.50939	3.73412	3.09680	2.48058	24.48	6.1	0.00	7.37	0.01275	0.01290	0.01678	0.00776	0.00579	0.00634	0.00468	0.01266	0.01688	0.00676	0.00693	0.00898	0.01491	0.01097	0.01198	0.00216	0.00614	0.00865
82180	0.30767	0.33588	0.21019	2.19654	2.07298	1.83707	2.56168	1.68409	0.94011	1.87897	1.50707	1.24512	0.72993	0.58945	0.49963	3.73986	3.05946	2.45422
82340	0.28710	0.33727	0.19437	2.19439	2.07922	1.85123	2.55192	1.70336	0.97465	1.46574	1.37362	1.22957	0.75026	0.62111	0.49667	3.74003	3.07664	2.43581
82510	0.29439	0.34247	0.19745	2.22769	2.08951	1.87817	2.54317	1.69707	0.94336	1.42261	1.37378	1.28411	0.73420	0.60197	0.50344	3.73751	3.07687	2.40880
82670	0.30766	0.33442	0.22020	2.22750	2.05363	1.86423	2.57273	1.71240	0.93324	1.41734	1.44456	1.26904	0.73672	0.63423	0.50028	3.80217	3.13620	2.43873
82840	0.30163	0.32073	0.20774	2.21533	2.08630	1.89451	2.55715	1.67521	0.93712	1.43916	1.39316	1.26662	0.73007	0.59600	0.49624	3.78209	3.06994	2.43374
83000	0.29949	0.34147	0.20076	2.20047	2.02509	1.86406	2.54432	1.69849	0.92618	1.41755	1.37566	1.24957	0.73388	0.58685	0.49187	3.74485	3.09020	2.41588
83160	0.29761	0.34612	0.21482	2.18525	2.04281	1.85845	2.57504	1.68646	0.91844	1.39673	1.36008	1.23986	0.72562	0.59831	0.49064	3.70692	3.04314	2.42095
83330	0.28453	0.32382	0.19427	2.18116	2.02125	1.85650	2.54222	1.66941	0.93224	1.39296	1.36600	1.24346	0.72308	0.61112	0.48998	3.72384	3.06483	2.41613
83490	0.29432	0.32765	0.20084	2.17585	2.03497	1.86795	2.58453	1.67314	0.94186	1.45763	1.36881	1.25276	0.73487	0.59630	0.49244	3.72570	3.09979	2.43668
83650	0.28782	0.32988	0.19626	2.19393	2.05020	1.86721	2.54811	1.67134	0.94323	1.41472	1.37464	1.23787	0.72296	0.58343	0.48424	3.73379	3.05588	2.41542	24.48	6.1	0.00	7.34	0.01275	0.01290	0.01678	0.00776	0.00579	0.00634	0.00468	0.01266	0.01688	0.00676	0.00693	0.00898	0.01491	0.01097	0.01198	0.00216	0.00614	0.00865
83820	0.27820	0.32744	0.19587	2.19241	2.03483	1.86054	2.54885	1.68506	0.92167	1.42727	1.38574	1.23122	0.73810	0.59753	0.48844	3.75586	3.09767	2.45047
83980	0.28505	0.32999	0.20431	2.19013	2.07737	1.84078	2.54232	1.67657	0.91380	1.44778	1.37743	1.23669	0.73791	0.60303	0.50579	3.73740	3.09230	2.41330
84150	0.29032	0.32766	0.20020	2.20775	2.04288	1.85533	2.55841	1.68352	0.91093	1.43365	1.37859	1.25248	0.72453	0.59920	0.49217	3.72488	3.08405	2.42365
84310	0.28575	0.32058	0.19363	2.19279	2.08179	1.89956	2.53901	1.67748	0.92896	1.43201	1.41544	1.25459	0.75908	0.60864	0.49358	3.74934	3.10294	2.47298
84470	0.29753	0.32875	0.19949	2.19797	2.04145	1.87122	2.54856	1.70114	0.91567	1.42577	1.38251	1.26493	0.73773	0.60036	0.52683	3.71210	3.06347	2.43318
84640	0.29443	0.33158	0.20184	2.22259	2.04546	1.85393	2.54782	1.68588	0.92653	1.47587	1.43001	1.27595	0.72733	0.61203	0.49278	3.70883	3.05383	2.41487
84800	0.29600	0.33134	0.20013	2.20472	2.03803	1.86149	2.53594	1.69381	0.91785	1.44870	1.40655	1.23247	0.72904	0.60161	0.49586	3.72122	3.03787	2.42303
84970	0.28480	0.32611	0.19963	2.20022	2.07589	1.85397	2.54675	1.67615	0.93268	1.38882	1.37189	1.26693	0.73425	0.62015	0.49419	3.74162	3.09876	2.48242
85140	0.30424	0.34810	0.20991	2.18550	2.09512	1.84869	2.56279	1.67952	0.93716	1.43622	1.38316	1.27306	0.75049	0.62499	0.50964	3.73560	3.07714	2.39762
85300	0.30912	0.35459	0.22155	2.19679	2.08399	1.87068	2.56172	1.67399	0.93936	1.40984	1.37504	1.26664	0.74527	0.60346	0.49240	3.74474	3.07632	2.44234	24.48	5.9	0.00	7.67	0.01275	0.01290	0.01677	0.00776	0.00579	0.00634	0.00468	0.01265	0.01687	0.00676	0.00693	0.00897	0.01490	0.01097	0.01198	0.00216	0.00614	0.00865
85460	0.29197	0.33057	0.20406	2.21355	2.09271	1.88567	2.57879	1.68403	0.95321	1.42010	1.39035	1.30038	0.77886	0.61912	0.51381	3.73008	3.15203	2.48098
85630	0.30921	0.38626	0.22698	2.51273	2.14075	1.87213	2.58327	1.67920	0.94511	1.42431	1.37283	1.24143	0.74628	0.60266	0.50966	3.70654	3.07765	2.42865
85790	0.33103	0.35241	0.21321	2.19321	2.03539	1.86045	2.59476	1.69542	0.92447	1.40761	1.38378	1.24077	0.73772	0.59579	0.48467	3.69619	3.08675	2.42309
85950	0.27872	0.32676	0.20245	2.18162	2.03595	1.85004	2.56596	1.68363	0.93032	1.39466	1.36458	1.24302	0.72270	0.59243	0.49136	3.77929	3.09641	2.45521
86120	0.30181	0.33376	0.21230	2.20881	2.07662	1.87278	2.54616	1.70247	0.94230	1.43864	1.45393	1.27398	0.73970	0.60647	0.50823	3.73866	3.07572	2.45031
86280	0.29225	0.34807	0.20004	2.22445	2.09409	1.84078	2.55281	1.69221	0.93129	1.46251	1.42966	1.37188	0.75506	0.63233	0.53096	3.77770	3.16433	2.48840
86450	0.31691	0.36289	0.23094	2.25080	2.10213	1.86229	2.59577	1.68597	0.93877	1.44816	1.38216	1.30350	0.75482	0.62603	0.51525	3.75696	3.11458	2.45926
86610	0.29951	0.36441	0.22564	2.22729	2.06936	1.89004	2.56699	1.70342	0.94981	1.43519	1.38542	1.26489	0.75895	0.62555	0.51836	3.75838	3.09381	2.44891
86770	0.29987	0.34827	0.21476	2.23172	2.08502	1.88357	2.55784	1.69963	0.93689	1.45755	1.39473	1.26832	0.73569	0.60709	0.49403	3.73626	3.07007	2.48039
86940	0.30724	0.35019	0.21479	2.20897	2.11401	1.90723	2.55774	1.68871	0.93635	1.43982	1.40083	1.27508	0.74080	0.60718	0.49260	3.75221	3.08661	2.46967	24.54	6.2	0.00	7.47	0.01275	0.01290	0.01677	0.00776	0.00579	0.00634	0.00468	0.01266	0.01688	0.00676	0.00693	0.00897	0.01490	0.01097	0.01198	0.00216	0.00614	0.00865
87100	0.29756	0.32917	0.19540	2.18642	2.03560	1.89029	2.53705	1.67382	0.92922	1.43227	1.38585	1.30643	0.74260	0.62048	0.49926	3.78966	3.15284	2.46465
87270	0.29865	0.32734	0.19866	2.22199	2.09307	1.85374	2.53914	1.69087	0.93049	1.46977	1.42259	1.32495	0.72190	0.58971	0.49291	3.75435	3.10627	2.43677
87430	0.29236	0.34109	0.21263	2.23055	2.05668	1.86638	2.55910	1.68450	0.93632	1.47208	1.40873	1.26929	0.72796	0.58969	0.51203	3.79896	3.11051	2.49811
87600	0.30657	0.33966	0.21716	2.19339	2.05496	1.88041	2.55413	1.68420	0.94389	1.45462	1.38425	1.25873	0.72943	0.61398	0.50858	3.73223	3.14175	2.53090
87760	0.30822	0.34012	0.21554	2.27303	2.10276	1.86147	2.57282	1.69108	0.94043	1.43565	1.39595	1.26371	0.73528	0.61200	0.50005	3.78894	3.10682	2.45172
87920	0.30065	0.34494	0.22294	2.26308	2.10573	1.89107	2.57293	1.68500	0.93295	1.44132	1.41231	1.28002	0.73775	0.59665	0.48852	3.74914	3.11193	2.44244
88090	0.29243	0.32360	0.20402	2.21804	2.06805	1.87108	2.54222	1.67125	0.94276	1.43211	1.39953	1.28911	0.73388	0.62634	0.51024	3.76389	3.09444	2.43800
88250	0.31980	0.35444	0.21076	2.20794	2.06615	1.88030	2.58079	1.70334	0.93036	1.47555	1.41627	1.24536	0.74034	0.61441	0.51630	3.76022	3.09229	2.46177
88420	0.30434	0.33530	0.21810	2.24421	2.09279	1.87125	2.55792	1.69963	0.94172	1.47820	1.40117	1.27993	0.74624	0.60374	0.51648	3.75216	3.09414	2.43347
88580	0.30580	0.34576	0.21090	2.35464	2.13557	1.88094	2.57070	1.70690	0.96893	1.46475	1.36878	1.25797	0.75712	0.61904	0.48280	3.76090	3.07725	2.43014	24.54	6.2	0.00	7.33	0.01275	0.01290	0.01677	0.00776	0.00579	0.00634	0.00468	0.01266	0.01688	0.00676	0.00693	0.00898	0.01491	0.01097	0.01198	0.00216	0.00614	0.00865
88750	0.30624	0.32829	0.19772	2.22057	2.02244	1.88101	2.54634	1.67286	0.91222	1.41928	1.36670	1.24529	0.72157	0.59942	0.49584	3.77066	3.09761	2.44859
88910	0.29768	0.32825	0.20028	2.20262	2.08328	1.85974	2.55172	1.67787	0.92059	1.42240	1.38370	1.25053	0.73046	0.59950	0.47715	3.71768	3.07791	2.41198
89080	0.28587	0.33388	0.19944	2.19114	2.04246	1.84824	2.56400	1.66964	0.93263	1.44501	1.44928	1.31467	0.74110	0.59483	0.49286	3.75958	3.10988	2.48489
89240	0.29691	0.33708	0.20192	2.21218	2.03321	1.86982	2.54188	1.68505	0.92916	1.47166	1.39075	1.25984	0.74103	0.60821	0.50416	3.86916	3.12790	2.45382
89410	0.28940	0.32905	0.20255	2.19103	2.05759	1.86746	2.55802	1.67751	0.93587	1.43757	1.38436	1.23834	0.74147	0.59781	0.50677	3.74808	3.09382	2.43556
89570	0.28920	0.33088	0.19403	2.21782	2.06272	1.84663	2.54418	1.68533	0.91004	1.45312	1.40145	1.26637	0.74039	0.60144	0.49479	3.72932	3.07075	2.41112
89730	0.30771	0.34020	0.19912	2.20721	2.05330	1.83795	2.53497	1.67484	0.92822	1.40808	1.37488	1.28429	0.73700	0.60311	0.50634	3.73582	3.08953	2.44064
89900	0.28690	0.32691	0.19176	2.21961	2.06559	1.87968	2.56252	1.66795	0.92507	1.41242	1.37766	1.26752	0.73323	0.59398	0.49841	3.72456	3.04766	2.40973
90060	0.29645	0.34934	0.20566	2.19431	2.08700	1.84510	2.57488	1.69451	0.92765	1.44286	1.37654	1.26277	0.74661	0.60087	0.50512	3.75975	3.11935	2.44985
90230	0.31126	0.34184	0.19569	2.21111	2.07002	1.87507	2.57023	1.69621	0.93270	1.44840	1.39027	1.25959	0.72272	0.60665	0.48964	3.73546	3.12553	2.46619	24.54	6.1	0.00	7.39	0.01275	0.01290	0.01677	0.00776	0.00579	0.00634	0.00468	0.01266	0.01688	0.00676	0.00693	0.00897	0.01491	0.01097	0.01198	0.00216	0.00614	0.00865
90390	0.28348	0.33333	0.20209	2.21548	2.08431	1.88669	2.54606	1.68714	0.92628	1.44960	1.39979	1.25657	0.73978	0.59398	0.50636	3.75677	3.08964	2.39770
90560	0.29563	0.33718	0.22104	2.23310	2.09419	1.89439	2.53474	1.67657	0.92950	1.43143	1.38691	1.24699	0.73192	0.59290	0.49723	3.74121	3.08961	2.42827
90720	0.28283	0.33686	0.20468	2.22804	2.09740	1.88042	2.55552	1.69328	0.93013	1.43908	1.37767	1.25939	0.73344	0.58415	0.49288	3.76165	3.06502	2.46435
90890	0.29065	0.32638	0.19119	2.20741	2.05892	1.85213	2.54204	1.67905	0.92291	1.43419	1.39080	1.26710	0.74219	0.60141	0.49745	3.74504	3.07720	2.40852
91050	0.29336	0.32979	0.19269	2.20100	2.06128	1.83763	2.55741	1.69498	0.92115	1.43440	1.38233	1.27652	0.74189	0.59711	0.50331	3.72349	3.10326	2.48822
91220	0.29144	0.34203	0.20555	2.23685	2.06286	1.87174	2.54677	1.67341	0.91734	1.48635	1.39816	1.26464	0.73825	0.59677	0.50426	3.75715	3.11131	2.46844
91380	0.29220	0.33201	0.20730	2.25141	2.09127	1.87984	2.56173	1.69877	0.95016	1.42462	1.41807	1.27304	0.76646	0.61256	0.50398	3.74537	3.09276	2.49508
91550	0.30262	0.33796	0.19926	2.22194	2.05126	1.87138	2.54821	1.68115	0.92922	1.46677	1.39122	1.28312	0.73512	0.59125	0.49528	3.74406	3.09950	2.43522
91710	0.29590	0.31925	0.20803	2.22454	2.05520	1.86947	2.56025	1.70232	0.97164	1.40793	1.36466	1.30334	0.73882	0.60155	0.50820	3.75036	3.06837	2.41960
91880	0.30478	0.33110	0.20004	2.18825	2.04819	1.82784	2.55798	1.69031	0.92786	1.40927	1.36789	1.27816	0.72038	0.60904	0.49570	3.74210	3.12761	2.47731	24.48	6.1	0.00	7.32	0.01275	0.01290	0.01677	0.00776	0.00579	0.00634	0.00468	0.01266	0.01688	0.00676	0.00693	0.00897	0.01491	0.01097	0.01198	0.00216	0.00614	0.00864
92040	0.30546	0.33599	0.19833	2.23580	2.07904	1.84950	2.55020	1.69774	0.92638	1.43800	1.36196	1.24980	0.74021	0.61282	0.53679	3.75311	3.06909	2.45105
92200	0.30009	0.32824	0.21362	2.22322	2.09002	1.94357	2.56799	1.70670	0.95869	1.44680	1.42681	1.30906	0.73854	0.61461	0.50936	3.77060	3.13239	2.50056
92370	0.31027	0.36095	0.20887	2.23655	2.05386	1.89988	2.57003	1.69969	0.95510	1.43195	1.39148	1.27513	0.74851	0.61356	0.52725	3.72716	3.08202	2.43910
92530	0.31052	0.35280	0.21927	2.23118	2.11961	1.88890	2.59590	1.75351	0.96208	1.47067	1.41468	1.28238	0.74581	0.62027	0.52140	3.75546	3.09719	2.51525
92700	0.30993	0.38183	0.24173	2.27145	2.09955	1.93090	2.57981	1.70685	0.93934	1.49483	1.45743	1.27372	0.76209	0.60096	0.50046	3.81110	3.11809	2.46783
92860	0.30218	0.34068	0.21745	2.24140	2.08901	1.89514	2.59489	1.69058	0.94850	1.46750	1.44648	1.29259	0.74884	0.60860	0.51214	3.71689	3.07067	2.43229
93030	0.29511	0.33581	0.21379	2.19586	2.05392	1.84296	2.56254	1.67801	0.91489	1.44135	1.38269	1.24373	0.73016	0.60882	0.50153	3.74560	3.08796	2.42164
93190	0.29979	0.34494	0.22368	2.23789	2.07540	1.90111	2.55094	1.69069	0.92441	1.45272	1.39531	1.29554	0.74732	0.59476	0.49479	3.73613	3.11037	2.46805
93360	0.31147	0.33389	0.21001	2.20564	2.08367	1.88873	2.55683	1.69349	0.93701	1.43963	1.50924	1.38526	0.75328	0.61408	0.50615	3.74648	3.07839	2.41925
93520	0.29560	0.32194	0.20247	2.23301	2.06865	1.85213	2.55083	1.70870	0.96329	1.40538	1.35889	1.24702	0.74432	0.59451	0.49009	3.73064	3.05947	2.38549	24.54	6.2	0.00	7.45	0.01275	0.01290	0.01677	0.00776	0.00579	0.00634	0.00468	0.01266	0.01687	0.00676	0.00693	0.00897	0.01490	0.01097	0.01198	0.00216	0.00614	0.00864
93680	0.29268	0.32768	0.19500	2.19976	2.02701	1.85107	2.55912	1.66890	0.92342	1.41442	1.40619	1.25185	0.73507	0.60409	0.49653	3.72042	3.08689	2.45019
93850	0.29307	0.32324	0.19216	2.20352	2.04660	1.86100	2.56007	1.67805	0.92116	1.41776	1.36203	1.25965	0.72199	0.60140	0.49897	3.69805	3.06875	2.43785
94010	0.29736	0.33116	0.20270	2.21867	2.02737	1.84708	2.56898	1.68531	0.93344	1.40837	1.37275	1.24428	0.75885	0.62586	0.49705	3.70869	3.05488	2.42980
94170	0.29680	0.34557	0.20845	2.19487	2.05893	1.86606	2.54720	1.68484	0.92826	1.42882	1.37475	1.25190	0.74864	0.61878	0.49348	3.73754	3.09320	2.45046
94340	0.29081	0.33352	0.21521	2.24132	2.08377	1.85838	2.58754	1.68689	0.92186	1.49461	1.37629	1.26814	0.74383	0.61962	0.50821	3.75495	3.12300	2.42023
94500	0.28905	0.33296	0.21126	2.20076	2.07857	1.87113	2.54185	1.69918	0.95572	1.44328	1.40294	1.32795	0.72758	0.60177	0.49590	3.74454	3.07656	2.45994
94670	0.29773	0.33610	0.20696	2.23055	2.06508	1.88212	2.54891	1.69082	0.93772	1.42338	1.38551	1.26112	0.75880	0.61096	0.48638	3.73540	3.11399	2.44414
94830	0.28886	0.33476	0.21188	2.24830	2.07537	1.90473	2.55592	1.68060	0.93332	1.45257	1.38824	1.25722	0.74086	0.61067	0.49825	3.69827	3.10080	2.40608
94990	0.31397	0.33083	0.20041	2.19242	2.04316	1.85788	2.56249	1.68876	0.92467	1.44892	1.38178	1.27772	0.73391	0.61029	0.50298	3.75046	3.09423	2.43294
95160	0.28861	0.34377	0.22092	2.20684	2.09254	1.90405	2.55352	1.69555	0.95571	1.48694	1.40863	1.28330	0.77651	0.60731	0.48812	3.79681	3.14383	2.46879	24.54	6.2	0.00	6.46	0.01275	0.01290	0.01677	0.00776	0.00579	0.00634	0.00468	0.01266	0.01687	0.00676	0.00693	0.00897	0.01490	0.01097	0.01198	0.00216	0.00614	0.00864
95320	0.32139	0.35536	0.21063	2.24143	2.11670	1.92495	2.55772	1.70305	0.94767	1.42807	1.41913	1.27276	0.76107	0.65041	0.52018	3.78234	3.12893	2.49003
95480	0.32462	0.36342	0.22610	2.22537	2.07017	1.87640	2.55633	1.68996	0.94413	1.48975	1.41211	1.28956	0.76273	0.61797	0.50164	3.77201	3.11166	2.45062
95650	0.29626	0.33883	0.22570	2.31221	2.14845	1.93406	2.56800	1.70009	0.94440	1.46715	1.42506	1.29438	0.75546	0.62520	0.50847	3.81312	3.11699	2.47842
95810	0.31591	0.34435	0.22519	2.24927	2.10839	1.91128	2.56471	1.69564	0.95977	1.50689	1.43263	1.27700	0.73948	0.62336	0.51604	3.73721	3.09466	2.50401
95980	0.30808	0.34890	0.22756	2.22611	2.06801	1.90050	2.54480	1.69894	0.93579	1.43556	1.39032	1.27896	0.75419	0.60546	0.50711	3.71950	3.09103	2.43991
96140	0.30161	0.33709	0.21380	2.23581	2.09271	1.91234	2.57031	1.68152	0.93948	1.46529	1.42356	1.29744	0.74560	0.62627	0.50602	3.76620	3.14199	2.45565
96310	0.29976	0.32727	0.21593	2.22616	2.07853	1.92124	2.57757	1.68538	0.93595	1.44824	1.41015	1.29754	0.75286	0.63523	0.50644	3.72463	3.10056	2.46286
96470	0.29998	0.33101	0.21019	2.20907	2.04651	1.86010	2.55116	1.69484	0.93734	1.42843	1.38290	1.24827	0.75926	0.60921	0.49461	3.71311	3.07681	2.44087
96630	0.29951	0.33032	0.19399	2.18192	2.03108	1.86171	2.55509	1.67742	0.93856	1.39389	1.37446	1.25807	0.72942	0.61369	0.49399	3.71737	3.06916	2.42183
96800	0.29083	0.32481	0.20334	2.22862	2.06020	1.87088	2.56264	1.69087	0.92178	1.43795	1.37938	1.26714	0.73759	0.61679	0.53073	3.75746	3.10514	2.44051	24.60	6.1	0.00	7.32	0.01275	0.01290	0.01677	0.00776	0.00579	0.00634	0.00468	0.01266	0.01687	0.00676	0.00693	0.00897	0.01490	0.01097	0.01198	0.00216	0.00614	0.00864
96960	0.30223	0.33637	0.20867	2.27191	2.10897	1.89051	2.58276	1.69155	0.94671	1.43717	1.41890	1.28642	0.75986	0.60274	0.50160	3.77162	3.10373	2.43252
97120	0.31416	0.34242	0.22058	2.22780	2.06249	1.87190	2.56027	1.70254	0.96112	1.45114	1.41546	1.25672	0.73907	0.60599	0.49072	3.74026	3.10996	2.42943
97290	0.30086	0.33215	0.20834	2.21692	2.05147	1.88654	2.53892	1.66736	0.94634	1.39976	1.37483	1.23994	0.72381	0.59412	0.48744	3.71086	3.02810	2.42295
97450	0.29040	0.32472	0.19107	2.17091	2.02024	1.84282	2.53741	1.66297	0.92290	1.45158	1.40048	1.24333	0.73291	0.60073	0.50169	3.74169	3.06389	2.44055
97620	0.29283	0.35191	0.21493	2.19567	2.06408	1.84403	2.54128	1.67277	0.93380	1.43641	1.37349	1.25024	0.73317	0.61413	0.49435	3.74267	3.07977	2.42929
97780	0.30973	0.33317	0.20240	2.23229	2.08084	1.91318	2.57022	1.68468	0.92604	1.48065	1.44778	1.28469	0.75520	0.64360	0.51459	3.74787	3.12063	2.49439
97940	0.33443	0.37483	0.23556	2.26060	2.08793	1.92549	2.62126	1.73081	1.00800	1.49456	1.43525	1.32823	0.77324	0.69195	0.53380	3.85117	3.20559	2.57159
98110	0.31824	0.37091	0.23164	2.30438	2.17499	1.97919	2.58567	1.73140	0.94997	1.48240	1.44463	1.32983	0.76842	0.63113	0.53412	3.85604	3.19944	2.58745
98270	0.33825	0.34340	0.23760	2.32251	2.11688	1.94062	2.61212	1.71614	0.95131	1.48603	1.46276	1.32363	0.75833	0.64550	0.51272	3.79036	3.11483	2.46851
98440	0.31900	0.36299	0.22046	2.24844	2.08137	1.96612	2.55977	1.71016	0.94502	1.49103	1.41550	1.30425	0.75428	0.62276	0.53150	3.84922	3.10821	2.46970	24.60	6.1	0.00	7.33	0.01275	0.01290	0.01677	0.00776	0.00579	0.00634	0.00468	0.01266	0.01687	0.00676	0.00693	0.00897	0.01490	0.01097	0.01198	0.00216	0.00614	0.00864
98600	0.30992	0.35045	0.23718	2.26750	2.07691	1.89898	2.58520	1.71483	0.95618	1.46998	1.41405	1.28395	0.75733	0.61945	0.51514	3.75805	3.13302	2.45993
98760	0.30868	0.33611	0.20519	2.21607	2.05606	1.91666	2.54980	1.68011	0.92154	1.44538	1.41102	1.26441	0.73380	0.61308	0.49730	3.74775	3.10556	2.44222
98930	0.29723	0.32728	0.19278	2.25035	2.05456	1.89186	2.56412	1.68882	0.92411	1.46892	1.40353	1.27961	0.73489	0.61036	0.49001	3.76704	3.06666	2.43192
99090	0.29074	0.33341	0.21179	2.22313	2.04791	1.87827	2.55959	1.67883	0.94016	1.46505	1.44419	1.27007	0.72211	0.61783	0.49381	3.74490	3.10118	2.42355
99250	0.30342	0.34476	0.22241	2.23706	2.07333	1.89370	2.57870	1.68698	0.94512	1.44320	1.39519	1.28632	0.73413	0.59321	0.50259	3.70203	3.11678	2.44761
99420	0.30325	0.35110	0.21704	2.21345	2.06640	1.88862	2.55299	1.69791	0.93353	1.46157	1.40300	1.25889	0.73789	0.61251	0.50104	3.72533	3.09790	2.43121
99580	0.29105	0.33775	0.20294	2.22441	2.08009	1.89055	2.56886	1.68959	0.93002	1.42101	1.38727	1.29095	0.74237	0.60132	0.49766	3.75613	3.10463	2.46272
99740	0.28727	0.33339	0.20830	2.22844	2.07534	1.87672	2.54663	1.69567	0.92405	1.42510	1.37951	1.27583	0.73679	0.60974	0.50555	3.72205	3.07319	2.43858
99910	0.31123	0.35030	0.20013	2.21222	2.05591	1.89366	2.55462	1.68775	0.94115	1.43439	1.37761	1.28151	0.72842	0.59989	0.49429	3.73063	3.09594	2.44453
100070	0.28568	0.33573	0.20730	2.21068	2.05460	1.88198	2.54651	1.67817	0.92254	1.42820	1.36653	1.24168	0.73993	0.59655	0.49684	3.74870	3.09158	2.43530	24.60	6.1	0.00	7.28	0.01275	0.01290	0.01677	0.00776	0.00579	0.00634	0.00468	0.01266	0.01687	0.00676	0.00693	0.00897	0.01490	0.01097	0.01198	0.00216	0.00614	0.00864
100230	0.29291	0.32738	0.19650	2.21776	2.07076	1.86522	2.53779	1.68505	0.91713	1.41086	1.37191	1.22687	0.72794	0.60838	0.49790	3.75708	3.06009	2.42749
100400	0.28294	0.33958	0.20494	2.17972	2.04594	1.85200	2.55893	1.70072	0.93221	1.44178	1.41145	1.29657	0.73661	0.60075	0.49795	3.77462	3.09370	2.42615
100560	0.28495	0.32558	0.21137	2.22401	2.04929	1.86681	2.58127	1.69207	0.93929	1.41113	1.37275	1.27082	0.73530	0.60875	0.50855	3.77901	3.12015	2.44639
100720	0.30557	0.33551	0.20694	2.25888	2.09522	1.87452	2.58080	1.70167	0.93943	1.42125	1.42330	1.31616	0.74563	0.62252	0.52786	3.80105	3.12304	2.47383
100890	0.33668	0.37827	0.22651	2.25771	2.10762	1.89005	2.56050	1.69057	0.92336	1.43897	1.42803	1.27470	0.73740	0.61722	0.50799	3.75510	3.11758	2.46347
101050	0.31100	0.33398	0.20938	2.25577	2.10605	1.92107	2.56610	1.69798	0.95209	1.44546	1.42143	1.30950	0.76583	0.62241	0.50575	3.75883	3.10416	2.48395
101210	0.29907	0.34400	0.21247	2.20551	2.05265	1.86127	2.55872	1.69950	0.93905	1.43283	1.40658	1.33426	0.74299	0.62119	0.50872	3.77665	3.09331	2.47903
101380	0.32240	0.34918	0.23338	2.27206	2.10060	1.89942	2.55088	1.70227	0.95358	1.45727	1.45214	1.35001	0.78514	0.62094	0.52091	3.78170	3.12999	2.46625
101540	0.31649	0.34112	0.21792	2.24883	2.12222	1.88839	2.57685	1.69934	0.93059	1.44616	1.40584	1.33463	0.75058	0.60005	0.51379	3.77040	3.10285	2.45385
101710	0.31497	0.35370	0.21721	2.24658	2.06152	1.87530	2.58467	1.70579	0.97312	1.45818	1.36842	1.23942	0.75977	0.62409	0.51905	3.74699	3.11297	2.45286	24.60	6.1	0.00	7.33	0.01275	0.01290	0.01677	0.00776	0.00579	0.00634	0.00468	0.01265	0.01687	0.00676	0.00693	0.00897	0.01490	0.01097	0.01198	0.00216	0.00614	0.00864
101870	0.30740	0.38897	0.21788	2.22185	2.06613	1.85791	2.56229	1.68388	0.95551	1.46053	1.40600	1.27871	0.74872	0.60825	0.51358	3.72610	3.11888	2.46478
102030	0.31122	0.35528	0.20788	2.27793	2.09918	1.90438	2.55882	1.70737	0.95485	1.44963	1.42892	1.29233	0.76559	0.63293	0.52343	3.74601	3.11543	2.44696
