WetView ver 7.1	07-19-2018	17:29:06
AC9 Absorption and Attenuation Meter
00000266		; Serial number
2	; structure version number
Reserved
0.000000	0.000000		; Depth calibration
19200			; Baud rate
0.100000			; Path length (meters)
31			; number of temperature calibration bins
				12.59339	13.44920	14.48425	15.49668	16.50852	17.49564	18.50545	19.52458	20.50176	21.48889	22.47318	23.48707	24.50962	25.49370	26.49784	27.51372	28.50746	29.47237	30.47938	31.50214	32.50470	33.49235	34.50337	35.50914	36.50618	37.52058	38.51018	39.51308	40.49994	41.49866	42.47204	; temperature bins
a650	Blue	20.34952		-0.00383	-0.00415	-0.00430	-0.00391	-0.00363	-0.00317	-0.00269	-0.00237	-0.00179	-0.00130	-0.00099	-0.00071	-0.00015	0.00000	0.00004	-0.00001	0.00015	0.00036	0.00058	0.00101	0.00161	0.00132	0.00160	0.00169	0.00242	0.00273	0.00336	0.00365	0.00427	0.00566	0.00670		; offset and temperature correction info
a676	Green	20.51193		-0.00398	-0.00384	-0.00360	-0.00306	-0.00302	-0.00255	-0.00235	-0.00212	-0.00163	-0.00136	-0.00118	-0.00089	-0.00029	0.00000	0.00068	0.00082	0.00099	0.00137	0.00145	0.00212	0.00260	0.00252	0.00321	0.00354	0.00457	0.00535	0.00617	0.00648	0.00742	0.00887	0.01002		; offset and temperature correction info
a715	Brown	20.23230		-0.00421	-0.00394	-0.00391	-0.00291	-0.00264	-0.00192	-0.00204	-0.00179	-0.00188	-0.00239	-0.00180	-0.00187	-0.00099	0.00000	0.00084	0.00162	0.00188	0.00224	0.00321	0.00381	0.00466	0.00528	0.00588	0.00696	0.00859	0.01041	0.01148	0.01282	0.01333	0.01456	0.01617		; offset and temperature correction info
c510	Red	20.40042		-0.00261	-0.00247	-0.00258	-0.00225	-0.00203	-0.00197	-0.00199	-0.00203	-0.00154	-0.00103	-0.00069	-0.00019	-0.00007	0.00000	0.00011	-0.00021	-0.00042	-0.00056	-0.00040	0.00011	0.00036	0.00050	0.00077	0.00079	0.00050	0.00042	0.00043	0.00092	0.00147	0.00200	0.00232		; offset and temperature correction info
c532	Magenta	20.40760		-0.00248	-0.00265	-0.00278	-0.00279	-0.00296	-0.00292	-0.00238	-0.00206	-0.00129	-0.00096	-0.00092	-0.00052	-0.00009	0.00000	0.00007	-0.00049	-0.00136	-0.00107	-0.00079	-0.00065	-0.00074	-0.00105	-0.00152	-0.00192	-0.00236	-0.00269	-0.00252	-0.00233	-0.00172	-0.00128	-0.00067		; offset and temperature correction info
c555	Black	20.50654		-0.00053	-0.00063	-0.00106	-0.00094	-0.00068	-0.00055	-0.00053	-0.00039	-0.00028	-0.00025	-0.00011	-0.00035	-0.00007	0.00000	-0.00037	-0.00055	-0.00036	-0.00014	0.00019	0.00044	0.00032	0.00040	0.00050	0.00028	0.00014	0.00013	0.00030	0.00073	0.00117	0.00176	0.00241		; offset and temperature correction info
a412	LtBlue	17.15231		-0.01972	-0.01823	-0.01612	-0.01381	-0.01272	-0.01080	-0.00959	-0.00866	-0.00710	-0.00532	-0.00354	-0.00148	-0.00028	0.00000	0.00176	0.00297	0.00394	0.00440	0.00453	0.00487	0.00804	0.00856	0.01065	0.01248	0.01388	0.01439	0.01659	0.01881	0.02256	0.02450	0.02719		; offset and temperature correction info
a440	LtGreen	18.00171		-0.00729	-0.00642	-0.00581	-0.00502	-0.00426	-0.00349	-0.00244	-0.00218	-0.00179	-0.00101	-0.00046	-0.00006	0.00036	0.00000	0.00040	0.00045	0.00030	-0.00015	-0.00024	-0.00035	0.00012	-0.00013	-0.00033	-0.00089	-0.00142	-0.00189	-0.00231	-0.00205	-0.00140	-0.00140	-0.00146		; offset and temperature correction info
a488	Yellow	18.86491		-0.00113	-0.00102	-0.00106	-0.00064	-0.00027	-0.00020	-0.00030	-0.00037	-0.00047	-0.00059	-0.00052	-0.00012	0.00008	0.00000	0.00025	0.00012	-0.00013	-0.00043	-0.00065	-0.00076	-0.00025	0.00010	0.00090	0.00111	0.00113	0.00104	0.00073	0.00068	0.00120	0.00186	0.00258		; offset and temperature correction info
c650	Blue	20.46075		-0.00145	-0.00097	-0.00092	-0.00139	-0.00185	-0.00196	-0.00237	-0.00266	-0.00238	-0.00163	-0.00083	-0.00041	-0.00010	0.00000	0.00005	-0.00001	0.00015	0.00034	0.00029	0.00065	0.00101	0.00164	0.00126	0.00156	0.00175	0.00270	0.00287	0.00371	0.00407	0.00473	0.00534		; offset and temperature correction info
c676	Green	20.10118		-0.00170	-0.00144	-0.00149	-0.00177	-0.00188	-0.00194	-0.00198	-0.00196	-0.00177	-0.00156	-0.00140	-0.00091	-0.00033	0.00000	0.00050	0.00092	0.00110	0.00141	0.00167	0.00199	0.00216	0.00265	0.00269	0.00289	0.00315	0.00374	0.00367	0.00408	0.00486	0.00561	0.00646		; offset and temperature correction info
c715	Brown	19.91219		-0.01201	-0.01097	-0.00859	-0.00680	-0.00651	-0.00592	-0.00535	-0.00440	-0.00387	-0.00303	-0.00222	-0.00153	-0.00028	0.00000	0.00093	0.00149	0.00247	0.00322	0.00330	0.00427	0.00373	0.00464	0.00536	0.00551	0.00643	0.00733	0.00779	0.00884	0.00899	0.01021	0.01120		; offset and temperature correction info
a510	Red	19.21192		0.00201	0.00193	0.00158	0.00098	0.00089	0.00049	0.00011	-0.00016	-0.00016	-0.00005	0.00028	0.00025	0.00006	0.00000	0.00035	-0.00022	-0.00023	-0.00080	-0.00144	-0.00154	-0.00153	-0.00204	-0.00220	-0.00219	-0.00190	-0.00128	-0.00069	-0.00018	0.00068	0.00152	0.00241		; offset and temperature correction info
a532	Magenta	19.41084		-0.00097	-0.00072	-0.00060	-0.00081	-0.00062	-0.00071	-0.00040	0.00020	0.00028	0.00043	0.00000	-0.00035	0.00007	0.00000	-0.00011	-0.00059	-0.00080	-0.00098	-0.00137	-0.00162	-0.00163	-0.00130	-0.00073	-0.00018	0.00090	0.00185	0.00175	0.00247	0.00291	0.00327	0.00349		; offset and temperature correction info
a555	Black	19.69776		0.00171	0.00183	0.00183	0.00186	0.00191	0.00170	0.00115	0.00131	0.00097	0.00073	0.00060	0.00013	0.00015	0.00000	0.00014	-0.00029	-0.00066	-0.00082	-0.00116	-0.00139	-0.00134	-0.00167	-0.00119	-0.00093	-0.00048	0.00053	0.00111	0.00095	0.00178	0.00206	0.00273		; offset and temperature correction info
c412	LtBlue	19.91180		-0.02051	-0.01853	-0.01589	-0.01311	-0.01059	-0.00877	-0.00705	-0.00581	-0.00413	-0.00231	-0.00098	-0.00066	-0.00011	0.00000	-0.00013	-0.00085	-0.00170	-0.00170	-0.00302	-0.00330	-0.00429	-0.00551	-0.00626	-0.00775	-0.00978	-0.01181	-0.01113	-0.01108	-0.01116	-0.01192	-0.01291		; offset and temperature correction info
c440	LtGreen	20.06241		-0.01064	-0.00992	-0.00892	-0.00766	-0.00639	-0.00531	-0.00478	-0.00384	-0.00287	-0.00187	-0.00102	-0.00063	-0.00023	0.00000	-0.00007	-0.00053	-0.00090	-0.00119	-0.00169	-0.00197	-0.00226	-0.00257	-0.00260	-0.00289	-0.00394	-0.00470	-0.00481	-0.00493	-0.00520	-0.00580	-0.00620		; offset and temperature correction info
c488	Yellow	20.35984		-0.01125	-0.01082	-0.00966	-0.00833	-0.00726	-0.00661	-0.00579	-0.00500	-0.00389	-0.00278	-0.00167	-0.00113	-0.00041	0.00000	0.00055	0.00121	0.00187	0.00226	0.00222	0.00251	0.00281	0.00359	0.00414	0.00427	0.00401	0.00404	0.00486	0.00563	0.00638	0.00684	0.00718		; offset and temperature correction info
0.003500	0.004000	0.015000	0.020000	0.015000	0.020000	2500.000000	2000.000000	1000.000000	; maxANoise	maxCNoise	maxADifference	maxCDifference	minACounts	minCCounts	minRCounts	maxTempSdev	maxDepthSdev
0			; auxilliary capabilities
1			; acquisition binsize
0	0.32174	0.26505	0.15954	1.78041	1.41179	1.07157	9.16306	5.38751	2.41152	0.45159	0.39464	0.31952	1.78397	1.34072	1.00441	8.53461	5.08014	2.37361	29.26	6.1	0.00	7.46	0.01267	0.01288	0.01638	0.00780	0.00581	0.00637	0.00467	0.01263	0.01679	0.00677	0.00699	0.00882	0.01486	0.01092	0.01193	0.00216	0.00616	0.00866
170	0.32027	0.26139	0.15871	1.78162	1.41124	1.07066	9.15398	5.38347	2.40867	0.44987	0.39194	0.31669	1.77731	1.33602	0.99739	8.53029	5.07470	2.36830
330	0.32028	0.26348	0.15791	1.78195	1.41306	1.07297	9.14991	5.38644	2.41148	0.45254	0.39493	0.31904	1.78159	1.33909	1.00084	8.52923	5.07941	2.37249
490	0.32073	0.26131	0.15610	1.78065	1.40995	1.06898	9.12909	5.38141	2.40546	0.44714	0.39119	0.31484	1.77618	1.33584	0.99678	8.52552	5.07234	2.36705
660	0.31713	0.25795	0.15474	1.77527	1.40684	1.06609	9.12439	5.37682	2.40579	0.44707	0.39018	0.31489	1.77892	1.33936	1.00318	8.53381	5.07917	2.37260
820	0.32195	0.26056	0.15797	1.77993	1.40964	1.06934	9.14675	5.38470	2.40731	0.44780	0.38992	0.31583	1.77676	1.33720	0.99864	8.52473	5.07327	2.36853
980	0.31960	0.26073	0.15543	1.77620	1.40678	1.06700	9.14405	5.37822	2.40574	0.44688	0.38967	0.31473	1.77937	1.33945	1.00359	8.52932	5.07928	2.37419
1150	0.32318	0.26396	0.15787	1.78206	1.41196	1.07107	9.14686	5.38336	2.40777	0.45010	0.39230	0.31735	1.77944	1.33958	1.00263	8.53267	5.07952	2.37412
1310	0.32378	0.26543	0.15974	1.78256	1.41401	1.07300	9.14652	5.38987	2.41114	0.45239	0.39495	0.31946	1.77840	1.34114	1.00171	8.53231	5.07870	2.37346
1470	0.32067	0.26117	0.15650	1.78081	1.41130	1.07094	9.14451	5.38024	2.40628	0.45007	0.39236	0.31705	1.78007	1.34264	1.00413	8.53408	5.08302	2.37684
1640	0.32375	0.26279	0.15950	1.78153	1.41321	1.07292	9.14503	5.38252	2.40886	0.45151	0.39351	0.31863	1.78001	1.33822	0.99900	8.53181	5.07567	2.36996	29.26	6.3	0.00	7.76	0.01267	0.01288	0.01637	0.00780	0.00580	0.00636	0.00466	0.01263	0.01679	0.00677	0.00699	0.00882	0.01486	0.01092	0.01193	0.00216	0.00616	0.00866
1800	0.31881	0.26139	0.15643	1.77760	1.40815	1.06714	9.14824	5.37904	2.40580	0.44748	0.39003	0.31558	1.77920	1.34041	1.00090	8.53437	5.07746	2.37106
1960	0.32038	0.26193	0.15712	1.77951	1.41072	1.06964	9.15163	5.38181	2.40963	0.45001	0.39212	0.31736	1.77794	1.34019	0.99906	8.52978	5.07504	2.37055
2130	0.31856	0.26006	0.15469	1.77857	1.40820	1.06738	9.13493	5.37550	2.40640	0.44752	0.39059	0.31448	1.77425	1.33523	0.99712	8.52176	5.06972	2.36581
2290	0.31775	0.26222	0.15713	1.77564	1.41058	1.07066	9.14807	5.38845	2.40865	0.45138	0.39520	0.31858	1.77823	1.34194	1.00151	8.53216	5.07787	2.37196
2450	0.31997	0.26080	0.15512	1.77942	1.40958	1.06779	9.14009	5.38357	2.40557	0.44784	0.39128	0.31573	1.77612	1.33716	0.99695	8.52696	5.07353	2.36708
2620	0.32182	0.26019	0.15986	1.77975	1.41015	1.07096	9.15048	5.38401	2.40896	0.44984	0.39241	0.31710	1.77759	1.33834	1.00030	8.52960	5.07599	2.37070
2780	0.31998	0.26090	0.15422	1.77784	1.40762	1.06648	9.13935	5.38065	2.40265	0.44653	0.38909	0.31394	1.77313	1.33572	0.99492	8.52916	5.06990	2.36512
2940	0.31517	0.26120	0.15698	1.77649	1.40880	1.06802	9.15502	5.37850	2.40863	0.44843	0.39110	0.31595	1.77573	1.33779	0.99558	8.52590	5.06970	2.36513
3100	0.31762	0.25982	0.15306	1.77415	1.40501	1.06388	9.19878	5.38351	2.39551	0.44500	0.38758	0.31270	1.70880	1.23196	0.89330	8.52043	5.06633	2.36153
3270	0.22814	0.17671	0.09229	1.76843	1.40211	1.05930	8.54803	5.22056	2.31190	0.44161	0.38465	0.30859	1.67051	1.07794	0.66508	8.51880	5.06951	2.36482	29.26	6.1	0.00	7.55	0.01267	0.01288	0.01637	0.00779	0.00580	0.00636	0.00466	0.01263	0.01679	0.00677	0.00699	0.00882	0.01486	0.01092	0.01193	0.00216	0.00616	0.00866
3430	-0.09696	-0.23045	-0.31171	1.77315	1.40356	1.06169	3.93307	4.28548	2.10187	0.44349	0.38631	0.31130	1.65134	1.19599	0.89536	8.51836	5.06678	2.36173
3600	0.28752	0.30502	0.22421	1.77282	1.40476	1.06336	9.48186	5.47357	2.45892	0.44443	0.38610	0.31179	1.87039	1.46109	1.10650	8.52198	5.06575	2.36031
3760	0.43190	0.36741	0.24196	1.76920	1.40106	1.05907	9.56635	5.47595	2.45143	0.44287	0.38570	0.31017	1.85251	1.43842	1.08559	8.51590	5.06272	2.35775
3920	0.41452	0.35204	0.22864	1.76975	1.40204	1.06178	9.47617	5.45980	2.44770	0.44412	0.38711	0.31273	1.84434	1.42272	1.07287	8.52066	5.06933	2.36400
4090	0.39707	0.33664	0.21606	1.77270	1.40427	1.06330	9.42550	5.44677	2.44155	0.44672	0.38971	0.31553	1.83317	1.41055	1.05955	8.52745	5.07355	2.36766
4250	0.38548	0.32548	0.20779	1.77643	1.40814	1.06563	9.37281	5.43820	2.43152	0.44705	0.38930	0.31431	1.82581	1.39710	1.05147	8.52665	5.07234	2.36707
4420	0.37409	0.31213	0.19842	1.77492	1.40676	1.06468	9.32991	5.42522	2.42545	0.44695	0.38983	0.31396	1.81476	1.38716	1.04072	8.52939	5.07316	2.36776
4580	0.36530	0.30525	0.19172	1.77724	1.40826	1.06639	9.30579	5.41798	2.42426	0.44844	0.39266	0.31647	1.80927	1.38032	1.03563	8.52595	5.07353	2.36789
4740	0.35727	0.29651	0.18390	1.77643	1.40637	1.06351	9.27975	5.40908	2.41848	0.44617	0.38936	0.31406	1.80419	1.37479	1.02817	8.53248	5.07675	2.37189
4910	0.35337	0.29285	0.17983	1.77637	1.40837	1.06543	9.24764	5.40345	2.41877	0.44586	0.38841	0.31403	1.79826	1.36657	1.02251	8.52570	5.07364	2.36797	29.26	6.0	0.00	6.68	0.01267	0.01288	0.01637	0.00779	0.00580	0.00636	0.00466	0.01263	0.01679	0.00677	0.00699	0.00882	0.01486	0.01092	0.01193	0.00216	0.00615	0.00865
5070	0.34725	0.28848	0.17773	1.77763	1.40992	1.06864	9.23929	5.40420	2.42071	0.44899	0.39203	0.31676	1.79622	1.35877	1.01974	8.52914	5.07414	2.36673
5230	0.34076	0.28149	0.17328	1.77478	1.40709	1.06526	9.22955	5.39507	2.41275	0.44598	0.38792	0.31493	1.78964	1.35868	1.01353	8.53011	5.07569	2.36861
5400	0.33896	0.27638	0.17151	1.77764	1.40943	1.06677	9.20838	5.39434	2.41347	0.44729	0.39039	0.31603	1.78675	1.35375	1.01231	8.52375	5.07230	2.36657
5560	0.33374	0.27421	0.16514	1.77467	1.40534	1.06287	9.18934	5.38904	2.40908	0.44455	0.38675	0.31280	1.78021	1.34601	1.00478	8.52234	5.06719	2.36228
5720	0.32807	0.26984	0.16457	1.77226	1.40884	1.06590	9.19199	5.39926	2.41390	0.44729	0.39001	0.31557	1.78160	1.34687	1.00496	8.52887	5.07167	2.36633
5880	0.32909	0.26996	0.16328	1.77497	1.40617	1.06436	9.17441	5.38405	2.40793	0.44471	0.38754	0.31367	1.78075	1.34490	1.00202	8.51705	5.06747	2.36163
6050	0.32396	0.26362	0.16050	1.77154	1.40382	1.06133	9.15606	5.38134	2.40514	0.44181	0.38455	0.31065	1.78111	1.34698	1.00729	8.52446	5.07167	2.36766
6210	0.32649	0.27018	0.16248	1.77751	1.40869	1.06682	9.16923	5.39093	2.41200	0.44752	0.38970	0.31526	1.78138	1.34371	1.00275	8.52490	5.06992	2.36562
6370	0.32582	0.26418	0.15869	1.77369	1.40570	1.06283	9.17671	5.38306	2.40698	0.44348	0.38752	0.31312	1.77980	1.34362	1.00296	8.52411	5.07135	2.36712
6540	0.32529	0.26379	0.15924	1.77289	1.40496	1.06345	9.15776	5.38374	2.40578	0.44379	0.38610	0.31298	1.77605	1.34095	0.99849	8.51940	5.06666	2.36202	29.26	6.2	0.00	7.57	0.01267	0.01288	0.01637	0.00779	0.00580	0.00636	0.00466	0.01262	0.01679	0.00677	0.00698	0.00882	0.01486	0.01092	0.01193	0.00216	0.00615	0.00865
6700	0.31965	0.25799	0.15635	1.76779	1.40069	1.05868	9.15903	5.38090	2.40239	0.44059	0.38372	0.30932	1.77456	1.33866	1.00034	8.52178	5.07051	2.36402
6860	0.32178	0.26052	0.15686	1.77214	1.40556	1.06307	9.15966	5.37935	2.40594	0.44415	0.38634	0.31184	1.77685	1.33688	0.99764	8.52072	5.06712	2.36133
7030	0.31821	0.25977	0.15434	1.76937	1.40067	1.05991	9.14352	5.37559	2.40109	0.44157	0.38390	0.30983	1.77656	1.33711	0.99911	8.52028	5.07155	2.36599
7190	0.32121	0.26428	0.15788	1.77429	1.40622	1.06365	9.14650	5.38008	2.40399	0.44449	0.38704	0.31242	1.77614	1.33833	0.99687	8.51499	5.06701	2.36063
7360	0.32013	0.26306	0.15651	1.77235	1.40571	1.06590	9.15380	5.38396	2.40751	0.44627	0.38772	0.31365	1.77761	1.34005	0.99650	8.51640	5.06824	2.36251
7520	0.31989	0.25939	0.15448	1.77165	1.40503	1.06286	9.16656	5.38112	2.40532	0.44366	0.38759	0.31333	1.77326	1.33582	0.99462	8.51808	5.06699	2.36148
7680	0.32014	0.26085	0.15887	1.77271	1.40617	1.06476	9.15581	5.37951	2.40858	0.44633	0.38926	0.31488	1.77662	1.33820	1.00253	8.52152	5.07354	2.36725
7850	0.31951	0.25989	0.15575	1.77372	1.40381	1.06242	9.14472	5.37654	2.40317	0.44340	0.38439	0.31119	1.77308	1.33523	0.99491	8.51649	5.06718	2.36163
8010	0.31909	0.26171	0.15724	1.77537	1.40970	1.06774	9.14909	5.38340	2.40834	0.44665	0.38894	0.31488	1.77546	1.33693	0.99639	8.52311	5.07170	2.36529
8170	0.31822	0.26116	0.15489	1.77230	1.40504	1.06341	9.16273	5.37874	2.40448	0.44321	0.38560	0.31233	1.77027	1.33288	0.99254	8.51046	5.06248	2.35897	29.26	6.2	0.00	7.43	0.01267	0.01288	0.01637	0.00779	0.00580	0.00636	0.00466	0.01262	0.01679	0.00676	0.00698	0.00882	0.01485	0.01092	0.01193	0.00216	0.00615	0.00865
8340	0.31635	0.25443	0.15067	1.76762	1.40023	1.05987	9.13613	5.37200	2.39876	0.43946	0.38281	0.30915	1.77452	1.33564	0.99682	8.51716	5.06896	2.36488
8500	0.31900	0.25917	0.15443	1.77153	1.40413	1.06252	9.14101	5.37782	2.40472	0.44389	0.38474	0.31215	1.77132	1.33236	0.99472	8.51346	5.06539	2.36019
8660	0.31574	0.25652	0.15331	1.76881	1.40110	1.05978	9.14572	5.37359	2.39976	0.44101	0.38339	0.30899	1.77314	1.33460	0.99798	8.51875	5.06680	2.36184
8830	0.31793	0.26031	0.15522	1.76966	1.40387	1.06198	9.14859	5.37932	2.40338	0.44330	0.38490	0.31145	1.77325	1.33177	0.99580	8.51478	5.06518	2.36146
8990	0.31650	0.25723	0.15534	1.77080	1.40479	1.06310	9.13544	5.37945	2.40333	0.44265	0.38498	0.31193	1.77448	1.33629	0.99296	8.51901	5.06481	2.36265
9150	0.31704	0.26007	0.15422	1.77035	1.40318	1.06152	9.14468	5.37334	2.40153	0.44127	0.38427	0.31008	1.77526	1.33610	0.99606	8.51452	5.06488	2.36063
9320	0.31706	0.25822	0.15488	1.77008	1.40345	1.06189	9.13682	5.37958	2.40384	0.44264	0.38626	0.31219	1.77267	1.33191	0.99322	8.51628	5.06464	2.36013
9480	0.31559	0.25795	0.15408	1.76881	1.40161	1.06053	9.13292	5.37604	2.40058	0.44075	0.38458	0.30937	1.77554	1.33463	0.99619	8.51901	5.06749	2.36367
9640	0.31814	0.26242	0.15561	1.77216	1.40537	1.06231	9.13562	5.38288	2.40587	0.44323	0.38567	0.31178	1.77408	1.33689	0.99582	8.51178	5.06529	2.36004
9810	0.31722	0.25572	0.15223	1.76773	1.40171	1.05904	9.13412	5.37388	2.39824	0.43901	0.38291	0.30890	1.77455	1.33356	0.99534	8.51679	5.06631	2.36217	29.26	6.1	0.00	7.53	0.01267	0.01288	0.01637	0.00779	0.00580	0.00636	0.00466	0.01262	0.01679	0.00676	0.00698	0.00882	0.01485	0.01092	0.01193	0.00216	0.00615	0.00865
9970	0.32098	0.25934	0.15438	1.77209	1.40483	1.06329	9.15295	5.37795	2.40575	0.44395	0.38639	0.31318	1.77283	1.33438	0.99586	8.52120	5.06490	2.36026
10130	0.31743	0.25968	0.15525	1.76875	1.40259	1.06078	9.14801	5.37890	2.40295	0.44164	0.38445	0.31074	1.77230	1.33255	0.99291	8.51643	5.06198	2.35741
10300	0.31533	0.25865	0.15494	1.76595	1.40085	1.05885	9.13010	5.37687	2.40124	0.44083	0.38334	0.30999	1.77253	1.33157	0.99202	8.51176	5.06190	2.35659
10460	0.31622	0.25640	0.15285	1.76557	1.39908	1.05601	9.13303	5.37198	2.39828	0.43843	0.38254	0.30740	1.77249	1.33190	0.99494	8.51247	5.06410	2.35971
10620	0.31856	0.25889	0.15667	1.76921	1.40229	1.06049	9.14634	5.37804	2.40392	0.44176	0.38511	0.31000	1.77127	1.33338	0.99265	8.50859	5.06118	2.35727
10790	0.31755	0.25676	0.15398	1.76532	1.39868	1.05743	9.13698	5.37222	2.40058	0.43813	0.38191	0.30723	1.77279	1.33334	0.99844	8.51308	5.06389	2.36025
10950	0.32067	0.25999	0.15776	1.76825	1.40194	1.06062	9.12718	5.37971	2.40234	0.44110	0.38399	0.31088	1.77131	1.33098	0.99302	8.51987	5.06056	2.35735
11120	0.31853	0.25785	0.15749	1.76807	1.40294	1.05993	9.15249	5.37603	2.40765	0.44278	0.38555	0.31212	1.77458	1.33631	0.99597	8.51564	5.06328	2.35921
11280	0.31707	0.25907	0.15528	1.76633	1.40050	1.05842	9.13825	5.37792	2.40297	0.44110	0.38365	0.31054	1.77183	1.33451	0.99416	8.51882	5.06131	2.35714
11440	0.31624	0.26177	0.15707	1.76969	1.40289	1.06250	9.14789	5.38177	2.40752	0.44346	0.38655	0.31317	1.77630	1.33744	0.99898	8.51797	5.06552	2.35987	29.20	6.2	0.00	7.48	0.01267	0.01288	0.01637	0.00779	0.00580	0.00636	0.00466	0.01262	0.01679	0.00676	0.00698	0.00882	0.01485	0.01092	0.01193	0.00216	0.00615	0.00865
11610	0.31695	0.26032	0.15343	1.76907	1.40149	1.05968	9.13664	5.37629	2.40317	0.44122	0.38262	0.30969	1.77016	1.33069	0.99607	8.51417	5.06015	2.35584
11770	0.31648	0.26138	0.15441	1.76964	1.40333	1.06254	9.13371	5.38298	2.40597	0.44378	0.38627	0.31243	1.77543	1.33656	0.99824	8.51435	5.06379	2.36070
11930	0.31844	0.25799	0.15502	1.76860	1.39995	1.05875	9.12746	5.37120	2.40358	0.44047	0.38308	0.30974	1.77042	1.33133	0.99295	8.51435	5.05782	2.35434
12100	0.31775	0.26004	0.15504	1.76866	1.40243	1.06080	9.13578	5.38332	2.40434	0.44266	0.38478	0.31270	1.77276	1.33581	0.99548	8.51585	5.06223	2.35849
12260	0.31586	0.25733	0.15368	1.76668	1.39862	1.05743	9.12878	5.36816	2.40322	0.43918	0.38199	0.30919	1.76972	1.33058	0.99133	8.50853	5.05929	2.35455
12420	0.31466	0.25545	0.15078	1.76305	1.39805	1.05621	9.13446	5.37374	2.40120	0.43811	0.38077	0.30784	1.77190	1.33144	0.99800	8.51012	5.06072	2.35863
12580	0.31508	0.25678	0.15537	1.76636	1.39937	1.05782	9.13159	5.37707	2.40155	0.43892	0.38172	0.30805	1.77107	1.33061	0.99296	8.51162	5.05827	2.35515
12750	0.31369	0.25747	0.15103	1.76360	1.39644	1.05553	9.13405	5.37237	2.39899	0.43738	0.38093	0.30680	1.77066	1.33303	0.99400	8.51206	5.05951	2.35597
12910	0.31746	0.25880	0.15208	1.76546	1.39865	1.05692	9.13417	5.37047	2.39950	0.43902	0.38204	0.30825	1.77558	1.33653	0.99507	8.51638	5.06260	2.35924
13080	0.31761	0.25833	0.15480	1.76690	1.39996	1.05840	9.14898	5.37693	2.40184	0.43968	0.38331	0.30841	1.77442	1.33210	0.99402	8.51266	5.06082	2.35655	29.26	6.0	0.00	7.84	0.01267	0.01288	0.01637	0.00779	0.00580	0.00636	0.00466	0.01262	0.01678	0.00676	0.00698	0.00882	0.01485	0.01092	0.01193	0.00216	0.00615	0.00865
13240	0.31763	0.25782	0.15460	1.76542	1.39936	1.05822	9.13171	5.37738	2.40357	0.44042	0.38306	0.31015	1.77558	1.33366	0.99555	8.51487	5.05931	2.35730
13410	0.31759	0.25989	0.15450	1.76669	1.39866	1.05765	9.14692	5.37311	2.40105	0.43818	0.38196	0.30893	1.77481	1.33353	0.99750	8.51363	5.06136	2.35776
13570	0.31556	0.25917	0.15416	1.76717	1.39949	1.05820	9.14381	5.37775	2.40201	0.43956	0.38308	0.30982	1.77656	1.33513	0.99561	8.51363	5.06004	2.35586
13740	0.31655	0.25948	0.15238	1.76555	1.39930	1.05830	9.13171	5.37892	2.40178	0.44003	0.38350	0.30950	1.77454	1.33661	0.99481	8.51346	5.05899	2.35562
13900	0.31611	0.25780	0.15407	1.76641	1.40055	1.05810	9.13406	5.37347	2.40171	0.43893	0.38251	0.30851	1.77262	1.33202	0.99515	8.51425	5.05842	2.35634
14060	0.31704	0.26119	0.15639	1.77016	1.40351	1.06212	9.14657	5.38051	2.40568	0.44256	0.38503	0.31160	1.77547	1.33569	0.99882	8.51751	5.06331	2.35920
14230	0.31930	0.25801	0.15458	1.76815	1.40013	1.05860	9.12964	5.37551	2.40117	0.43865	0.38179	0.30923	1.77382	1.33556	0.99662	8.51064	5.06162	2.35902
14390	0.31675	0.25906	0.15470	1.76814	1.40191	1.05881	9.12506	5.37109	2.40087	0.43861	0.38149	0.30971	1.77032	1.33367	0.99249	8.51196	5.05970	2.35578
14550	0.31423	0.25521	0.15055	1.76368	1.39648	1.05428	9.11251	5.37304	2.39903	0.43510	0.37933	0.30611	1.77582	1.33415	0.99660	8.51672	5.06238	2.36010
14720	0.31749	0.25686	0.15523	1.76836	1.40081	1.05915	9.14566	5.37679	2.40177	0.43848	0.38094	0.30786	1.77317	1.33280	0.99237	8.51306	5.05732	2.35606	29.26	6.3	0.00	7.57	0.01267	0.01288	0.01637	0.00779	0.00580	0.00636	0.00466	0.01262	0.01678	0.00676	0.00698	0.00882	0.01485	0.01092	0.01193	0.00216	0.00615	0.00865
14880	0.31494	0.25672	0.15272	1.76496	1.39722	1.05507	9.13395	5.37237	2.39681	0.43568	0.37897	0.30548	1.77217	1.33522	0.99836	8.51527	5.06151	2.35917
15050	0.31810	0.25929	0.15536	1.76791	1.40139	1.06010	9.14509	5.37334	2.40084	0.43980	0.38176	0.30850	1.77043	1.33313	0.99359	8.50998	5.05799	2.35587
15210	0.31684	0.25702	0.15476	1.76661	1.40090	1.05873	9.13722	5.37448	2.40417	0.44080	0.38412	0.31000	1.77476	1.33609	0.99502	8.51271	5.06024	2.35700
15370	0.31507	0.25658	0.15424	1.76470	1.39777	1.05696	9.13080	5.37450	2.40245	0.43888	0.38156	0.30766	1.77116	1.33329	0.99490	8.51148	5.05739	2.35468
15540	0.31579	0.25929	0.15476	1.76748	1.40235	1.06039	9.14227	5.37945	2.40600	0.43989	0.38325	0.31073	1.77333	1.33360	0.99565	8.51738	5.06058	2.35908
15700	0.31583	0.25793	0.15266	1.76731	1.39980	1.05887	9.13636	5.37468	2.40234	0.43940	0.38084	0.30775	1.76989	1.33173	0.99030	8.51156	5.05747	2.35421
15860	0.31563	0.25887	0.15358	1.76632	1.40050	1.05968	9.14732	5.37795	2.40293	0.44061	0.38266	0.31018	1.77243	1.33321	0.99676	8.51218	5.05924	2.35715
16030	0.31447	0.25661	0.15262	1.76564	1.39765	1.05661	9.13000	5.37653	2.40124	0.43720	0.37953	0.30715	1.77034	1.33477	0.99446	8.51024	5.05901	2.35612
16190	0.31582	0.25443	0.15209	1.76538	1.39946	1.05754	9.13912	5.37820	2.40175	0.43937	0.38161	0.30828	1.77133	1.33113	0.99388	8.51015	5.05819	2.35525
16350	0.31417	0.25614	0.15255	1.76422	1.39726	1.05574	9.14424	5.37270	2.39972	0.43781	0.38043	0.30685	1.76780	1.32927	0.99121	8.51614	5.05757	2.35382	29.26	6.3	0.00	7.43	0.01267	0.01288	0.01637	0.00779	0.00580	0.00636	0.00466	0.01262	0.01678	0.00676	0.00698	0.00881	0.01485	0.01092	0.01193	0.00216	0.00615	0.00865
16520	0.31122	0.25448	0.15339	1.76331	1.39984	1.05825	9.14666	5.37668	2.40466	0.44027	0.38290	0.30941	1.77106	1.33397	0.99325	8.51746	5.05923	2.35790
16680	0.31532	0.25611	0.15229	1.76570	1.39824	1.05695	9.13569	5.37126	2.40016	0.43800	0.38061	0.30728	1.76964	1.32880	0.99265	8.50803	5.05580	2.35368
16840	0.31410	0.25666	0.15250	1.76486	1.39991	1.05965	9.13455	5.37843	2.40418	0.44050	0.38320	0.30898	1.77099	1.33376	0.99576	8.51182	5.05936	2.35627
17010	0.31367	0.25614	0.15284	1.76459	1.39770	1.05649	9.14792	5.37558	2.40121	0.43889	0.38190	0.30767	1.76889	1.33106	0.99286	8.50917	5.05655	2.35347
17170	0.31268	0.25597	0.15483	1.76378	1.39964	1.05891	9.14712	5.37808	2.40361	0.44190	0.38420	0.31025	1.77410	1.33436	0.99590	8.51737	5.06157	2.35931
17330	0.31694	0.25872	0.15201	1.76638	1.39879	1.05751	9.13621	5.37313	2.40136	0.43993	0.38185	0.30904	1.76863	1.33273	0.99575	8.51138	5.05729	2.35363
17500	0.31554	0.25868	0.15459	1.76823	1.40236	1.06154	9.14568	5.38152	2.40445	0.44330	0.38312	0.31081	1.77646	1.33841	0.99795	8.51358	5.06234	2.35948
17660	0.31685	0.25661	0.15362	1.76756	1.39815	1.05746	9.14114	5.37862	2.40236	0.44045	0.38228	0.30970	1.77053	1.33301	0.99333	8.51428	5.05813	2.35459
17820	0.31442	0.25973	0.15397	1.76768	1.40010	1.05780	9.13724	5.37423	2.40361	0.43958	0.38068	0.30859	1.77292	1.33495	0.99277	8.51420	5.06025	2.35544
17980	0.31528	0.25548	0.15123	1.76430	1.39786	1.05550	9.14289	5.37611	2.39978	0.43915	0.37970	0.30717	1.77195	1.33129	0.99215	8.51082	5.05600	2.35453	29.26	6.3	0.00	7.45	0.01267	0.01288	0.01637	0.00779	0.00580	0.00636	0.00466	0.01262	0.01678	0.00676	0.00698	0.00881	0.01485	0.01092	0.01193	0.00216	0.00615	0.00865
18150	0.31358	0.25438	0.15086	1.76323	1.39579	1.05308	9.14421	5.36912	2.39618	0.43568	0.37656	0.30511	1.77372	1.33359	0.99676	8.51364	5.06071	2.35827
18310	0.31592	0.25630	0.15395	1.76612	1.39946	1.05770	9.13021	5.37672	2.40237	0.44010	0.38131	0.30794	1.77246	1.33298	0.99375	8.50861	5.05864	2.35597
18480	0.31374	0.25667	0.15275	1.76424	1.39723	1.05402	9.13818	5.37424	2.39677	0.43684	0.37905	0.30660	1.77355	1.33409	0.99957	8.51672	5.06285	2.36006
18640	0.31804	0.25897	0.15502	1.76778	1.40112	1.05915	9.13968	5.37484	2.39993	0.44066	0.38326	0.30956	1.77337	1.33244	0.99573	8.51249	5.05888	2.35675
18800	0.31594	0.25760	0.15411	1.76679	1.40081	1.05816	9.15421	5.37510	2.40543	0.44069	0.38219	0.30952	1.77331	1.33105	0.99329	8.51275	5.05885	2.35643
18970	0.31711	0.25777	0.15284	1.76644	1.39940	1.05745	9.12591	5.37905	2.39994	0.43988	0.38193	0.30903	1.77461	1.33210	0.99245	8.51134	5.05747	2.35584
19130	0.31772	0.25900	0.15300	1.76742	1.40207	1.05939	9.13308	5.37667	2.40222	0.44303	0.38388	0.31094	1.77351	1.33401	0.99810	8.51531	5.06229	2.35971
19290	0.31716	0.25794	0.15404	1.76676	1.39946	1.05723	9.11778	5.37056	2.39831	0.43929	0.38021	0.30748	1.77316	1.33319	0.99558	8.51619	5.06019	2.35728
19460	0.31480	0.25500	0.15207	1.76495	1.39789	1.05619	9.12872	5.37524	2.40063	0.44010	0.38131	0.30824	1.77243	1.33095	0.99451	8.51813	5.05834	2.35744
19620	0.31482	0.25713	0.15221	1.76486	1.39778	1.05662	9.14953	5.37236	2.40023	0.43953	0.38118	0.30846	1.77232	1.33065	0.99447	8.50730	5.05739	2.35653	29.26	6.1	0.00	7.43	0.01267	0.01288	0.01637	0.00779	0.00580	0.00636	0.00466	0.01262	0.01678	0.00676	0.00698	0.00881	0.01485	0.01092	0.01193	0.00216	0.00615	0.00865
19790	0.31501	0.25873	0.15178	1.76483	1.39779	1.05731	9.12789	5.37067	2.40026	0.44065	0.38229	0.30867	1.77197	1.33080	0.99150	8.51029	5.05791	2.35716
19950	0.31639	0.25793	0.15373	1.76654	1.39854	1.05742	9.13730	5.37617	2.40130	0.44101	0.38352	0.30957	1.77283	1.33130	0.99490	8.51162	5.05888	2.35619
20110	0.31501	0.25594	0.15088	1.76501	1.39621	1.05522	9.12892	5.37111	2.39902	0.43909	0.38087	0.30757	1.77397	1.33431	0.99398	8.51373	5.06160	2.36000
20280	0.31915	0.25655	0.15345	1.76738	1.39956	1.05835	9.13787	5.37406	2.40403	0.44235	0.38404	0.31034	1.77337	1.33229	0.99879	8.51259	5.05836	2.35576
20440	0.31657	0.25577	0.15281	1.76419	1.39724	1.05453	9.14327	5.37536	2.39701	0.43946	0.38143	0.30788	1.77284	1.33355	0.99738	8.51532	5.06344	2.35995
20600	0.31881	0.25917	0.15359	1.76882	1.40074	1.05947	9.14149	5.38085	2.40265	0.44323	0.38521	0.31153	1.77345	1.33366	0.99664	8.51823	5.05830	2.35719
20770	0.31450	0.25707	0.15488	1.76544	1.39814	1.05825	9.14866	5.37695	2.40363	0.44256	0.38331	0.31127	1.77155	1.33173	0.99564	8.51373	5.05903	2.35693
20930	0.31637	0.25624	0.15306	1.76529	1.39676	1.05695	9.13466	5.37453	2.39895	0.44102	0.38065	0.30866	1.77006	1.33074	0.99081	8.50677	5.05512	2.35436
21090	0.31323	0.25213	0.14903	1.76142	1.39401	1.05359	9.13196	5.37027	2.39787	0.43783	0.37895	0.30661	1.77037	1.33329	0.99726	8.51320	5.06020	2.35937
21260	0.31752	0.25965	0.15259	1.76721	1.39892	1.05666	9.14660	5.37424	2.40314	0.44153	0.38199	0.30980	1.77082	1.33164	0.99192	8.50813	5.05498	2.35504	29.26	6.3	0.00	7.52	0.01267	0.01288	0.01637	0.00779	0.00580	0.00636	0.00466	0.01262	0.01678	0.00676	0.00698	0.00881	0.01485	0.01092	0.01193	0.00216	0.00615	0.00865
21420	0.31314	0.25622	0.15115	1.76320	1.39530	1.05357	9.14115	5.37008	2.39691	0.43810	0.37980	0.30611	1.77242	1.33484	0.99606	8.50708	5.06099	2.36008
21590	0.31662	0.25854	0.15304	1.76759	1.39855	1.05714	9.12669	5.37599	2.40073	0.44245	0.38256	0.30962	1.77270	1.33276	0.99201	8.50901	5.05636	2.35566
21750	0.31516	0.25809	0.15477	1.76673	1.39974	1.05812	9.13346	5.37621	2.40300	0.44240	0.38308	0.31040	1.77360	1.33420	0.99310	8.50901	5.05777	2.35671
21910	0.31616	0.25672	0.15127	1.76472	1.39737	1.05510	9.13340	5.37273	2.39855	0.43981	0.38105	0.30799	1.76841	1.33062	0.99145	8.50505	5.05353	2.35306
22080	0.31438	0.25872	0.15616	1.76783	1.40029	1.05934	9.13552	5.37672	2.40253	0.44380	0.38501	0.31222	1.77345	1.33332	0.99612	8.50778	5.05987	2.35830
22240	0.31620	0.25757	0.15135	1.76662	1.39800	1.05631	9.12807	5.36976	2.40132	0.44023	0.38058	0.30912	1.76947	1.33215	0.99250	8.50514	5.05500	2.35481
22400	0.31446	0.25734	0.15435	1.76670	1.39978	1.05887	9.13713	5.37531	2.40245	0.44382	0.38364	0.31131	1.77380	1.33429	0.99661	8.50540	5.05883	2.35742
22570	0.31556	0.25737	0.15371	1.76570	1.39630	1.05583	9.12451	5.37041	2.39954	0.44143	0.38000	0.30845	1.76885	1.33289	0.99241	8.50285	5.05537	2.35378
22730	0.31170	0.25568	0.14872	1.76142	1.39450	1.05282	9.13845	5.36362	2.39758	0.43862	0.37895	0.30700	1.77331	1.33310	0.99494	8.51422	5.06054	2.35973
22890	0.31742	0.25713	0.15421	1.76687	1.39927	1.05679	9.12978	5.37666	2.40066	0.44226	0.38247	0.30997	1.77132	1.33310	0.99498	8.50811	5.05843	2.35590	29.32	6.0	0.00	7.50	0.01267	0.01288	0.01637	0.00779	0.00580	0.00636	0.00466	0.01262	0.01678	0.00676	0.00698	0.00881	0.01485	0.01092	0.01193	0.00216	0.00615	0.00865
23060	0.31587	0.26086	0.15290	1.76661	1.39817	1.05678	9.14970	5.37520	2.40235	0.44221	0.38287	0.31021	1.77186	1.33487	0.99517	8.51181	5.05806	2.35597
23220	0.31564	0.25711	0.15314	1.76452	1.39683	1.05458	9.12520	5.37303	2.39948	0.44097	0.38120	0.30845	1.76896	1.33152	0.99249	8.50106	5.05690	2.35438
23380	0.31339	0.25677	0.15145	1.76187	1.39395	1.05331	9.13277	5.36810	2.39504	0.43878	0.37962	0.30628	1.77231	1.33629	0.99637	8.50811	5.06081	2.35945
23550	0.31852	0.25847	0.15640	1.76797	1.39949	1.05780	9.13047	5.37723	2.40215	0.44311	0.38374	0.30984	1.77383	1.33488	0.99711	8.50423	5.05938	2.35805
23710	0.31588	0.25979	0.15471	1.76748	1.39995	1.05769	9.11832	5.37722	2.40341	0.44363	0.38431	0.31192	1.77078	1.33562	0.99565	8.50802	5.05943	2.35725
23870	0.31527	0.25501	0.15137	1.76428	1.39649	1.05517	9.14327	5.37312	2.39847	0.43991	0.38010	0.30785	1.77150	1.33334	0.99482	8.51128	5.05869	2.35650
24040	0.31554	0.25619	0.15396	1.76404	1.39706	1.05538	9.15430	5.37821	2.40151	0.44158	0.38171	0.30818	1.76801	1.33075	0.99226	8.50221	5.05495	2.35422
24200	0.31446	0.25704	0.15211	1.76390	1.39625	1.05384	9.12898	5.37347	2.39803	0.44004	0.37978	0.30818	1.76897	1.32921	0.99117	8.50115	5.05446	2.35297
24360	0.31285	0.25419	0.15295	1.76150	1.39663	1.05542	9.14321	5.37409	2.40431	0.44243	0.38388	0.31039	1.77336	1.33486	0.99607	8.50767	5.05826	2.35656
24530	0.31517	0.25481	0.15318	1.76404	1.39521	1.05537	9.13511	5.37448	2.39916	0.43952	0.38048	0.30938	1.76975	1.33022	0.99098	8.50067	5.05465	2.35367	29.26	6.0	0.00	7.43	0.01267	0.01288	0.01637	0.00779	0.00580	0.00636	0.00466	0.01262	0.01678	0.00676	0.00698	0.00881	0.01485	0.01092	0.01193	0.00216	0.00615	0.00865
24690	0.31134	0.25580	0.15339	1.76214	1.39767	1.05711	9.14435	5.37497	2.40227	0.44291	0.38317	0.31076	1.77396	1.33322	0.99518	8.50482	5.05830	2.35753
24850	0.31603	0.25595	0.15346	1.76415	1.39615	1.05492	9.13367	5.37506	2.39865	0.43921	0.38159	0.30860	1.77021	1.33050	0.99236	8.50129	5.05480	2.35381
25020	0.31666	0.25892	0.15548	1.76592	1.39765	1.05715	9.15164	5.37460	2.40410	0.44204	0.38286	0.31074	1.77349	1.33497	0.99488	8.50799	5.05787	2.35706
25180	0.31760	0.25807	0.15246	1.76362	1.39546	1.05356	9.12690	5.37038	2.39919	0.43932	0.38071	0.30850	1.76958	1.32964	0.99172	8.50041	5.05534	2.35354
25340	0.31675	0.25923	0.15243	1.76474	1.39821	1.05689	9.14498	5.37492	2.40200	0.44242	0.38204	0.31086	1.77344	1.33378	0.99296	8.50482	5.05819	2.35695
25510	0.31602	0.25674	0.15176	1.76252	1.39472	1.05431	9.15078	5.36909	2.39965	0.43975	0.38055	0.30816	1.76882	1.32833	0.99339	8.49944	5.05542	2.35356
25670	0.31681	0.25731	0.15417	1.76465	1.39738	1.05719	9.13861	5.37823	2.40211	0.44196	0.38130	0.31114	1.77160	1.33231	0.99560	8.50358	5.05754	2.35645
25830	0.31659	0.25686	0.15266	1.76396	1.39590	1.05427	9.12937	5.37036	2.39930	0.43988	0.38109	0.30904	1.77069	1.33104	0.99294	8.50217	5.05562	2.35392
26000	0.31664	0.25662	0.15348	1.76576	1.39804	1.05615	9.12903	5.37387	2.40201	0.44227	0.38213	0.31084	1.77254	1.33085	0.99552	8.50667	5.05715	2.35611
26160	0.31525	0.25761	0.15347	1.76396	1.39508	1.05556	9.12849	5.37571	2.39932	0.43978	0.38051	0.31007	1.77224	1.32937	0.99332	8.50457	5.05474	2.35383	29.26	6.1	0.00	7.56	0.01267	0.01288	0.01637	0.00779	0.00580	0.00636	0.00466	0.01262	0.01678	0.00676	0.00698	0.00881	0.01485	0.01092	0.01193	0.00216	0.00615	0.00865
26320	0.31598	0.25690	0.15344	1.76451	1.39571	1.05612	9.13663	5.37610	2.40028	0.44216	0.38166	0.31000	1.77175	1.33375	0.99555	8.50211	5.05798	2.35557
26490	0.31387	0.25617	0.15251	1.76336	1.39481	1.05520	9.11708	5.36969	2.39678	0.44041	0.37965	0.30897	1.76950	1.32812	0.99091	8.50457	5.05539	2.35417
26650	0.31415	0.25400	0.15028	1.76137	1.39270	1.05270	9.12929	5.36807	2.39420	0.43807	0.37833	0.30627	1.77065	1.33302	0.99750	8.50951	5.05995	2.35892
26810	0.31747	0.25600	0.15369	1.76506	1.39660	1.05514	9.13922	5.37252	2.39985	0.44161	0.38098	0.30998	1.76811	1.33113	0.99241	8.50484	5.05533	2.35512
26980	0.31676	0.25845	0.15495	1.76566	1.39691	1.05710	9.13939	5.37721	2.40233	0.44240	0.38236	0.31138	1.77475	1.33426	0.99604	8.50933	5.05811	2.35741
27140	0.31541	0.25674	0.15434	1.76437	1.39628	1.05542	9.12213	5.37459	2.39764	0.44028	0.37952	0.30906	1.77206	1.33215	0.99047	8.50281	5.05656	2.35434
27300	0.31702	0.25937	0.15574	1.76641	1.39909	1.05933	9.13583	5.37455	2.40148	0.44336	0.38274	0.31197	1.77293	1.33320	0.99633	8.50845	5.05937	2.35855
27470	0.31552	0.25682	0.15179	1.76559	1.39610	1.05603	9.13864	5.37110	2.39809	0.44035	0.38037	0.30906	1.77308	1.33533	0.99750	8.50960	5.06056	2.35976
27630	0.31735	0.25926	0.15439	1.76819	1.39908	1.05849	9.12367	5.37630	2.40506	0.44334	0.38367	0.31281	1.77347	1.33651	0.99680	8.51286	5.05928	2.35800
27790	0.31497	0.25511	0.15293	1.76594	1.39602	1.05727	9.13392	5.36893	2.40094	0.44119	0.38010	0.30931	1.76947	1.32923	0.99276	8.50761	5.05472	2.35474	29.26	6.3	0.00	7.49	0.01267	0.01288	0.01637	0.00779	0.00580	0.00636	0.00466	0.01262	0.01678	0.00676	0.00698	0.00881	0.01485	0.01092	0.01193	0.00216	0.00615	0.00865
27950	0.31345	0.25490	0.15351	1.76377	1.39777	1.05839	9.13145	5.37303	2.40233	0.44321	0.38143	0.31081	1.77265	1.33561	0.99436	8.51201	5.05807	2.35773
28120	0.31427	0.25533	0.15265	1.76422	1.39503	1.05600	9.13501	5.37274	2.39714	0.43988	0.37772	0.30753	1.76783	1.33106	0.99287	8.50981	5.05621	2.35445
28280	0.31230	0.25309	0.14999	1.76336	1.39362	1.05481	9.12331	5.37023	2.39636	0.43884	0.37774	0.30713	1.76973	1.32881	0.98865	8.50197	5.05344	2.35253
28440	0.31085	0.25506	0.15274	1.76302	1.39658	1.05899	9.14460	5.37766	2.40280	0.44448	0.38351	0.31120	1.77401	1.33352	0.99562	8.51087	5.06114	2.35927
28610	0.31457	0.25659	0.15205	1.76602	1.39602	1.05616	9.13994	5.37412	2.39903	0.44044	0.37918	0.30841	1.76935	1.33062	0.99565	8.50752	5.05528	2.35496
28770	0.31317	0.25658	0.15338	1.76406	1.39760	1.05938	9.12985	5.37688	2.40332	0.44322	0.38176	0.31019	1.77211	1.33473	0.99874	8.50822	5.05844	2.35714
28930	0.31808	0.25481	0.15224	1.76525	1.39595	1.05643	9.13248	5.37307	2.39806	0.43990	0.37906	0.30743	1.77185	1.33132	0.99242	8.50708	5.05446	2.35367
29090	0.31514	0.25726	0.15433	1.76545	1.39597	1.05797	9.13610	5.37445	2.40110	0.44154	0.38108	0.31005	1.76917	1.33059	0.99497	8.51166	5.05617	2.35516
29260	0.31340	0.25439	0.15180	1.76392	1.39520	1.05663	9.13426	5.37214	2.39936	0.44028	0.38052	0.30802	1.76997	1.32926	0.99197	8.50769	5.05595	2.35443
29420	0.31138	0.25268	0.15052	1.76233	1.39181	1.05233	9.12112	5.36708	2.39487	0.43746	0.37683	0.30480	1.77169	1.33543	0.99575	8.51503	5.05935	2.35900	29.26	6.1	0.00	7.43	0.01267	0.01288	0.01637	0.00779	0.00580	0.00636	0.00466	0.01262	0.01678	0.00676	0.00698	0.00881	0.01485	0.01092	0.01193	0.00216	0.00615	0.00865
29590	0.31570	0.25854	0.15387	1.76745	1.39711	1.05675	9.13190	5.37684	2.40073	0.44087	0.37995	0.30843	1.77281	1.33151	0.99499	8.50745	5.05673	2.35600
29750	0.31658	0.25916	0.15462	1.76624	1.39694	1.05725	9.13150	5.37450	2.40087	0.44104	0.37994	0.30913	1.77424	1.33462	0.99626	8.51071	5.05738	2.35680
29910	0.31523	0.25631	0.15325	1.76513	1.39583	1.05564	9.11631	5.37188	2.39843	0.43993	0.38002	0.30778	1.77070	1.33076	0.99307	8.50948	5.05509	2.35461
30080	0.31592	0.25722	0.15374	1.76735	1.39797	1.05946	9.14097	5.37719	2.40335	0.44175	0.38259	0.31040	1.77303	1.33444	0.99755	8.50701	5.05900	2.35855
30240	0.31469	0.25590	0.15297	1.76672	1.39499	1.05591	9.12135	5.37254	2.39827	0.43884	0.37923	0.30819	1.77004	1.33222	0.99458	8.50596	5.05597	2.35488
30400	0.31593	0.25926	0.15486	1.76755	1.39844	1.05870	9.13953	5.37540	2.40343	0.44210	0.38173	0.31003	1.77266	1.33569	0.99533	8.51204	5.05857	2.35802
30570	0.31667	0.25631	0.15348	1.76597	1.39465	1.05540	9.12456	5.36867	2.39884	0.43855	0.37833	0.30748	1.77062	1.33141	0.99211	8.50816	5.05409	2.35402
30730	0.31496	0.25893	0.15567	1.76628	1.39645	1.05760	9.13557	5.37408	2.40216	0.44135	0.38104	0.30911	1.77001	1.33363	0.99497	8.51406	5.05759	2.35757
30890	0.31589	0.25650	0.15296	1.76525	1.39493	1.05546	9.11923	5.37039	2.39711	0.43859	0.37915	0.30685	1.76903	1.32876	0.98979	8.50648	5.05543	2.35485
31060	0.31391	0.25435	0.15112	1.76294	1.39207	1.05349	9.13218	5.37086	2.39451	0.43598	0.37767	0.30503	1.76987	1.33452	0.99745	8.50797	5.05800	2.35878	29.26	6.1	0.00	7.42	0.01267	0.01288	0.01637	0.00779	0.00580	0.00636	0.00466	0.01262	0.01678	0.00676	0.00698	0.00881	0.01485	0.01092	0.01193	0.00216	0.00615	0.00865
31220	0.31782	0.25446	0.15534	1.76702	1.39741	1.05812	9.13150	5.37452	2.40119	0.44069	0.38125	0.30924	1.77030	1.33466	0.99524	8.50850	5.05718	2.35611
31380	0.31768	0.25825	0.15554	1.76662	1.39732	1.05698	9.13936	5.37331	2.40350	0.44098	0.38113	0.30889	1.77381	1.33306	0.99479	8.51114	5.05800	2.35701
31550	0.31643	0.25672	0.15280	1.76446	1.39314	1.05429	9.13809	5.37315	2.39985	0.43757	0.37875	0.30705	1.77131	1.33432	0.99894	8.51079	5.06102	2.36053
31710	0.31753	0.25978	0.15435	1.76936	1.39933	1.05879	9.13523	5.37596	2.40202	0.44118	0.38160	0.30851	1.77085	1.33336	0.99401	8.51229	5.05834	2.35856
31870	0.31766	0.25767	0.15139	1.76693	1.39617	1.05605	9.13368	5.37184	2.39867	0.43783	0.37886	0.30662	1.77058	1.33213	0.99683	8.51070	5.05828	2.35807
32040	0.31814	0.25700	0.15409	1.76656	1.39632	1.05718	9.13546	5.37277	2.40078	0.44019	0.37963	0.30819	1.76905	1.33410	0.99168	8.50859	5.05545	2.35531
32200	0.31431	0.25463	0.15138	1.76521	1.39422	1.05510	9.12943	5.37147	2.39786	0.43741	0.37925	0.30701	1.76928	1.33080	0.99108	8.50683	5.05480	2.35354
32360	0.31301	0.25607	0.15272	1.76358	1.39529	1.05679	9.12834	5.37740	2.40267	0.44124	0.38246	0.30966	1.77167	1.33363	0.99590	8.51291	5.05966	2.35728
32530	0.31656	0.25665	0.15277	1.76588	1.39392	1.05461	9.13201	5.37409	2.39788	0.43785	0.38079	0.30754	1.76785	1.32946	0.98969	8.50603	5.05480	2.35366
32690	0.31353	0.25482	0.15392	1.76303	1.39564	1.05709	9.13679	5.37514	2.40066	0.44006	0.38034	0.30853	1.77168	1.33321	0.99711	8.51352	5.05737	2.35647	29.26	6.1	0.00	7.57	0.01267	0.01288	0.01637	0.00779	0.00580	0.00636	0.00466	0.01262	0.01678	0.00676	0.00698	0.00881	0.01485	0.01092	0.01193	0.00216	0.00615	0.00865
32850	0.31587	0.25594	0.15125	1.76491	1.39442	1.05437	9.13191	5.37086	2.39761	0.43788	0.37834	0.30679	1.76940	1.33161	0.99174	8.51017	5.05646	2.35517
33020	0.31441	0.25636	0.15423	1.76717	1.39783	1.05678	9.14477	5.37146	2.40223	0.44060	0.38078	0.30875	1.77241	1.33522	0.99770	8.51538	5.05834	2.35832
33180	0.31419	0.25692	0.15320	1.76471	1.39427	1.05435	9.11753	5.36822	2.40052	0.43869	0.37959	0.30612	1.76846	1.33201	0.99276	8.50506	5.05674	2.35380
33340	0.31731	0.25715	0.15382	1.76678	1.39656	1.05769	9.14035	5.37373	2.40278	0.44152	0.38197	0.30904	1.77496	1.33531	0.99384	8.50947	5.05836	2.35761
33510	0.31399	0.25445	0.14947	1.76438	1.39372	1.05501	9.13610	5.37190	2.39924	0.43911	0.37973	0.30677	1.76807	1.32941	0.99053	8.49943	5.05378	2.35244
33670	0.31737	0.25848	0.15271	1.76553	1.39616	1.05651	9.13105	5.37879	2.40314	0.44077	0.38086	0.30918	1.77372	1.33374	0.99772	8.51820	5.05921	2.35734
33830	0.31624	0.25459	0.15153	1.76421	1.39544	1.05462	9.15459	5.37301	2.39804	0.43929	0.37963	0.30669	1.76940	1.33031	0.99443	8.50700	5.05521	2.35338
34000	0.31599	0.25650	0.15460	1.76558	1.39611	1.05601	9.14511	5.37385	2.40238	0.44001	0.38192	0.30940	1.76954	1.33301	0.99492	8.51106	5.05944	2.35623
34160	0.31440	0.25490	0.15213	1.76345	1.39352	1.05371	9.13507	5.37166	2.39825	0.43882	0.37965	0.30749	1.76870	1.33197	0.99405	8.50718	5.05562	2.35375
34320	0.31557	0.25889	0.15322	1.76531	1.39625	1.05555	9.14679	5.37568	2.40155	0.43947	0.38060	0.30909	1.77126	1.33323	0.99437	8.50961	5.05795	2.35670	29.26	6.1	0.00	7.43	0.01267	0.01288	0.01636	0.00779	0.00580	0.00636	0.00466	0.01262	0.01678	0.00676	0.00698	0.00881	0.01485	0.01092	0.01193	0.00216	0.00615	0.00865
34490	0.31572	0.25577	0.15043	1.76476	1.39461	1.05403	9.13244	5.37342	2.39811	0.43760	0.37887	0.30665	1.77023	1.33019	0.99376	8.50617	5.05504	2.35430
34650	0.31482	0.25751	0.15310	1.76612	1.39731	1.05722	9.14518	5.37130	2.39976	0.43942	0.38061	0.30713	1.77125	1.33305	0.99649	8.50767	5.05696	2.35615
34810	0.31711	0.25837	0.15154	1.76550	1.39630	1.05512	9.12379	5.37219	2.40024	0.43734	0.37973	0.30637	1.76901	1.33063	0.99571	8.50565	5.05467	2.35435
34980	0.31823	0.25843	0.15353	1.76683	1.39751	1.05693	9.14455	5.37795	2.40277	0.44125	0.38156	0.30965	1.77110	1.33617	0.99617	8.51525	5.05912	2.35803
35140	0.31542	0.25822	0.15223	1.76696	1.39536	1.05486	9.13330	5.37321	2.39848	0.43809	0.37836	0.30627	1.76777	1.33031	0.99199	8.50512	5.05359	2.35328
35300	0.31546	0.25625	0.15262	1.76745	1.39846	1.05799	9.14610	5.37473	2.40199	0.44119	0.38193	0.30873	1.76920	1.33305	0.99498	8.50750	5.05553	2.35490
35470	0.31585	0.25336	0.15167	1.76436	1.39624	1.05497	9.12791	5.37699	2.40266	0.43890	0.38062	0.30925	1.77222	1.33445	0.99778	8.51252	5.05951	2.35741
35630	0.31574	0.25875	0.15407	1.76645	1.39759	1.05713	9.13967	5.37437	2.40321	0.44094	0.38224	0.31077	1.77317	1.33400	0.99450	8.51032	5.05895	2.35701
35790	0.31601	0.25640	0.15153	1.76305	1.39449	1.05320	9.13394	5.37307	2.39765	0.43571	0.37769	0.30676	1.77115	1.33288	0.99545	8.50988	5.05856	2.35763
35960	0.31906	0.25774	0.15173	1.76615	1.39658	1.05634	9.13593	5.37185	2.39947	0.43676	0.38044	0.30726	1.77149	1.33433	0.99639	8.50950	5.05751	2.35652	29.26	6.2	0.00	7.45	0.01267	0.01288	0.01636	0.00779	0.00580	0.00636	0.00466	0.01262	0.01678	0.00676	0.00698	0.00881	0.01485	0.01092	0.01193	0.00216	0.00615	0.00865
36120	0.31665	0.25508	0.15219	1.76562	1.39662	1.05663	9.15539	5.37177	2.39849	0.43668	0.37849	0.30572	1.76928	1.33183	0.99046	8.51012	5.05429	2.35375
36280	0.31533	0.25905	0.15574	1.76491	1.39844	1.05971	9.13822	5.37727	2.40610	0.44170	0.38381	0.31018	1.77401	1.33804	0.99865	8.51426	5.05939	2.35916
36450	0.31599	0.25721	0.15337	1.76777	1.39810	1.05844	9.15965	5.37505	2.40075	0.43977	0.38229	0.30841	1.77209	1.33658	0.99696	8.50642	5.05797	2.35725
36610	0.31728	0.25716	0.15374	1.76606	1.39710	1.05840	9.13243	5.37254	2.40116	0.43971	0.38209	0.31018	1.77080	1.33328	0.99339	8.50950	5.05663	2.35604
36770	0.31446	0.25379	0.14837	1.76338	1.39249	1.05391	9.13782	5.37146	2.39981	0.43600	0.37944	0.30767	1.76677	1.33115	0.98911	8.50730	5.05453	2.35337
36940	0.31673	0.25950	0.15496	1.76741	1.40048	1.06002	9.14235	5.37862	2.40413	0.44127	0.38381	0.31112	1.77656	1.33662	0.99693	8.51761	5.06188	2.36127
37100	0.31882	0.25810	0.15223	1.76877	1.39824	1.05739	9.11426	5.37583	2.39866	0.43993	0.38091	0.30884	1.76841	1.33339	0.99643	8.50589	5.05505	2.35573
37260	0.31831	0.25982	0.15455	1.77013	1.40097	1.06225	9.14207	5.38020	2.40413	0.44142	0.38451	0.31148	1.77365	1.33528	0.99582	8.50818	5.05762	2.35769
37420	0.31306	0.25616	0.15213	1.76545	1.39767	1.05792	9.15298	5.36983	2.40093	0.44039	0.38235	0.30973	1.77083	1.33090	0.99119	8.50633	5.05462	2.35388
37590	0.31365	0.25259	0.15034	1.76181	1.39247	1.05303	9.14076	5.36856	2.39532	0.43615	0.37884	0.30687	1.77421	1.33441	0.99779	8.51852	5.06122	2.35953	29.32	6.1	0.00	7.57	0.01267	0.01288	0.01637	0.00779	0.00580	0.00636	0.00466	0.01262	0.01678	0.00676	0.00698	0.00881	0.01485	0.01092	0.01193	0.00216	0.00615	0.00865
37750	0.31944	0.25709	0.15306	1.76731	1.39729	1.05679	9.13669	5.37567	2.39982	0.43862	0.38187	0.30995	1.77183	1.33446	0.99541	8.50908	5.05787	2.35669
37910	0.31493	0.25529	0.15170	1.76471	1.39519	1.05542	9.12253	5.36979	2.39638	0.43621	0.37923	0.30579	1.77323	1.33629	0.99587	8.50714	5.06068	2.36054
38080	0.31651	0.25632	0.15335	1.76803	1.39743	1.05715	9.12373	5.37531	2.39876	0.43954	0.38104	0.30805	1.77046	1.33267	0.99451	8.50308	5.05413	2.35516
38240	0.31457	0.25524	0.15098	1.76526	1.39597	1.05676	9.13520	5.37057	2.39580	0.43847	0.38028	0.30671	1.76986	1.33474	0.99875	8.50529	5.05633	2.35707
38410	0.31748	0.25606	0.15359	1.76594	1.39645	1.05803	9.14277	5.37113	2.39948	0.44075	0.38354	0.31000	1.77262	1.33341	0.99533	8.50820	5.05471	2.35464
38570	0.31490	0.25603	0.14967	1.76191	1.39296	1.05402	9.13698	5.36964	2.39840	0.43757	0.38028	0.30774	1.77351	1.33503	0.99697	8.50855	5.05981	2.35954
38730	0.31970	0.26096	0.15282	1.76716	1.39798	1.05845	9.13451	5.37268	2.40165	0.44103	0.38381	0.31102	1.77226	1.33302	0.99426	8.51031	5.05795	2.35731
38900	0.31938	0.25816	0.15524	1.76856	1.40107	1.06059	9.14174	5.37833	2.40483	0.44257	0.38507	0.31243	1.77449	1.33709	0.99741	8.51411	5.06115	2.36044
39060	0.31769	0.25711	0.15281	1.76847	1.39898	1.05782	9.11863	5.37426	2.40073	0.43923	0.38212	0.30923	1.77191	1.33518	0.99616	8.50908	5.05785	2.35823
39220	0.31487	0.25679	0.15136	1.76646	1.39754	1.05857	9.12886	5.37485	2.39819	0.44104	0.38140	0.30836	1.76947	1.33182	0.99089	8.50265	5.05382	2.35339	29.26	6.2	0.00	7.45	0.01267	0.01288	0.01636	0.00779	0.00580	0.00636	0.00466	0.01262	0.01678	0.00676	0.00698	0.00881	0.01485	0.01092	0.01193	0.00216	0.00615	0.00865
39390	0.31281	0.25554	0.15156	1.76391	1.39603	1.05718	9.14349	5.36855	2.39700	0.43911	0.38097	0.30741	1.77231	1.33608	1.00056	8.50909	5.06099	2.35986
39550	0.31782	0.25835	0.15560	1.76927	1.40104	1.06177	9.14538	5.38073	2.40421	0.44539	0.38749	0.31410	1.77709	1.33678	0.99793	8.51209	5.06175	2.35963
39710	0.31660	0.25416	0.15338	1.76760	1.39784	1.05774	9.13832	5.37488	2.40123	0.44188	0.38494	0.31142	1.77082	1.33398	0.99518	8.50433	5.05771	2.35575
39880	0.31500	0.25690	0.15073	1.76623	1.39691	1.05613	9.14119	5.37026	2.39749	0.43929	0.38003	0.30828	1.77017	1.33471	0.99497	8.50785	5.05702	2.35602
40040	0.31436	0.25472	0.15249	1.76632	1.39535	1.05741	9.12553	5.37038	2.39732	0.43863	0.38086	0.30736	1.77327	1.33338	0.99852	8.50592	5.05907	2.35919
40200	0.31670	0.25684	0.15293	1.76899	1.39975	1.05982	9.15325	5.37381	2.40068	0.44202	0.38327	0.31025	1.77544	1.33257	0.99477	8.50583	5.05669	2.35643
40370	0.31635	0.25450	0.15167	1.76680	1.39787	1.05781	9.13264	5.37449	2.39722	0.43950	0.38137	0.30806	1.77115	1.33541	0.99719	8.50935	5.06099	2.35936
40530	0.31889	0.25927	0.15397	1.76914	1.40039	1.06135	9.13236	5.37997	2.40131	0.44314	0.38466	0.31208	1.77208	1.33332	0.99317	8.51015	5.05674	2.35749
40690	0.31455	0.25548	0.15336	1.76676	1.39566	1.05690	9.13878	5.37230	2.39748	0.43954	0.38202	0.30830	1.77170	1.33570	0.99544	8.50794	5.05998	2.35973
40860	0.31711	0.25791	0.15282	1.76822	1.39858	1.06032	9.14206	5.37614	2.40246	0.44181	0.38249	0.31010	1.77402	1.33299	0.99571	8.50877	5.05766	2.35655	29.26	6.3	0.00	7.56	0.01267	0.01288	0.01636	0.00779	0.00580	0.00636	0.00466	0.01262	0.01678	0.00676	0.00698	0.00881	0.01485	0.01092	0.01193	0.00216	0.00615	0.00865
41020	0.31572	0.25511	0.15116	1.76543	1.39522	1.05703	9.13667	5.36945	2.39629	0.43885	0.37932	0.30765	1.77333	1.33519	0.99835	8.51512	5.06149	2.36040
41190	0.31859	0.25928	0.15370	1.76839	1.39806	1.06034	9.13322	5.37625	2.40225	0.44141	0.38336	0.30984	1.77429	1.33345	0.99413	8.50296	5.05721	2.35701
41350	0.31563	0.25803	0.15314	1.76656	1.39924	1.06008	9.13340	5.37250	2.40038	0.44148	0.38417	0.31003	1.77023	1.33419	0.99605	8.50868	5.05876	2.35751
41510	0.31729	0.25691	0.15334	1.76719	1.39729	1.06020	9.13896	5.37383	2.40066	0.44076	0.38223	0.31016	1.77407	1.33128	0.99372	8.51159	5.05751	2.35646
41680	0.31742	0.25747	0.15379	1.76786	1.40063	1.06201	9.14803	5.37899	2.40165	0.44237	0.38364	0.31160	1.77460	1.33505	0.99940	8.51389	5.06112	2.35997
41840	0.31462	0.25446	0.15309	1.76738	1.39722	1.05863	9.11580	5.37137	2.39914	0.43953	0.38167	0.30919	1.77109	1.33286	0.99296	8.51300	5.05747	2.35534
42000	0.31689	0.25607	0.15403	1.76751	1.40035	1.06285	9.13959	5.37371	2.40165	0.44306	0.38518	0.31214	1.77622	1.33657	0.99806	8.51539	5.06147	2.35943
42170	0.31753	0.25618	0.15265	1.76648	1.39671	1.05851	9.13896	5.37115	2.39796	0.43900	0.38255	0.30942	1.77291	1.33320	0.99317	8.50904	5.05656	2.35579
42330	0.31835	0.25684	0.15475	1.76742	1.39994	1.06132	9.13340	5.37844	2.40219	0.44155	0.38365	0.31131	1.77407	1.33414	0.99742	8.51433	5.06041	2.35878
42490	0.31676	0.25715	0.15119	1.76607	1.39818	1.05948	9.12923	5.37297	2.39812	0.44034	0.38184	0.30869	1.76987	1.33219	0.99421	8.50964	5.05727	2.35547	29.26	6.0	0.00	7.42	0.01267	0.01288	0.01637	0.00779	0.00580	0.00636	0.00466	0.01262	0.01678	0.00676	0.00698	0.00881	0.01485	0.01092	0.01193	0.00216	0.00615	0.00865
42660	0.31628	0.25741	0.15364	1.76763	1.40061	1.06148	9.13663	5.37497	2.40243	0.44311	0.38341	0.31055	1.77090	1.33290	0.99388	8.51467	5.05904	2.35815
42820	0.31647	0.25528	0.15393	1.76655	1.39789	1.05916	9.13020	5.37283	2.40059	0.44104	0.38190	0.30812	1.77103	1.33301	0.99340	8.50806	5.05582	2.35425
42980	0.31529	0.25407	0.15090	1.76374	1.39523	1.05739	9.11960	5.37107	2.39852	0.43954	0.38024	0.30680	1.77329	1.33521	0.99668	8.51123	5.06187	2.36060
43150	0.31644	0.25827	0.15260	1.76854	1.40130	1.06124	9.13691	5.37399	2.40158	0.44354	0.38486	0.31048	1.77160	1.33502	0.99837	8.51185	5.06068	2.36003
43310	0.31556	0.25787	0.15364	1.76876	1.40058	1.06210	9.14483	5.37639	2.40266	0.44395	0.38434	0.31133	1.77502	1.33768	0.99544	8.51608	5.06181	2.35969
43470	0.31587	0.25429	0.15176	1.76687	1.39870	1.05947	9.13427	5.37398	2.39925	0.44100	0.38139	0.30909	1.77531	1.33448	0.99641	8.51432	5.06213	2.36052
43640	0.31726	0.25766	0.15471	1.76908	1.40165	1.06085	9.12888	5.37346	2.40268	0.44226	0.38354	0.31021	1.77235	1.33620	0.99282	8.51106	5.05952	2.35711
43800	0.31566	0.25538	0.15249	1.76540	1.39688	1.05906	9.13777	5.37271	2.39757	0.43967	0.38114	0.30803	1.77198	1.33375	0.99608	8.51282	5.06151	2.35977
43960	0.31624	0.25547	0.15426	1.76796	1.39964	1.06026	9.12562	5.37659	2.40113	0.44186	0.38301	0.30898	1.77146	1.33220	0.99382	8.51546	5.06017	2.35981
44130	0.31570	0.25465	0.15341	1.76650	1.39731	1.05865	9.11990	5.37405	2.39979	0.43990	0.38178	0.30816	1.77445	1.33375	0.99675	8.51044	5.06100	2.35978	29.26	6.1	0.00	7.48	0.01267	0.01288	0.01637	0.00779	0.00580	0.00636	0.00466	0.01262	0.01678	0.00676	0.00698	0.00881	0.01485	0.01092	0.01193	0.00216	0.00615	0.00865
44290	0.31832	0.25607	0.15346	1.76885	1.40091	1.06235	9.12288	5.37384	2.40145	0.44165	0.38354	0.31015	1.77200	1.33263	0.99189	8.50638	5.05726	2.35618
44450	0.31562	0.25574	0.15036	1.76414	1.39539	1.05776	9.12506	5.37383	2.39573	0.44016	0.38204	0.30750	1.77496	1.33323	0.99578	8.51414	5.06128	2.36014
44620	0.31908	0.25811	0.15276	1.76869	1.39894	1.06069	9.11922	5.37629	2.40257	0.44166	0.38481	0.31055	1.77101	1.33470	0.99222	8.50982	5.06018	2.35783
44780	0.31663	0.25698	0.15447	1.76691	1.39919	1.06139	9.14531	5.37554	2.40141	0.44259	0.38447	0.30947	1.77177	1.33222	0.99363	8.50964	5.06085	2.35905
44950	0.31658	0.25655	0.15293	1.76740	1.39885	1.06040	9.12180	5.37901	2.39983	0.44011	0.38353	0.30892	1.76966	1.33040	0.99149	8.50709	5.05726	2.35615
45110	0.31758	0.25972	0.15556	1.76897	1.40228	1.06447	9.14692	5.37813	2.40405	0.44469	0.38701	0.31155	1.77541	1.33502	0.99750	8.51890	5.06041	2.35871
45270	0.31642	0.25613	0.15264	1.76619	1.39753	1.05834	9.13120	5.37038	2.40136	0.44108	0.38411	0.31028	1.77245	1.33521	0.99464	8.50770	5.06134	2.35834
45440	0.31455	0.25776	0.15384	1.76538	1.39707	1.06036	9.15244	5.37530	2.40067	0.44079	0.38364	0.30943	1.77172	1.33376	0.99538	8.50920	5.05873	2.35825
45600	0.31369	0.25784	0.15083	1.76544	1.39630	1.05808	9.12500	5.37713	2.39776	0.43864	0.38210	0.30686	1.77286	1.33619	0.99530	8.50832	5.05923	2.35898
45770	0.31697	0.25765	0.15229	1.76696	1.39970	1.06182	9.12271	5.37590	2.40130	0.44154	0.38317	0.30914	1.77287	1.33460	0.99412	8.50662	5.05897	2.35586	29.26	6.3	0.00	7.40	0.01267	0.01288	0.01636	0.00779	0.00580	0.00636	0.00466	0.01262	0.01678	0.00676	0.00698	0.00881	0.01485	0.01092	0.01193	0.00216	0.00615	0.00865
45930	0.31546	0.25544	0.15208	1.76277	1.39470	1.05725	9.12965	5.37289	2.39780	0.43904	0.38218	0.30730	1.77204	1.33557	0.99849	8.51130	5.06323	2.35986
46090	0.31968	0.25879	0.15310	1.76762	1.39976	1.06072	9.13894	5.37469	2.40176	0.44162	0.38307	0.30978	1.77685	1.33435	0.99676	8.50962	5.06096	2.35762
46260	0.31871	0.26128	0.15732	1.76838	1.40075	1.06205	9.15347	5.38024	2.40415	0.44320	0.38485	0.31067	1.77213	1.33556	0.99789	8.51006	5.06262	2.35879
46420	0.31665	0.25831	0.15218	1.76752	1.39812	1.05997	9.13974	5.37343	2.40102	0.44026	0.38155	0.30736	1.77134	1.33165	0.99305	8.50733	5.05728	2.35429
46580	0.31707	0.26003	0.15499	1.76686	1.39970	1.06258	9.14646	5.37941	2.40615	0.44330	0.38449	0.31081	1.77349	1.33600	0.99700	8.50821	5.05888	2.35811
46750	0.31641	0.25453	0.15222	1.76543	1.39634	1.05796	9.13940	5.37284	2.40077	0.43931	0.38000	0.30757	1.77395	1.33816	0.99464	8.50980	5.06171	2.35782
46910	0.31716	0.25774	0.15231	1.76611	1.39778	1.05890	9.13200	5.37763	2.40176	0.44048	0.38075	0.30828	1.77242	1.33474	0.99350	8.50900	5.06020	2.35589
47070	0.31394	0.25420	0.15226	1.76511	1.39692	1.05780	9.13802	5.37713	2.39823	0.43796	0.38025	0.30587	1.76822	1.33064	0.99388	8.50142	5.05566	2.35271
47230	0.31446	0.25640	0.15304	1.76259	1.39780	1.05999	9.14170	5.37823	2.40176	0.44150	0.38200	0.30892	1.77480	1.33354	0.99451	8.50336	5.05793	2.35631
47400	0.31439	0.25669	0.15256	1.76435	1.39505	1.05847	9.14859	5.37641	2.39882	0.43874	0.38074	0.30732	1.77169	1.33143	0.99348	8.50749	5.05564	2.35402	29.32	6.1	0.00	7.80	0.01267	0.01288	0.01636	0.00779	0.00580	0.00636	0.00466	0.01262	0.01678	0.00676	0.00698	0.00881	0.01485	0.01092	0.01193	0.00216	0.00615	0.00865
47560	0.31302	0.25610	0.15257	1.76244	1.39585	1.05857	9.13957	5.37371	2.40161	0.43974	0.38170	0.30807	1.77178	1.33453	0.99744	8.50908	5.05810	2.35577
47730	0.31538	0.25493	0.15212	1.76522	1.39597	1.05750	9.13590	5.37611	2.40114	0.43872	0.38020	0.30623	1.77120	1.33134	0.99324	8.50212	5.05572	2.35364
47890	0.31418	0.25709	0.15362	1.76272	1.39625	1.05873	9.14187	5.37364	2.40120	0.44015	0.38152	0.30780	1.77407	1.33231	0.99422	8.50582	5.05823	2.35645
48050	0.31620	0.25713	0.15233	1.76455	1.39616	1.05699	9.13980	5.37516	2.40054	0.43887	0.38040	0.30645	1.76974	1.33382	0.99214	8.50097	5.05687	2.35417
48220	0.31651	0.25915	0.15472	1.76568	1.39848	1.05971	9.12988	5.37634	2.40154	0.44080	0.38252	0.30913	1.77448	1.33459	0.99630	8.51031	5.05922	2.35809
48380	0.31726	0.25790	0.15074	1.76431	1.39571	1.05747	9.13641	5.37415	2.39957	0.43820	0.38068	0.30659	1.77057	1.33004	0.99639	8.50600	5.05585	2.35439
48540	0.31496	0.25682	0.15410	1.76640	1.39776	1.05871	9.13406	5.37721	2.40279	0.44105	0.38156	0.30787	1.77328	1.33474	0.99519	8.50802	5.05888	2.35655
48710	0.31616	0.25647	0.15262	1.76417	1.39577	1.05697	9.13986	5.37333	2.40232	0.43825	0.38071	0.30596	1.77033	1.33334	0.99298	8.50758	5.05486	2.35426
48870	0.31462	0.25561	0.15443	1.76484	1.39567	1.05999	9.13378	5.37802	2.40103	0.43931	0.38153	0.30730	1.77286	1.33648	0.99761	8.50608	5.05749	2.35653
49030	0.31577	0.25521	0.15246	1.76337	1.39505	1.05595	9.13639	5.37204	2.39926	0.43663	0.37834	0.30455	1.77132	1.33224	0.99147	8.49895	5.05459	2.35250	29.26	6.1	0.00	7.46	0.01267	0.01288	0.01636	0.00779	0.00580	0.00636	0.00466	0.01262	0.01678	0.00676	0.00698	0.00881	0.01485	0.01092	0.01193	0.00216	0.00615	0.00865
49200	0.31523	0.25724	0.15209	1.76393	1.39672	1.05809	9.13330	5.37493	2.40152	0.43807	0.38042	0.30639	1.77200	1.33319	0.99499	8.50124	5.05773	2.35537
49360	0.31572	0.25419	0.15227	1.76255	1.39345	1.05525	9.14552	5.37668	2.40044	0.43665	0.37976	0.30580	1.77068	1.33196	0.99335	8.50238	5.05429	2.35261
49520	0.31553	0.25617	0.15193	1.76329	1.39522	1.05611	9.13748	5.37625	2.40154	0.43762	0.38086	0.30645	1.77478	1.33321	0.99586	8.50617	5.05777	2.35632
49690	0.31725	0.25745	0.15223	1.76317	1.39477	1.05538	9.13967	5.37100	2.40074	0.43619	0.37865	0.30454	1.77316	1.33095	0.99327	8.49833	5.05567	2.35425
49850	0.31574	0.25823	0.15460	1.76539	1.39752	1.05786	9.12974	5.37694	2.40042	0.43800	0.38127	0.30653	1.77278	1.33462	0.99621	8.50758	5.05762	2.35680
50010	0.31549	0.25838	0.15175	1.76382	1.39563	1.05623	9.14363	5.37519	2.39855	0.43732	0.37974	0.30446	1.77066	1.33264	0.99481	8.50212	5.05412	2.35299
50180	0.31500	0.25779	0.15505	1.76595	1.39806	1.05961	9.13094	5.38305	2.40485	0.43947	0.38310	0.30866	1.77527	1.33412	0.99741	8.51155	5.06071	2.35838
50340	0.31779	0.25783	0.15274	1.76439	1.39569	1.05628	9.13743	5.37236	2.40047	0.43699	0.37993	0.30569	1.77253	1.33318	0.99168	8.50626	5.05613	2.35507
50500	0.31632	0.25688	0.15356	1.76444	1.39678	1.05753	9.14311	5.37851	2.40165	0.43731	0.38013	0.30601	1.77394	1.33442	0.99494	8.50573	5.05824	2.35620
50670	0.31588	0.25640	0.15196	1.76367	1.39435	1.05611	9.13416	5.37386	2.39799	0.43533	0.37828	0.30356	1.77096	1.33400	0.99440	8.50127	5.05644	2.35486	29.26	6.1	0.00	7.43	0.01267	0.01288	0.01636	0.00779	0.00580	0.00636	0.00466	0.01262	0.01678	0.00676	0.00698	0.00881	0.01485	0.01092	0.01193	0.00216	0.00615	0.00865
50830	0.31697	0.25770	0.15172	1.76430	1.39524	1.05646	9.12854	5.37631	2.40174	0.43660	0.37868	0.30489	1.77251	1.33231	0.99637	8.50682	5.05484	2.35352
50990	0.31369	0.25560	0.15019	1.76275	1.39261	1.05367	9.14035	5.37481	2.39756	0.43500	0.37805	0.30368	1.76996	1.33050	0.99208	8.50224	5.05420	2.35131
51160	0.31323	0.25633	0.15335	1.76203	1.39572	1.05808	9.14805	5.37611	2.40439	0.43918	0.38290	0.30724	1.77463	1.33740	0.99805	8.50761	5.05999	2.35795
51320	0.31959	0.25885	0.15217	1.76580	1.39568	1.05584	9.15558	5.37503	2.40015	0.43559	0.37907	0.30387	1.77240	1.33370	0.99461	8.50400	5.05309	2.35173
51480	0.31335	0.25742	0.15335	1.76142	1.39372	1.05587	9.13823	5.37841	2.40252	0.43821	0.38177	0.30705	1.77309	1.33673	0.99923	8.50867	5.05904	2.35683
51650	0.31636	0.25715	0.15297	1.76455	1.39486	1.05520	9.13330	5.37361	2.39898	0.43513	0.37932	0.30452	1.77293	1.33205	0.99562	8.50479	5.05541	2.35363
51810	0.31406	0.25474	0.15433	1.76071	1.39507	1.05635	9.13255	5.37633	2.40116	0.43770	0.38228	0.30623	1.77423	1.33446	0.99487	8.50717	5.05921	2.35679
51970	0.31873	0.25540	0.15161	1.76414	1.39452	1.05510	9.13995	5.37512	2.39914	0.43426	0.37760	0.30400	1.77180	1.33273	0.99499	8.50250	5.05327	2.35213
52140	0.31695	0.25719	0.15378	1.76521	1.39676	1.05807	9.13278	5.38032	2.40245	0.43769	0.38117	0.30676	1.77443	1.33528	0.99808	8.50523	5.05947	2.35656
52300	0.31621	0.25804	0.15181	1.76389	1.39385	1.05632	9.14398	5.37500	2.39841	0.43522	0.37825	0.30326	1.76981	1.33307	0.98942	8.49746	5.05315	2.35166	29.32	6.0	0.00	7.56	0.01267	0.01288	0.01636	0.00779	0.00580	0.00636	0.00466	0.01262	0.01678	0.00676	0.00698	0.00881	0.01485	0.01092	0.01193	0.00216	0.00615	0.00865
52460	0.31529	0.25633	0.15203	1.76387	1.39620	1.05642	9.13009	5.37306	2.40196	0.43739	0.38054	0.30572	1.77280	1.33311	0.99638	8.50803	5.05527	2.35482
52630	0.31508	0.25584	0.15190	1.76270	1.39310	1.05466	9.14283	5.37302	2.40028	0.43589	0.37896	0.30375	1.77137	1.33026	0.99504	8.50151	5.05335	2.35200
52790	0.31621	0.25900	0.15294	1.76450	1.39476	1.05576	9.13761	5.37504	2.40165	0.43669	0.38148	0.30543	1.77191	1.33320	0.99456	8.50389	5.05707	2.35406
52950	0.31732	0.25788	0.15140	1.76295	1.39290	1.05512	9.14697	5.37151	2.39894	0.43428	0.37919	0.30322	1.77039	1.33144	0.99165	8.50327	5.05473	2.35345
53120	0.31855	0.25744	0.15341	1.76546	1.39605	1.05690	9.14145	5.37616	2.40283	0.43717	0.38085	0.30503	1.77462	1.33310	0.99694	8.50424	5.05637	2.35560
53280	0.31684	0.25768	0.15230	1.76585	1.39663	1.05587	9.14346	5.37327	2.39966	0.43607	0.37929	0.30420	1.77241	1.33190	0.99545	8.50530	5.05562	2.35258
53440	0.31755	0.25696	0.15501	1.76603	1.39677	1.05850	9.14335	5.37832	2.40198	0.43840	0.38290	0.30709	1.77450	1.33688	0.99738	8.50398	5.05774	2.35457
53610	0.31371	0.25479	0.15207	1.76256	1.39359	1.05524	9.12665	5.37420	2.39992	0.43639	0.38150	0.30513	1.77048	1.33138	0.99152	8.50433	5.05527	2.35296
53770	0.31699	0.25702	0.15370	1.76623	1.39655	1.05718	9.14209	5.37711	2.40159	0.43747	0.38112	0.30596	1.77585	1.33601	0.99433	8.51103	5.05923	2.35682
53930	0.31639	0.25703	0.15285	1.76568	1.39629	1.05639	9.12737	5.37103	2.39812	0.43518	0.37853	0.30289	1.77080	1.33262	0.99373	8.50672	5.05353	2.35379	29.32	6.0	0.00	7.44	0.01267	0.01288	0.01636	0.00779	0.00580	0.00636	0.00466	0.01262	0.01678	0.00676	0.00698	0.00881	0.01485	0.01092	0.01193	0.00216	0.00615	0.00865
54100	0.31768	0.25913	0.15667	1.76753	1.39896	1.05962	9.13816	5.37763	2.40283	0.43835	0.38259	0.30709	1.77405	1.33752	0.99629	8.50690	5.05692	2.35564
54260	0.31678	0.25713	0.15183	1.76456	1.39541	1.05644	9.12628	5.37468	2.39937	0.43571	0.38022	0.30407	1.77134	1.33292	0.99454	8.50470	5.05526	2.35328
54420	0.31580	0.25976	0.15265	1.76519	1.39750	1.05734	9.13919	5.37614	2.40314	0.43891	0.38368	0.30722	1.77492	1.33299	0.99893	8.51413	5.05714	2.35714
54590	0.31692	0.25564	0.15209	1.76488	1.39538	1.05474	9.14126	5.37384	2.39888	0.43442	0.37879	0.30357	1.77428	1.33432	0.99810	8.51360	5.06075	2.35984
54750	0.31867	0.25960	0.15445	1.76753	1.39807	1.05891	9.14568	5.37595	2.40340	0.43806	0.38198	0.30693	1.77271	1.33343	0.99562	8.50849	5.05664	2.35668
54910	0.31637	0.25552	0.15174	1.76549	1.39517	1.05691	9.12720	5.37105	2.39749	0.43503	0.38030	0.30439	1.77098	1.33067	0.99204	8.50655	5.05243	2.35160
55080	0.31521	0.25679	0.15285	1.76266	1.39664	1.05913	9.15746	5.37709	2.40513	0.44020	0.38388	0.30861	1.77472	1.33725	0.99652	8.50954	5.06053	2.35875
55240	0.31881	0.25892	0.15242	1.76603	1.39529	1.05553	9.14677	5.37190	2.40097	0.43601	0.38055	0.30515	1.76840	1.33331	0.99565	8.50549	5.05703	2.35501
55400	0.31447	0.25691	0.15250	1.76374	1.39586	1.05764	9.14068	5.37662	2.40198	0.43704	0.38139	0.30685	1.77360	1.33422	0.99623	8.50849	5.05749	2.35676
55570	0.31847	0.25692	0.15030	1.76535	1.39544	1.05774	9.12836	5.37323	2.39932	0.43736	0.38148	0.30504	1.76863	1.33131	0.99418	8.50171	5.05368	2.35333	29.32	6.1	0.00	7.42	0.01267	0.01288	0.01636	0.00779	0.00580	0.00636	0.00466	0.01262	0.01678	0.00676	0.00698	0.00881	0.01485	0.01092	0.01193	0.00216	0.00615	0.00865
55730	0.31279	0.25510	0.15400	1.76193	1.39477	1.05813	9.14242	5.37530	2.40206	0.44044	0.38324	0.30674	1.77362	1.33499	0.99324	8.50823	5.05578	2.35804
55890	0.31594	0.25549	0.15260	1.76624	1.39589	1.05772	9.13674	5.37224	2.39793	0.43825	0.38227	0.30631	1.77066	1.33375	0.99293	8.51079	5.05591	2.35513
56060	0.31848	0.25904	0.15416	1.76759	1.39895	1.06108	9.11736	5.37572	2.40228	0.44094	0.38587	0.30826	1.77287	1.33470	0.99846	8.50867	5.05872	2.35880
56220	0.31651	0.25689	0.15111	1.76655	1.39649	1.05831	9.13324	5.37608	2.40139	0.43937	0.38374	0.30645	1.76887	1.33295	0.99332	8.50709	5.05649	2.35582
56380	0.31747	0.25920	0.15433	1.76958	1.40087	1.06124	9.13806	5.37827	2.40217	0.44220	0.38663	0.30966	1.77438	1.33663	0.99829	8.51176	5.06129	2.36024
56550	0.31804	0.25757	0.15166	1.76594	1.39670	1.05711	9.12940	5.37505	2.39848	0.43752	0.37971	0.30399	1.76817	1.33176	0.99566	8.50638	5.05487	2.35677
56710	0.31752	0.25944	0.15366	1.77143	1.40309	1.06379	9.14185	5.37714	2.40273	0.44226	0.38687	0.30997	1.77287	1.33576	0.99727	8.50832	5.05971	2.35913
56870	0.31557	0.25521	0.15312	1.76713	1.39832	1.06040	9.12447	5.37212	2.39963	0.44038	0.38509	0.30741	1.77144	1.33147	0.99105	8.50506	5.05578	2.35532
57040	0.31470	0.25761	0.15249	1.76624	1.39870	1.05887	9.11982	5.37527	2.40241	0.43958	0.38473	0.30856	1.77533	1.33382	0.99437	8.50929	5.06010	2.36071
57200	0.31713	0.25696	0.15230	1.76815	1.39835	1.05950	9.13716	5.37396	2.39858	0.44024	0.38302	0.30648	1.77215	1.33288	0.99503	8.50715	5.05813	2.35593	29.26	6.1	0.00	7.59	0.01267	0.01288	0.01636	0.00779	0.00580	0.00636	0.00466	0.01262	0.01678	0.00676	0.00698	0.00881	0.01485	0.01092	0.01193	0.00216	0.00615	0.00865
57360	0.31575	0.25481	0.15265	1.76770	1.39929	1.05982	9.14325	5.37447	2.40172	0.44158	0.38355	0.30765	1.77509	1.33364	0.99531	8.50944	5.05776	2.35626
57530	0.31575	0.25479	0.15132	1.76619	1.39692	1.05803	9.12638	5.37494	2.40053	0.43997	0.38254	0.30623	1.77194	1.33233	0.99187	8.50883	5.05675	2.35437
57690	0.31417	0.25479	0.14944	1.76350	1.39462	1.05533	9.12351	5.36897	2.39780	0.43792	0.38006	0.30404	1.77509	1.33427	0.99802	8.51332	5.06250	2.36031
57850	0.31833	0.25819	0.15263	1.76880	1.39892	1.05843	9.13251	5.37337	2.40302	0.44109	0.38391	0.30726	1.77733	1.33735	0.99708	8.50521	5.05871	2.35740
58020	0.31730	0.25712	0.15396	1.76936	1.40027	1.06087	9.12380	5.37647	2.40259	0.44245	0.38409	0.30950	1.77356	1.33757	0.99556	8.51041	5.05884	2.35984
58180	0.31726	0.25848	0.15260	1.76850	1.39821	1.05976	9.10982	5.37601	2.39849	0.44052	0.38271	0.30695	1.77147	1.33237	0.99300	8.50169	5.05638	2.35536
58340	0.31749	0.25912	0.15290	1.76901	1.40104	1.06356	9.13527	5.37622	2.40390	0.44515	0.38629	0.31070	1.77547	1.33637	0.99752	8.51456	5.06092	2.35895
58510	0.31620	0.25742	0.15197	1.76782	1.39731	1.05852	9.14170	5.37472	2.39961	0.44015	0.38353	0.30835	1.77246	1.33644	0.99782	8.51491	5.06293	2.36110
58670	0.31833	0.25781	0.15450	1.76997	1.40092	1.06139	9.13062	5.38268	2.40440	0.44333	0.38527	0.31039	1.77309	1.33658	0.99651	8.51350	5.06269	2.36194
58830	0.31531	0.25505	0.15104	1.76989	1.39912	1.06012	9.13866	5.37527	2.39955	0.43989	0.38211	0.30756	1.77048	1.33362	0.99184	8.50409	5.05510	2.35515	29.26	6.3	0.00	7.46	0.01267	0.01288	0.01636	0.00779	0.00580	0.00636	0.00466	0.01262	0.01678	0.00676	0.00698	0.00881	0.01485	0.01092	0.01193	0.00216	0.00615	0.00865
58990	0.31329	0.25764	0.15233	1.76529	1.39955	1.06284	9.14727	5.37544	2.40337	0.44531	0.38558	0.31069	1.77401	1.33443	0.99121	8.50779	5.06308	2.35978
59160	0.31599	0.25596	0.15044	1.76702	1.39745	1.05880	9.14090	5.37241	2.40137	0.44071	0.38375	0.30935	1.77256	1.33182	0.99193	8.50497	5.05765	2.35551
59320	0.31604	0.25586	0.15129	1.76565	1.39545	1.05664	9.12495	5.37210	2.39552	0.43893	0.38148	0.30554	1.77412	1.33808	1.00239	8.50991	5.06522	2.36433
59480	0.32009	0.26038	0.15614	1.77273	1.40216	1.06338	9.14199	5.37932	2.40532	0.44452	0.38607	0.31011	1.77551	1.33426	0.99986	8.51132	5.06118	2.36018
59650	0.31799	0.25686	0.15188	1.76945	1.40135	1.06087	9.13487	5.37389	2.40026	0.44149	0.38519	0.30866	1.77257	1.33347	0.99607	8.50964	5.06044	2.35912
59810	0.31503	0.25597	0.15208	1.76624	1.39841	1.05894	9.13665	5.37532	2.39897	0.43936	0.38319	0.30717	1.77155	1.33525	0.99334	8.50144	5.05659	2.35613
59970	0.31606	0.25422	0.15018	1.76340	1.39428	1.05441	9.14383	5.36998	2.39708	0.43649	0.38054	0.30368	1.77376	1.33597	0.99626	8.50964	5.06196	2.35954
60140	0.31866	0.25732	0.15378	1.76797	1.39944	1.05856	9.13258	5.37365	2.40014	0.44021	0.38281	0.30602	1.77095	1.33429	0.99510	8.51211	5.05960	2.35749
60300	0.31317	0.25625	0.15028	1.76480	1.39494	1.05492	9.13505	5.37098	2.39660	0.43606	0.37965	0.30269	1.77174	1.33596	0.99815	8.50946	5.06183	2.36054
60470	0.31866	0.25852	0.15392	1.76804	1.39995	1.05895	9.13301	5.37314	2.40173	0.43888	0.38277	0.30650	1.77297	1.33261	0.99358	8.51572	5.05764	2.35770	29.32	6.0	0.00	7.44	0.01267	0.01288	0.01636	0.00779	0.00580	0.00636	0.00466	0.01262	0.01678	0.00676	0.00698	0.00881	0.01485	0.01092	0.01193	0.00216	0.00615	0.00865
60630	0.31909	0.25953	0.15348	1.76771	1.39951	1.05952	9.15053	5.37880	2.40550	0.44171	0.38515	0.30840	1.77523	1.33702	0.99569	8.51236	5.06058	2.35773
60790	0.31615	0.25645	0.15154	1.76589	1.39760	1.05737	9.11587	5.37449	2.39965	0.43825	0.38126	0.30536	1.76989	1.33001	0.99332	8.50663	5.05578	2.35497
60960	0.31784	0.25674	0.15318	1.76742	1.39929	1.06009	9.14289	5.37575	2.40515	0.44261	0.38565	0.30868	1.77572	1.33576	0.99511	8.50628	5.06004	2.35852
61120	0.31910	0.25633	0.15172	1.76711	1.39757	1.05791	9.13847	5.37583	2.40040	0.43970	0.38239	0.30609	1.76963	1.33359	0.99082	8.50478	5.05554	2.35414
61280	0.31603	0.25704	0.15322	1.76525	1.39815	1.05917	9.14484	5.38087	2.40313	0.44352	0.38628	0.30942	1.77305	1.33530	0.99478	8.50875	5.06131	2.35992
61450	0.31504	0.25608	0.15102	1.76622	1.39660	1.05702	9.15616	5.37189	2.40035	0.43987	0.38299	0.30671	1.77106	1.33077	0.99350	8.50690	5.05703	2.35674
61610	0.31661	0.26023	0.15297	1.76733	1.40038	1.05927	9.13766	5.37500	2.40123	0.44176	0.38441	0.30895	1.77314	1.33330	0.99753	8.51007	5.06198	2.35989
61770	0.31818	0.25623	0.15311	1.76844	1.39958	1.06013	9.14570	5.37183	2.39878	0.44081	0.38481	0.30765	1.77020	1.33097	0.99405	8.51113	5.05943	2.35701
61940	0.31661	0.25874	0.15341	1.76866	1.40132	1.06115	9.14168	5.37457	2.40213	0.44168	0.38565	0.30844	1.77238	1.33499	0.99643	8.51148	5.06056	2.35968
62100	0.31574	0.25645	0.15202	1.76720	1.39926	1.05988	9.14672	5.37546	2.40084	0.43906	0.38374	0.30653	1.77156	1.33115	0.99168	8.50913	5.05894	2.35790	29.26	6.2	0.00	7.56	0.01267	0.01288	0.01636	0.00779	0.00580	0.00636	0.00466	0.01262	0.01678	0.00676	0.00698	0.00881	0.01485	0.01092	0.01193	0.00216	0.00615	0.00865
62260	0.31434	0.25417	0.15062	1.76524	1.39633	1.05634	9.13202	5.36774	2.39674	0.43691	0.38190	0.30449	1.77252	1.33611	0.99731	8.51425	5.06450	2.36401
62430	0.31932	0.25963	0.15448	1.77111	1.40230	1.06180	9.14189	5.37899	2.40265	0.44162	0.38576	0.30819	1.77356	1.33458	0.99785	8.51240	5.06337	2.36165
62590	0.31952	0.26005	0.15588	1.76962	1.40181	1.06190	9.13271	5.37782	2.40336	0.44128	0.38691	0.30875	1.77316	1.33286	0.99461	8.51187	5.06156	2.36035
62750	0.31830	0.25646	0.15111	1.76724	1.39889	1.05779	9.14735	5.37246	2.40078	0.43759	0.38354	0.30622	1.77286	1.33419	0.99547	8.50587	5.06065	2.35938
62920	0.31812	0.25795	0.15403	1.76846	1.39931	1.05933	9.13816	5.37791	2.40036	0.43728	0.38280	0.30554	1.77083	1.33441	0.99230	8.50764	5.05829	2.35756
63080	0.31543	0.25495	0.15333	1.76525	1.39707	1.05765	9.14092	5.37439	2.39965	0.43749	0.38267	0.30434	1.77057	1.32927	0.99267	8.50235	5.05505	2.35363
63240	0.31407	0.25646	0.15153	1.76333	1.39694	1.05860	9.14706	5.37585	2.40227	0.43993	0.38443	0.30697	1.77567	1.33326	0.99751	8.50455	5.05795	2.35738
63400	0.31646	0.25665	0.15237	1.76455	1.39611	1.05784	9.12090	5.37457	2.40101	0.43769	0.38214	0.30517	1.77147	1.33158	0.99428	8.50799	5.05544	2.35517
63570	0.31447	0.25640	0.15420	1.76349	1.39713	1.05854	9.13627	5.37178	2.40066	0.43853	0.38356	0.30634	1.77352	1.33230	0.99380	8.50446	5.05749	2.35733
63730	0.31474	0.25906	0.15371	1.76589	1.39745	1.05843	9.14075	5.37536	2.40339	0.43860	0.38215	0.30566	1.77093	1.33048	0.99373	8.50344	5.05723	2.35630	29.26	6.0	0.00	7.45	0.01267	0.01288	0.01636	0.00779	0.00580	0.00636	0.00466	0.01262	0.01678	0.00676	0.00698	0.00881	0.01485	0.01091	0.01193	0.00216	0.00615	0.00865
63900	0.31730	0.26000	0.15491	1.76690	1.39821	1.06076	9.12818	5.37683	2.40511	0.44029	0.38320	0.30791	1.77104	1.33246	0.99486	8.50502	5.05963	2.35973
64060	0.31651	0.25800	0.15165	1.76726	1.39778	1.05966	9.14943	5.37635	2.40207	0.43922	0.38298	0.30593	1.77235	1.33301	0.99403	8.50194	5.05704	2.35570
64220	0.31803	0.25900	0.15605	1.76936	1.40043	1.06197	9.15868	5.37811	2.40568	0.44153	0.38510	0.30900	1.77279	1.33401	0.99439	8.50599	5.06117	2.35945
64390	0.31770	0.25689	0.15284	1.76697	1.39732	1.05911	9.14006	5.37450	2.40053	0.43822	0.38249	0.30678	1.76891	1.33271	0.99352	8.50396	5.05654	2.35557
64550	0.31722	0.25863	0.15523	1.76823	1.39993	1.06145	9.14690	5.37509	2.40362	0.44009	0.38513	0.30921	1.77305	1.33541	0.99623	8.50837	5.06264	2.36058
64710	0.31867	0.25928	0.15347	1.76706	1.39770	1.05725	9.13587	5.37477	2.40028	0.43730	0.38092	0.30430	1.77117	1.32981	0.99018	8.49850	5.05583	2.35492
64880	0.31664	0.25856	0.15417	1.76848	1.40094	1.06137	9.15316	5.37985	2.40392	0.43999	0.38364	0.30719	1.77310	1.33468	0.99406	8.50344	5.05745	2.35672
65040	0.31569	0.25897	0.15301	1.76569	1.39845	1.05910	9.14638	5.37895	2.40209	0.43923	0.38277	0.30543	1.77253	1.32882	0.99192	8.49912	5.05354	2.35205
65200	0.31279	0.25435	0.15078	1.76131	1.39212	1.05336	9.14776	5.37298	2.39854	0.43493	0.37990	0.30314	1.77220	1.33621	0.99915	8.50740	5.06225	2.35992
65370	0.31898	0.26030	0.15325	1.76772	1.39829	1.05961	9.14576	5.38142	2.40297	0.43916	0.38390	0.30674	1.77440	1.33296	0.99405	8.50857	5.05629	2.35522	29.26	6.0	0.00	7.44	0.01267	0.01288	0.01636	0.00779	0.00580	0.00636	0.00466	0.01262	0.01678	0.00676	0.00698	0.00881	0.01485	0.01092	0.01193	0.00216	0.00615	0.00865
65530	0.31712	0.25887	0.15490	1.76741	1.39828	1.05978	9.14340	5.37873	2.40530	0.44062	0.38461	0.30894	1.77397	1.33466	0.99650	8.51033	5.05759	2.35685
65690	0.31540	0.25702	0.15340	1.76379	1.39501	1.05643	9.14087	5.37623	2.40142	0.43581	0.38253	0.30506	1.77093	1.33177	0.99167	8.50240	5.05485	2.35325
65860	0.31846	0.25813	0.15476	1.76584	1.39602	1.05773	9.14759	5.38018	2.40322	0.43893	0.38302	0.30730	1.77326	1.33351	0.99607	8.50425	5.05731	2.35651
66020	0.31397	0.25723	0.15338	1.76502	1.39513	1.05589	9.13892	5.37617	2.39993	0.43648	0.38081	0.30506	1.77225	1.33023	0.99312	8.50090	5.05513	2.35383
66180	0.31298	0.25476	0.15007	1.76177	1.39253	1.05461	9.13376	5.37034	2.39875	0.43537	0.37815	0.30243	1.77392	1.33457	0.99687	8.50531	5.05843	2.35925
66350	0.31593	0.25963	0.15379	1.76732	1.39822	1.05898	9.14943	5.37641	2.40072	0.43859	0.38288	0.30627	1.77230	1.33282	0.99567	8.50619	5.05640	2.35634
66510	0.31676	0.25768	0.15521	1.76660	1.39802	1.06005	9.13760	5.37629	2.40325	0.43894	0.38228	0.30665	1.77174	1.33020	0.99429	8.50557	5.05627	2.35481
66670	0.31475	0.25587	0.15088	1.76332	1.39234	1.05539	9.13095	5.37577	2.39955	0.43733	0.38105	0.30519	1.77259	1.33577	0.99640	8.50628	5.05761	2.35670
66840	0.31755	0.25779	0.15277	1.76578	1.39456	1.05615	9.13599	5.37611	2.39942	0.43710	0.38145	0.30725	1.77245	1.33088	0.99366	8.50469	5.05601	2.35372
67000	0.31555	0.25537	0.15147	1.76234	1.39182	1.05454	9.15214	5.37509	2.39771	0.43544	0.37949	0.30337	1.76967	1.33591	0.99363	8.50337	5.05815	2.35782	29.26	6.1	0.00	7.45	0.01267	0.01288	0.01636	0.00779	0.00580	0.00636	0.00466	0.01262	0.01678	0.00676	0.00698	0.00881	0.01485	0.01092	0.01193	0.00216	0.00615	0.00865
67160	0.31607	0.25680	0.15306	1.76653	1.39559	1.05661	9.14014	5.37431	2.40143	0.43745	0.38176	0.30553	1.77144	1.33404	0.99547	8.49967	5.05554	2.35412
67330	0.31499	0.25682	0.15008	1.76480	1.39559	1.05643	9.13738	5.37747	2.39956	0.43739	0.38183	0.30498	1.77345	1.33399	0.99368	8.50249	5.05729	2.35692
67490	0.31642	0.25669	0.15413	1.76530	1.39486	1.05730	9.14576	5.37706	2.40259	0.43936	0.38352	0.30689	1.77258	1.33202	0.99439	8.50249	5.05619	2.35521
67660	0.31779	0.25636	0.15367	1.76613	1.39509	1.05671	9.14984	5.37966	2.40211	0.43775	0.38266	0.30655	1.77053	1.33477	0.99276	8.50681	5.05755	2.35530
67820	0.31699	0.25594	0.15278	1.76474	1.39483	1.05639	9.13790	5.37354	2.40090	0.43709	0.38119	0.30531	1.77137	1.32934	0.99235	8.49694	5.05575	2.35558
67980	0.31580	0.25729	0.15214	1.76531	1.39693	1.05819	9.14100	5.37580	2.40338	0.43780	0.38182	0.30599	1.77123	1.32964	0.99311	8.49773	5.05556	2.35453
68150	0.31685	0.25666	0.15342	1.76488	1.39550	1.05724	9.14461	5.37315	2.40003	0.43746	0.38076	0.30464	1.77059	1.32851	0.99446	8.49579	5.05400	2.35298
68310	0.31552	0.25919	0.15290	1.76562	1.39644	1.05905	9.14364	5.37999	2.40277	0.44020	0.38274	0.30689	1.77350	1.33346	0.99413	8.50293	5.05692	2.35631
68470	0.31752	0.25810	0.15112	1.76449	1.39393	1.05665	9.14973	5.37612	2.40034	0.43678	0.38022	0.30458	1.76766	1.32909	0.99211	8.49676	5.05290	2.35177
68640	0.31386	0.25908	0.15421	1.76625	1.39858	1.05921	9.15063	5.38122	2.40518	0.44192	0.38612	0.30934	1.77217	1.33619	0.99734	8.51192	5.05997	2.35836	29.32	6.2	0.00	6.63	0.01267	0.01288	0.01636	0.00779	0.00580	0.00636	0.00466	0.01262	0.01678	0.00676	0.00698	0.00881	0.01485	0.01091	0.01193	0.00216	0.00615	0.00865
68800	0.31337	0.25658	0.15306	1.76499	1.39484	1.05478	9.15138	5.37882	2.40197	0.43731	0.38216	0.30604	1.77040	1.33133	0.99214	8.50487	5.05512	2.35431
68960	0.31801	0.25842	0.15365	1.76718	1.39810	1.05819	9.13937	5.37927	2.40395	0.43783	0.38184	0.30656	1.77475	1.33427	0.99559	8.50654	5.05906	2.35899
69130	0.31728	0.25592	0.15250	1.76652	1.39469	1.05606	9.14448	5.36993	2.39929	0.43587	0.38001	0.30373	1.76912	1.32996	0.99258	8.49834	5.05273	2.35291
69290	0.31488	0.25411	0.15035	1.76291	1.39297	1.05279	9.12951	5.37442	2.39700	0.43489	0.37824	0.30219	1.77045	1.33291	0.99526	8.50178	5.05603	2.35660
69450	0.31934	0.25902	0.15325	1.76702	1.39641	1.05804	9.13467	5.37729	2.40296	0.43817	0.38308	0.30595	1.77093	1.33085	0.99379	8.50019	5.05365	2.35205
69620	0.31403	0.25347	0.14925	1.76111	1.39197	1.05296	9.14236	5.37162	2.39652	0.43547	0.37938	0.30321	1.77078	1.33602	0.99489	8.50434	5.05940	2.35678
69780	0.31582	0.25692	0.15349	1.76559	1.39483	1.05535	9.15184	5.37715	2.39951	0.43731	0.38264	0.30545	1.76931	1.33170	0.99241	8.50046	5.05543	2.35400
69940	0.31328	0.25589	0.15035	1.76173	1.39068	1.05216	9.12813	5.37215	2.39647	0.43374	0.37833	0.30176	1.77418	1.33549	0.99821	8.50566	5.06072	2.36134
70110	0.31968	0.25958	0.15566	1.76938	1.39842	1.05787	9.13559	5.37649	2.40397	0.43741	0.38183	0.30482	1.77464	1.33763	0.99807	8.50584	5.06070	2.35979
70270	0.31741	0.25886	0.15541	1.76880	1.39974	1.05928	9.14515	5.37834	2.40467	0.43958	0.38303	0.30682	1.77203	1.33662	0.99536	8.50860	5.05708	2.35593	29.32	6.2	0.00	7.44	0.01267	0.01288	0.01636	0.00779	0.00580	0.00636	0.00466	0.01262	0.01678	0.00676	0.00698	0.00881	0.01485	0.01092	0.01193	0.00216	0.00615	0.00865
70430	0.31813	0.25849	0.15437	1.76627	1.39684	1.05654	9.13900	5.37137	2.40041	0.43604	0.38079	0.30410	1.77243	1.33384	0.99201	8.50763	5.05619	2.35440
70600	0.31677	0.25580	0.15154	1.76371	1.39432	1.05545	9.12959	5.37326	2.40160	0.43686	0.38180	0.30475	1.77041	1.33143	0.99241	8.49591	5.05397	2.35224
70760	0.31447	0.25736	0.15115	1.76213	1.39139	1.05309	9.13103	5.37013	2.39865	0.43494	0.37877	0.30373	1.76990	1.33310	0.99382	8.50499	5.05239	2.35089
70920	0.31166	0.25716	0.15297	1.76089	1.39392	1.05477	9.13757	5.37534	2.40314	0.43620	0.38154	0.30428	1.77366	1.33446	0.99412	8.50552	5.05844	2.35699
71080	0.31578	0.25567	0.15192	1.76401	1.39455	1.05379	9.13608	5.37477	2.39928	0.43513	0.37921	0.30241	1.77062	1.32971	0.99208	8.49926	5.05170	2.35090
71250	0.31321	0.25325	0.14973	1.76103	1.39241	1.05344	9.13573	5.37009	2.39699	0.43372	0.37722	0.30101	1.77267	1.33397	0.99636	8.50499	5.05870	2.35758
71410	0.31620	0.25825	0.15487	1.76658	1.39721	1.05859	9.15566	5.38319	2.40525	0.44014	0.38443	0.30676	1.77199	1.33388	0.99410	8.50472	5.05792	2.35581
71570	0.31666	0.25738	0.15190	1.76456	1.39357	1.05537	9.13596	5.37697	2.40108	0.43523	0.37956	0.30509	1.77241	1.33331	0.99355	8.50375	5.05598	2.35478
71740	0.31419	0.25542	0.15011	1.76264	1.39306	1.05384	9.14193	5.37562	2.39984	0.43448	0.37839	0.30224	1.77048	1.33266	0.99160	8.50111	5.05410	2.35283
71900	0.31329	0.25650	0.15166	1.76355	1.39497	1.05407	9.12626	5.36967	2.39632	0.43302	0.37640	0.30073	1.77247	1.33542	0.99406	8.50526	5.05684	2.35436	29.32	6.1	0.00	7.39	0.01267	0.01288	0.01636	0.00778	0.00580	0.00636	0.00466	0.01262	0.01678	0.00676	0.00698	0.00881	0.01485	0.01092	0.01193	0.00216	0.00615	0.00865
72060	0.31624	0.25602	0.15265	1.76256	1.39511	1.05575	9.14387	5.37473	2.39919	0.43744	0.38009	0.30495	1.77130	1.33074	0.99237	8.50261	5.05602	2.35247
72230	0.31213	0.25521	0.14956	1.75934	1.38920	1.05019	9.12471	5.36939	2.39793	0.43193	0.37662	0.30202	1.77421	1.33656	0.99700	8.50816	5.06101	2.35951
72390	0.31927	0.25803	0.15469	1.76643	1.39589	1.05712	9.15031	5.37780	2.40176	0.43643	0.37884	0.30356	1.77011	1.33226	0.99301	8.50684	5.05649	2.35573
72560	0.31761	0.26034	0.15436	1.76723	1.39765	1.05866	9.16094	5.37820	2.40292	0.43799	0.38133	0.30553	1.77231	1.33659	0.99606	8.50658	5.05801	2.35535
72720	0.31657	0.25714	0.15233	1.76381	1.39565	1.05671	9.13406	5.37309	2.40061	0.43520	0.37926	0.30434	1.77273	1.33160	0.99222	8.50094	5.05414	2.35262
72880	0.31578	0.25631	0.15185	1.76333	1.39559	1.05703	9.12775	5.37830	2.40402	0.43762	0.38131	0.30659	1.77141	1.33551	0.99498	8.50578	5.05751	2.35497
73050	0.31555	0.25697	0.15089	1.76159	1.39417	1.05462	9.12557	5.37446	2.40008	0.43417	0.37665	0.30224	1.76977	1.33251	0.99312	8.49874	5.05448	2.35317
73210	0.31607	0.25623	0.15529	1.76462	1.39675	1.05687	9.15146	5.37672	2.40303	0.43751	0.38026	0.30539	1.77378	1.33351	0.99500	8.50385	5.05714	2.35403
73370	0.31740	0.25524	0.15393	1.76373	1.39596	1.05590	9.14651	5.37366	2.39940	0.43526	0.37830	0.30268	1.77042	1.33086	0.99291	8.50323	5.05371	2.35073
