WetView ver 7.1	07-19-2018	10:28:34
AC9 Absorption and Attenuation Meter
00000266		; Serial number
2	; structure version number
Reserved
0.000000	0.000000		; Depth calibration
19200			; Baud rate
0.100000			; Path length (meters)
31			; number of temperature calibration bins
				12.59339	13.44920	14.48425	15.49668	16.50852	17.49564	18.50545	19.52458	20.50176	21.48889	22.47318	23.48707	24.50962	25.49370	26.49784	27.51372	28.50746	29.47237	30.47938	31.50214	32.50470	33.49235	34.50337	35.50914	36.50618	37.52058	38.51018	39.51308	40.49994	41.49866	42.47204	; temperature bins
a650	Blue	20.34952		-0.00383	-0.00415	-0.00430	-0.00391	-0.00363	-0.00317	-0.00269	-0.00237	-0.00179	-0.00130	-0.00099	-0.00071	-0.00015	0.00000	0.00004	-0.00001	0.00015	0.00036	0.00058	0.00101	0.00161	0.00132	0.00160	0.00169	0.00242	0.00273	0.00336	0.00365	0.00427	0.00566	0.00670		; offset and temperature correction info
a676	Green	20.51193		-0.00398	-0.00384	-0.00360	-0.00306	-0.00302	-0.00255	-0.00235	-0.00212	-0.00163	-0.00136	-0.00118	-0.00089	-0.00029	0.00000	0.00068	0.00082	0.00099	0.00137	0.00145	0.00212	0.00260	0.00252	0.00321	0.00354	0.00457	0.00535	0.00617	0.00648	0.00742	0.00887	0.01002		; offset and temperature correction info
a715	Brown	20.23230		-0.00421	-0.00394	-0.00391	-0.00291	-0.00264	-0.00192	-0.00204	-0.00179	-0.00188	-0.00239	-0.00180	-0.00187	-0.00099	0.00000	0.00084	0.00162	0.00188	0.00224	0.00321	0.00381	0.00466	0.00528	0.00588	0.00696	0.00859	0.01041	0.01148	0.01282	0.01333	0.01456	0.01617		; offset and temperature correction info
c510	Red	20.40042		-0.00261	-0.00247	-0.00258	-0.00225	-0.00203	-0.00197	-0.00199	-0.00203	-0.00154	-0.00103	-0.00069	-0.00019	-0.00007	0.00000	0.00011	-0.00021	-0.00042	-0.00056	-0.00040	0.00011	0.00036	0.00050	0.00077	0.00079	0.00050	0.00042	0.00043	0.00092	0.00147	0.00200	0.00232		; offset and temperature correction info
c532	Magenta	20.40760		-0.00248	-0.00265	-0.00278	-0.00279	-0.00296	-0.00292	-0.00238	-0.00206	-0.00129	-0.00096	-0.00092	-0.00052	-0.00009	0.00000	0.00007	-0.00049	-0.00136	-0.00107	-0.00079	-0.00065	-0.00074	-0.00105	-0.00152	-0.00192	-0.00236	-0.00269	-0.00252	-0.00233	-0.00172	-0.00128	-0.00067		; offset and temperature correction info
c555	Black	20.50654		-0.00053	-0.00063	-0.00106	-0.00094	-0.00068	-0.00055	-0.00053	-0.00039	-0.00028	-0.00025	-0.00011	-0.00035	-0.00007	0.00000	-0.00037	-0.00055	-0.00036	-0.00014	0.00019	0.00044	0.00032	0.00040	0.00050	0.00028	0.00014	0.00013	0.00030	0.00073	0.00117	0.00176	0.00241		; offset and temperature correction info
a412	LtBlue	17.15231		-0.01972	-0.01823	-0.01612	-0.01381	-0.01272	-0.01080	-0.00959	-0.00866	-0.00710	-0.00532	-0.00354	-0.00148	-0.00028	0.00000	0.00176	0.00297	0.00394	0.00440	0.00453	0.00487	0.00804	0.00856	0.01065	0.01248	0.01388	0.01439	0.01659	0.01881	0.02256	0.02450	0.02719		; offset and temperature correction info
a440	LtGreen	18.00171		-0.00729	-0.00642	-0.00581	-0.00502	-0.00426	-0.00349	-0.00244	-0.00218	-0.00179	-0.00101	-0.00046	-0.00006	0.00036	0.00000	0.00040	0.00045	0.00030	-0.00015	-0.00024	-0.00035	0.00012	-0.00013	-0.00033	-0.00089	-0.00142	-0.00189	-0.00231	-0.00205	-0.00140	-0.00140	-0.00146		; offset and temperature correction info
a488	Yellow	18.86491		-0.00113	-0.00102	-0.00106	-0.00064	-0.00027	-0.00020	-0.00030	-0.00037	-0.00047	-0.00059	-0.00052	-0.00012	0.00008	0.00000	0.00025	0.00012	-0.00013	-0.00043	-0.00065	-0.00076	-0.00025	0.00010	0.00090	0.00111	0.00113	0.00104	0.00073	0.00068	0.00120	0.00186	0.00258		; offset and temperature correction info
c650	Blue	20.46075		-0.00145	-0.00097	-0.00092	-0.00139	-0.00185	-0.00196	-0.00237	-0.00266	-0.00238	-0.00163	-0.00083	-0.00041	-0.00010	0.00000	0.00005	-0.00001	0.00015	0.00034	0.00029	0.00065	0.00101	0.00164	0.00126	0.00156	0.00175	0.00270	0.00287	0.00371	0.00407	0.00473	0.00534		; offset and temperature correction info
c676	Green	20.10118		-0.00170	-0.00144	-0.00149	-0.00177	-0.00188	-0.00194	-0.00198	-0.00196	-0.00177	-0.00156	-0.00140	-0.00091	-0.00033	0.00000	0.00050	0.00092	0.00110	0.00141	0.00167	0.00199	0.00216	0.00265	0.00269	0.00289	0.00315	0.00374	0.00367	0.00408	0.00486	0.00561	0.00646		; offset and temperature correction info
c715	Brown	19.91219		-0.01201	-0.01097	-0.00859	-0.00680	-0.00651	-0.00592	-0.00535	-0.00440	-0.00387	-0.00303	-0.00222	-0.00153	-0.00028	0.00000	0.00093	0.00149	0.00247	0.00322	0.00330	0.00427	0.00373	0.00464	0.00536	0.00551	0.00643	0.00733	0.00779	0.00884	0.00899	0.01021	0.01120		; offset and temperature correction info
a510	Red	19.21192		0.00201	0.00193	0.00158	0.00098	0.00089	0.00049	0.00011	-0.00016	-0.00016	-0.00005	0.00028	0.00025	0.00006	0.00000	0.00035	-0.00022	-0.00023	-0.00080	-0.00144	-0.00154	-0.00153	-0.00204	-0.00220	-0.00219	-0.00190	-0.00128	-0.00069	-0.00018	0.00068	0.00152	0.00241		; offset and temperature correction info
a532	Magenta	19.41084		-0.00097	-0.00072	-0.00060	-0.00081	-0.00062	-0.00071	-0.00040	0.00020	0.00028	0.00043	0.00000	-0.00035	0.00007	0.00000	-0.00011	-0.00059	-0.00080	-0.00098	-0.00137	-0.00162	-0.00163	-0.00130	-0.00073	-0.00018	0.00090	0.00185	0.00175	0.00247	0.00291	0.00327	0.00349		; offset and temperature correction info
a555	Black	19.69776		0.00171	0.00183	0.00183	0.00186	0.00191	0.00170	0.00115	0.00131	0.00097	0.00073	0.00060	0.00013	0.00015	0.00000	0.00014	-0.00029	-0.00066	-0.00082	-0.00116	-0.00139	-0.00134	-0.00167	-0.00119	-0.00093	-0.00048	0.00053	0.00111	0.00095	0.00178	0.00206	0.00273		; offset and temperature correction info
c412	LtBlue	19.91180		-0.02051	-0.01853	-0.01589	-0.01311	-0.01059	-0.00877	-0.00705	-0.00581	-0.00413	-0.00231	-0.00098	-0.00066	-0.00011	0.00000	-0.00013	-0.00085	-0.00170	-0.00170	-0.00302	-0.00330	-0.00429	-0.00551	-0.00626	-0.00775	-0.00978	-0.01181	-0.01113	-0.01108	-0.01116	-0.01192	-0.01291		; offset and temperature correction info
c440	LtGreen	20.06241		-0.01064	-0.00992	-0.00892	-0.00766	-0.00639	-0.00531	-0.00478	-0.00384	-0.00287	-0.00187	-0.00102	-0.00063	-0.00023	0.00000	-0.00007	-0.00053	-0.00090	-0.00119	-0.00169	-0.00197	-0.00226	-0.00257	-0.00260	-0.00289	-0.00394	-0.00470	-0.00481	-0.00493	-0.00520	-0.00580	-0.00620		; offset and temperature correction info
c488	Yellow	20.35984		-0.01125	-0.01082	-0.00966	-0.00833	-0.00726	-0.00661	-0.00579	-0.00500	-0.00389	-0.00278	-0.00167	-0.00113	-0.00041	0.00000	0.00055	0.00121	0.00187	0.00226	0.00222	0.00251	0.00281	0.00359	0.00414	0.00427	0.00401	0.00404	0.00486	0.00563	0.00638	0.00684	0.00718		; offset and temperature correction info
0.003500	0.004000	0.015000	0.020000	0.015000	0.020000	2500.000000	2000.000000	1000.000000	; maxANoise	maxCNoise	maxADifference	maxCDifference	minACounts	minCCounts	minRCounts	maxTempSdev	maxDepthSdev
0			; auxilliary capabilities
1			; acquisition binsize
0	0.50434	0.46421	0.27237	2.74244	2.33932	1.87739	10.00843	6.04077	2.82370	1.10585	0.99222	0.89609	2.12688	1.63817	1.24604	10.16915	6.46038	3.45370	25.75	6.1	0.00	7.25	0.01271	0.01288	0.01661	0.00770	0.00574	0.00630	0.00467	0.01264	0.01683	0.00672	0.00691	0.00886	0.01488	0.01095	0.01196	0.00214	0.00607	0.00856
170	0.49167	0.44553	0.28976	2.78312	2.34581	1.99349	10.03032	6.04228	2.83088	1.09882	1.03227	0.93439	2.12971	1.62944	1.26049	10.16736	6.45910	3.51371
330	0.49775	0.46016	0.29460	2.79359	2.35305	1.89472	10.01799	6.04140	2.82846	1.07539	0.99185	0.88707	2.12774	1.61340	1.25215	10.19813	6.41205	3.42976
500	0.48914	0.44648	0.28299	2.74387	2.25771	1.85746	10.02901	6.02011	2.81494	1.04507	0.96450	0.83271	2.11887	1.61290	1.23262	10.13730	6.43129	3.40983
660	0.48723	0.45178	0.29695	2.70735	2.25350	1.85397	9.99707	6.01520	2.81192	1.07192	0.96344	0.82932	2.11397	1.59906	1.22711	10.11331	6.35780	3.37563
820	0.47959	0.44082	0.27431	2.68988	2.22088	1.80434	9.99270	6.01536	2.80513	1.01976	0.90202	0.80351	2.10369	1.61268	1.22766	10.08289	6.36670	3.34594
990	0.46361	0.42043	0.26027	2.66334	2.18896	1.80141	9.98478	5.99965	2.79031	0.98830	0.91189	0.78654	2.09397	1.60051	1.22952	10.05496	6.34229	3.34861
1150	0.46048	0.42754	0.27287	2.65079	2.22637	1.80831	9.97911	6.01207	2.78642	1.00545	0.92900	0.82431	2.10962	1.59485	1.22916	10.10263	6.33356	3.32507
1310	0.47875	0.43087	0.26194	2.66691	2.20989	1.80546	9.97388	6.00712	2.78382	1.00667	0.89274	0.77528	2.10197	1.59909	1.22552	10.03905	6.33179	3.33376
1480	0.46640	0.42520	0.26062	2.63614	2.20043	1.81585	9.97407	5.99687	2.78199	0.97205	0.89591	0.77394	2.09450	1.59484	1.23008	10.06496	6.32913	3.31805
1640	0.46440	0.41986	0.26879	2.64132	2.18790	1.78107	9.97045	6.00322	2.78888	0.99594	0.91734	0.78901	2.08935	1.60761	1.21669	10.06368	6.34089	3.33527	25.69	6.1	0.00	7.21	0.01271	0.01288	0.01661	0.00770	0.00574	0.00630	0.00467	0.01264	0.01683	0.00672	0.00691	0.00886	0.01488	0.01095	0.01196	0.00214	0.00608	0.00856
1800	0.46696	0.42228	0.27292	2.65886	2.19641	1.77369	9.97132	6.00886	2.78564	0.97870	0.92830	0.79744	2.08819	1.59249	1.22541	10.04340	6.32508	3.33494
1970	0.47206	0.42348	0.26900	2.64654	2.21303	1.78514	9.97829	5.99318	2.77550	1.00902	0.90382	0.79553	2.13327	1.61898	1.24441	10.11724	6.35602	3.39279
2130	0.49636	0.42781	0.26757	2.68012	2.26541	1.84409	9.97779	6.00169	2.82368	1.10457	0.96491	0.85725	2.11597	1.61500	1.24122	10.09350	6.42214	3.35956
2300	0.48410	0.45418	0.30073	2.71195	2.24957	1.83567	9.97941	6.02642	2.83172	1.07250	0.92041	0.81822	2.13222	1.62400	1.24996	10.06951	6.37610	3.40059
2460	0.48328	0.44104	0.27989	2.71835	2.23125	1.81954	9.99418	6.00096	2.79500	1.03164	0.93954	0.82800	2.11812	1.61877	1.24781	10.09653	6.38676	3.34910
2630	0.48865	0.44246	0.27039	2.69456	2.23870	1.81583	9.97872	6.01283	2.81380	1.01825	0.93812	0.80222	2.10477	1.62639	1.25700	10.06962	6.37335	3.32860
2790	0.48982	0.43947	0.27694	2.68743	2.22823	1.84236	9.98408	6.00345	2.80198	1.03290	0.92548	0.79395	2.11592	1.63673	1.24190	10.07358	6.35667	3.35181
2950	0.47654	0.43018	0.27179	2.64767	2.20052	1.78440	9.97686	6.01613	2.78936	1.00763	0.90439	0.79423	2.10859	1.60215	1.21689	10.03852	6.31843	3.33361
3120	0.46254	0.42173	0.26724	2.64936	2.21581	1.80081	9.98988	5.99780	2.79050	1.01353	0.91897	0.81158	2.10546	1.60560	1.23178	10.10040	6.33770	3.32315
3280	0.47783	0.42459	0.26403	2.64739	2.18910	1.79147	9.97495	6.00363	2.77871	0.99595	0.90153	0.80372	2.09794	1.60452	1.23325	10.07290	6.33705	3.34956	25.75	6.0	0.00	7.31	0.01272	0.01288	0.01661	0.00770	0.00574	0.00630	0.00467	0.01264	0.01683	0.00672	0.00691	0.00886	0.01488	0.01095	0.01196	0.00214	0.00608	0.00857
3440	0.47299	0.42921	0.27968	2.66042	2.22186	1.80229	9.97675	6.00207	2.78974	1.01867	0.90572	0.78405	2.09418	1.59066	1.21932	10.07592	6.33785	3.34255
3610	0.46519	0.42168	0.26463	2.68341	2.21264	1.80615	9.98093	6.00154	2.79041	1.02910	0.93505	0.81959	2.09675	1.60911	1.24852	10.09209	6.37601	3.34169
3770	0.47958	0.43731	0.26612	2.68866	2.24104	1.80331	9.96798	6.00502	2.79738	1.00392	0.92212	0.79494	2.09855	1.60057	1.22678	10.12062	6.35823	3.37209
3930	0.48299	0.44533	0.28762	2.68048	2.22142	1.83216	10.02018	6.04965	2.81004	0.99376	0.90474	0.81251	2.11217	1.60548	1.24675	10.10650	6.35706	3.35548
4100	0.49979	0.42390	0.27699	2.71510	2.22919	1.82418	10.02393	6.03421	2.80391	1.01250	0.94241	0.80716	2.10082	1.62038	1.23908	10.08927	6.37209	3.33924
4260	0.48272	0.42968	0.27593	2.67543	2.21457	1.80163	9.99414	6.01465	2.80798	1.02193	0.92589	0.81952	2.10695	1.60388	1.24582	10.05854	6.35943	3.36538
4420	0.48259	0.45195	0.30046	2.70184	2.24347	1.84703	9.97408	6.02160	2.82391	1.02346	0.93182	0.80383	2.12003	1.61930	1.24374	10.09219	6.37961	3.36177
4580	0.48605	0.44180	0.29279	2.71136	2.21841	1.81518	9.98803	6.02400	2.80793	1.04320	0.94131	0.81601	2.13994	1.63937	1.26709	10.08186	6.36040	3.34568
4750	0.48398	0.43473	0.28685	2.66907	2.25243	1.81823	9.99283	6.01571	2.81536	0.99991	0.91944	0.80029	2.10733	1.61623	1.23162	10.08750	6.33971	3.35020
4910	0.49678	0.44243	0.28046	2.66711	2.23203	1.79124	9.98079	6.02494	2.79506	0.96626	0.91934	0.77264	2.08877	1.59722	1.23159	10.06552	6.33733	3.33110	25.81	6.0	0.00	7.25	0.01272	0.01288	0.01661	0.00770	0.00575	0.00630	0.00467	0.01264	0.01683	0.00672	0.00691	0.00886	0.01488	0.01095	0.01196	0.00214	0.00608	0.00857
5080	0.48114	0.42649	0.26859	2.67829	2.22440	1.80768	10.01468	6.01917	2.78931	1.00585	0.91517	0.80278	2.10038	1.60565	1.23052	10.10358	6.36506	3.36709
5240	0.47546	0.43490	0.28337	2.67941	2.22458	1.82401	10.00406	6.01569	2.81245	1.00590	0.92504	0.83244	2.10723	1.60767	1.23372	10.09491	6.38477	3.35434
5400	0.50589	0.44349	0.29010	2.69269	2.26164	1.82089	10.01424	6.02111	2.83645	1.02644	0.96338	0.82300	2.11420	1.62345	1.22982	10.16332	6.41805	3.37530
5570	0.47988	0.43774	0.29061	2.68158	2.25847	1.82574	10.01874	6.00843	2.80235	1.16798	0.94290	0.81521	2.11472	1.62269	1.25109	10.12586	6.41747	3.42254
5730	0.50014	0.45471	0.29872	2.76781	2.24155	1.85295	10.02024	6.06786	2.83373	1.06451	1.02944	0.93344	2.17205	1.65808	1.27904	10.22055	6.42033	3.41120
5900	0.54533	0.50502	0.31167	2.83203	2.29143	1.93127	10.08883	6.10486	2.87244	1.13939	1.11686	1.02879	2.18185	1.67182	1.33479	10.15995	6.44741	3.45752
6060	0.52900	0.47594	0.29659	2.84709	2.37862	1.91109	10.06977	6.08803	2.84799	1.09825	1.03317	0.93276	2.15687	1.62233	1.25860	10.18541	6.41882	3.40408
6220	0.52010	0.48149	0.29485	2.74463	2.26293	1.82896	10.02274	6.06185	2.85327	1.03243	0.95226	0.80399	2.12103	1.62494	1.23788	10.14704	6.40552	3.38966
6390	0.48838	0.45518	0.28317	2.68237	2.24705	1.83471	10.03664	6.03502	2.82419	1.04087	0.95591	0.82679	2.11958	1.64129	1.24415	10.12262	6.37703	3.38339
6550	0.51831	0.45910	0.29909	2.73877	2.26985	1.83952	10.08104	6.05534	2.82178	1.08138	1.00875	0.88997	2.13319	1.63217	1.24949	10.15366	6.41001	3.38883	25.69	6.2	0.00	7.27	0.01271	0.01288	0.01661	0.00770	0.00575	0.00630	0.00467	0.01264	0.01684	0.00672	0.00691	0.00886	0.01488	0.01095	0.01196	0.00214	0.00608	0.00857
6720	0.49376	0.45294	0.28639	2.70807	2.25807	1.81928	10.07387	6.05249	2.82385	1.00667	0.91521	0.81200	2.11695	1.62884	1.23845	10.14621	6.40400	3.35394
6880	0.47807	0.43076	0.29795	2.69789	2.24850	1.83896	10.01025	6.04534	2.82105	1.03358	0.91539	0.79639	2.11401	1.64942	1.23965	10.14191	6.37203	3.37817
7040	0.48207	0.43167	0.27202	2.69764	2.24681	1.77709	10.02933	6.03856	2.80404	0.97540	0.92719	0.77278	2.12272	1.60974	1.24447	10.12965	6.40568	3.34880
7210	0.49799	0.43619	0.27565	2.66444	2.21084	1.80033	10.02038	6.01498	2.80868	0.97775	0.89405	0.77105	2.11934	1.61337	1.21949	10.12232	6.37949	3.36150
7370	0.47662	0.42385	0.26609	2.66305	2.24249	1.82784	10.03202	6.03161	2.80041	0.99199	0.90076	0.79921	2.11803	1.60236	1.23084	10.14254	6.37380	3.35840
7530	0.47730	0.42589	0.27575	2.67273	2.23083	1.82458	10.03271	6.02605	2.79821	0.99591	0.90076	0.79485	2.10950	1.61553	1.23361	10.10663	6.35207	3.37338
7700	0.48681	0.43413	0.26674	2.65893	2.21366	1.79250	10.02713	6.03812	2.81360	1.00890	0.89398	0.77768	2.10610	1.59842	1.23327	10.10454	6.35133	3.37360
7860	0.46854	0.42273	0.26692	2.65931	2.18662	1.78409	10.02188	6.02676	2.79993	1.00315	0.91149	0.77012	2.09421	1.60411	1.24028	10.10193	6.38458	3.34593
8030	0.46969	0.44635	0.27559	2.65620	2.19211	1.81753	10.07060	6.10244	2.81662	1.02253	0.95905	0.80534	2.12503	1.63112	1.31806	10.12850	6.40168	3.37769
8190	0.48021	0.44575	0.28454	2.69497	2.20448	1.79642	10.05717	6.08328	2.82296	0.98913	0.92934	0.79856	2.11696	1.60957	1.23664	10.11131	6.34984	3.35149	25.75	6.2	0.00	7.26	0.01271	0.01289	0.01661	0.00770	0.00575	0.00630	0.00467	0.01264	0.01684	0.00672	0.00691	0.00886	0.01488	0.01095	0.01196	0.00214	0.00608	0.00857
8350	0.47739	0.43399	0.26563	2.68292	2.18977	1.83784	10.00820	6.03788	2.80184	1.00067	0.88894	0.75387	2.11020	1.60703	1.23906	10.09992	6.32975	3.33811
8520	0.46795	0.42349	0.26948	2.67354	2.20204	1.78482	10.02527	6.02593	2.79417	0.96788	0.88911	0.76433	2.09717	1.59702	1.22811	10.08405	6.33688	3.31878
8680	0.46945	0.42857	0.26111	2.65128	2.17738	1.76609	10.02552	6.03185	2.80201	0.97558	0.87160	0.76272	2.09850	1.62394	1.24098	10.11340	6.33974	3.31739
8850	0.46969	0.43558	0.26938	2.64867	2.19527	1.78167	10.02289	6.01584	2.79664	0.97153	0.89355	0.76689	2.11863	1.61802	1.22629	10.11748	6.35215	3.33589
9010	0.47435	0.42591	0.26588	2.66088	2.20770	1.76471	10.02959	6.03339	2.81444	0.97413	0.90039	0.77617	2.10903	1.59991	1.23554	10.11581	6.35210	3.35580
9170	0.47338	0.42996	0.25767	2.63358	2.18930	1.77821	10.00633	6.01918	2.78572	0.98719	0.88966	0.75744	2.09347	1.60335	1.22808	10.08666	6.34792	3.32232
9340	0.48086	0.43456	0.27095	2.62505	2.18948	1.76609	10.00433	6.01688	2.79170	0.95399	0.88036	0.78397	2.09519	1.59125	1.22501	10.10472	6.33447	3.32363
9500	0.46876	0.42221	0.26456	2.63046	2.18205	1.77989	10.03385	6.01587	2.78596	0.98374	0.88772	0.79854	2.10892	1.61173	1.24346	10.14588	6.36249	3.35640
9670	0.48444	0.44059	0.28136	2.73358	2.23765	1.80076	10.03072	6.03391	2.81628	1.05778	0.95973	0.81494	2.12270	1.63380	1.25353	10.14714	6.38584	3.41367
9830	0.51681	0.44630	0.29111	2.68791	2.24954	1.83635	10.03483	6.05380	2.82933	1.03080	0.93448	0.80071	2.13371	1.62829	1.25535	10.11675	6.37926	3.38632	25.75	6.1	0.00	7.34	0.01272	0.01289	0.01661	0.00770	0.00575	0.00630	0.00467	0.01264	0.01684	0.00672	0.00691	0.00886	0.01488	0.01095	0.01196	0.00214	0.00608	0.00857
9990	0.49119	0.45434	0.29118	2.67809	2.23901	1.79904	10.03959	6.03879	2.81070	1.03260	0.94445	0.82641	2.11146	1.63123	1.27020	10.13100	6.38428	3.36028
10160	0.49459	0.47372	0.28685	2.69149	2.25151	1.82164	10.06588	6.04530	2.80986	1.01868	0.92443	0.81405	2.11198	1.62295	1.27899	10.14064	6.39380	3.38618
10320	0.49535	0.45315	0.28893	2.69206	2.24537	1.85695	10.04492	6.05793	2.82356	1.00442	0.92260	0.82752	2.11217	1.61542	1.23971	10.13529	6.38980	3.36698
10490	0.49904	0.44298	0.28319	2.71923	2.25588	1.82088	10.02825	6.04455	2.80831	1.01040	0.92487	0.81871	2.12437	1.62305	1.25719	10.13393	6.41064	3.36308
10650	0.48971	0.44811	0.28043	2.66866	2.22912	1.79637	10.04022	6.04082	2.80480	1.01395	0.91299	0.80138	2.10850	1.63112	1.23928	10.11089	6.35898	3.34814
10810	0.47590	0.43107	0.26919	2.65680	2.21730	1.79598	10.03176	6.03362	2.80681	1.00507	0.90797	0.77749	2.10451	1.60996	1.24709	10.14621	6.37831	3.36050
10980	0.48273	0.42632	0.25805	2.65310	2.17992	1.77545	10.02212	6.02785	2.79551	0.97698	0.88553	0.76773	2.09968	1.59586	1.22668	10.10023	6.35393	3.33825
11140	0.47881	0.44082	0.26220	2.63849	2.19355	1.78211	10.02756	6.03712	2.80374	0.97559	0.90240	0.78085	2.10126	1.59379	1.22497	10.10661	6.35370	3.32825
11310	0.47375	0.42139	0.26482	2.62989	2.18684	1.76357	10.01993	6.02699	2.78722	0.98117	0.88299	0.76005	2.09613	1.59290	1.23250	10.10546	6.32881	3.37562
11470	0.46891	0.41583	0.27217	2.65170	2.26046	1.86203	10.02437	6.02341	2.79938	1.01585	0.92214	0.86079	2.11130	1.60819	1.24671	10.10110	6.39524	3.36531	25.75	6.2	0.00	7.27	0.01272	0.01289	0.01661	0.00770	0.00574	0.00630	0.00467	0.01264	0.01684	0.00672	0.00691	0.00886	0.01488	0.01095	0.01196	0.00214	0.00608	0.00857
11630	0.48742	0.43861	0.27629	2.70241	2.19793	1.79565	10.05257	6.04833	2.81209	1.02041	0.93420	0.81113	2.12339	1.61981	1.25281	10.15383	6.42372	3.37460
11800	0.48786	0.44310	0.27830	2.74244	2.25510	1.83438	10.03457	6.05520	2.82218	1.08009	0.94353	0.81737	2.10641	1.61108	1.23775	10.17983	6.44989	3.37414
11960	0.48804	0.43776	0.28001	2.66479	2.21669	1.81806	10.03827	6.03762	2.80610	1.00344	0.90811	0.79841	2.13727	1.63168	1.23916	10.10895	6.37318	3.36658
12130	0.48538	0.43171	0.28956	2.66661	2.22563	1.83974	10.05307	6.05677	2.82448	1.00261	0.90981	0.78536	2.13837	1.62616	1.24453	10.14480	6.38389	3.34736
12290	0.47467	0.43042	0.28133	2.65284	2.21196	1.81635	10.04228	6.03890	2.80834	0.98244	0.91443	0.80330	2.12508	1.60548	1.24842	10.11460	6.38039	3.36338
12450	0.48549	0.43586	0.26445	2.69475	2.23637	1.79976	10.03789	6.03157	2.81654	1.05570	0.92505	0.81528	2.10523	1.61652	1.23892	10.12109	6.37300	3.37799
12620	0.50024	0.44058	0.26752	2.64923	2.19151	1.80212	10.02962	6.03834	2.82718	1.03986	0.92330	0.80596	2.11941	1.62825	1.24201	10.13587	6.39344	3.35413
12780	0.48613	0.43435	0.28111	2.65088	2.20324	1.80381	10.04172	6.02902	2.78894	0.99873	0.91326	0.80758	2.12761	1.61131	1.23081	10.11282	6.35946	3.37270
12950	0.50189	0.43027	0.26909	2.65157	2.17137	1.79226	10.03044	6.02730	2.80630	0.98734	0.90738	0.77829	2.10242	1.60323	1.23755	10.11889	6.35682	3.34327
13110	0.47443	0.42137	0.26222	2.64919	2.19481	1.77376	10.01999	6.03886	2.79056	0.98443	0.88439	0.75386	2.09725	1.61576	1.22847	10.09114	6.33835	3.34464	25.75	6.1	0.00	7.39	0.01272	0.01289	0.01661	0.00770	0.00575	0.00630	0.00467	0.01264	0.01684	0.00672	0.00691	0.00886	0.01488	0.01095	0.01196	0.00214	0.00608	0.00857
13270	0.47356	0.42552	0.25997	2.67354	2.19807	1.78836	10.02581	6.02830	2.80517	1.01390	0.89382	0.77853	2.12475	1.61882	1.23976	10.14516	6.37005	3.36235
13440	0.50017	0.44539	0.27344	2.73830	2.24439	1.83226	10.05132	6.05179	2.85696	1.07165	0.99972	0.86092	2.14086	1.63136	1.25101	10.14442	6.43868	3.42491
13600	0.48213	0.44897	0.27807	2.69556	2.26075	1.88962	10.03032	6.05357	2.81055	1.03313	0.89035	0.77846	2.11627	1.62979	1.25657	10.14778	6.38822	3.39443
13770	0.51142	0.45587	0.28649	2.68222	2.23851	1.83916	10.05715	6.05726	2.82519	1.00601	0.93300	0.81015	2.13685	1.63229	1.25720	10.16018	6.37489	3.34464
13930	0.48581	0.46449	0.30840	2.72696	2.24702	1.82523	10.06180	6.02776	2.80336	0.99217	0.90229	0.80149	2.11781	1.61741	1.24214	10.11100	6.40315	3.36024
14100	0.49800	0.44035	0.28429	2.67314	2.24760	1.79598	10.03320	6.04399	2.81166	0.99434	0.91558	0.77934	2.12027	1.61092	1.23685	10.13624	6.43059	3.38782
14260	0.49494	0.44676	0.27741	2.69294	2.22127	1.78462	10.03007	6.04770	2.81804	1.01221	0.92857	0.79200	2.10448	1.60560	1.23844	10.12586	6.38483	3.37721
14420	0.48700	0.43752	0.29412	2.68126	2.24461	1.82000	10.02387	6.04454	2.82258	1.01489	0.93055	0.81412	2.12506	1.61467	1.23592	10.11916	6.40821	3.35041
14590	0.49653	0.44317	0.27831	2.70220	2.26667	1.82578	10.03896	6.04748	2.82459	1.04216	0.91788	0.82705	2.14183	1.63928	1.25215	10.15387	6.37120	3.39250
14750	0.50651	0.45158	0.27664	2.68042	2.27391	1.85218	10.04126	6.05361	2.83747	1.00818	0.93861	0.83553	2.15919	1.65757	1.25679	10.15933	6.42551	3.44708	25.69	6.3	0.00	7.24	0.01272	0.01289	0.01661	0.00770	0.00575	0.00630	0.00467	0.01264	0.01684	0.00672	0.00691	0.00886	0.01488	0.01095	0.01196	0.00214	0.00608	0.00857
14920	0.49487	0.43959	0.28346	2.67891	2.25825	1.85467	10.06278	6.05200	2.85403	1.05904	0.96609	0.83581	2.14838	1.64720	1.26549	10.19039	6.45225	3.39122
15080	0.50005	0.45273	0.28781	2.70391	2.30119	1.86883	10.04646	6.06021	2.80741	1.05333	0.95100	0.86842	2.11360	1.61217	1.23557	10.14011	6.40987	3.38025
15240	0.48315	0.44281	0.28435	2.74129	2.23918	1.82102	10.06184	6.07068	2.84195	1.02068	0.98035	0.84994	2.14332	1.64360	1.23396	10.20907	6.39571	3.35239
15410	0.48388	0.43182	0.27326	2.69458	2.22738	1.81159	10.04020	6.04538	2.82748	1.01826	0.90371	0.80380	2.12792	1.61287	1.24163	10.15198	6.37749	3.37632
15570	0.48621	0.43097	0.27488	2.67769	2.20519	1.82843	10.04922	6.06641	2.81219	1.02139	0.91123	0.77740	2.12894	1.64432	1.24081	10.15775	6.42731	3.38203
15730	0.48007	0.44992	0.27464	2.72400	2.23122	1.79033	10.05399	6.05773	2.82066	1.03579	0.94634	0.81191	2.14258	1.63378	1.25743	10.18522	6.41280	3.39521
15900	0.50718	0.46978	0.29265	2.70635	2.27768	1.83154	10.05324	6.08758	2.84426	1.12070	1.00286	0.90040	2.14734	1.64960	1.26860	10.22567	6.51580	3.45580
16060	0.49325	0.46308	0.28936	2.72719	2.29481	1.85562	10.08026	6.09310	2.83235	1.05679	0.97110	0.83879	2.13641	1.63272	1.26042	10.21615	6.45660	3.40409
16230	0.49853	0.44376	0.28720	2.72081	2.28807	1.93884	10.08712	6.09370	2.86932	1.05113	0.98241	0.86359	2.17545	1.64324	1.24333	10.23456	6.42074	3.42273
16390	0.49368	0.45657	0.28318	2.72000	2.26574	1.81057	10.11866	6.06388	2.84703	1.03021	0.93498	0.81742	2.11558	1.62600	1.23997	10.19610	6.43707	3.37460	25.69	6.1	0.00	7.24	0.01272	0.01289	0.01661	0.00770	0.00575	0.00630	0.00467	0.01264	0.01684	0.00672	0.00691	0.00886	0.01488	0.01095	0.01196	0.00214	0.00608	0.00857
16550	0.47855	0.44104	0.27531	2.71433	2.24012	1.86066	10.08461	6.06373	2.82567	0.97302	0.93015	0.83044	2.12530	1.62810	1.25499	10.18925	6.40680	3.40021
16720	0.47925	0.44724	0.28828	2.69997	2.23353	1.82989	10.09840	6.09756	2.86259	1.03794	0.93332	0.82060	2.16435	1.64591	1.26706	10.21617	6.45670	3.41657
16880	0.50074	0.44089	0.27605	2.71116	2.27707	1.82086	10.07259	6.08116	2.83691	1.05292	0.96208	0.81904	2.12535	1.62119	1.23570	10.16609	6.39589	3.35864
17050	0.47309	0.43447	0.26428	2.66532	2.22509	1.80051	10.08757	6.07479	2.82692	1.01473	0.90249	0.78194	2.12649	1.61203	1.23173	10.13920	6.36592	3.37052
17210	0.46755	0.41959	0.26753	2.67043	2.20066	1.79845	10.07171	6.05065	2.79920	0.98668	0.87335	0.75872	2.11505	1.61120	1.23461	10.17219	6.40545	3.39911
17370	0.47331	0.42245	0.25566	2.66670	2.21074	1.82379	10.08234	6.05665	2.81910	0.97529	0.89671	0.79466	2.13230	1.60820	1.24373	10.18925	6.39879	3.36314
17540	0.48311	0.43902	0.26708	2.69379	2.27317	1.83588	10.08341	6.08677	2.83818	1.02501	0.92148	0.83242	2.14880	1.64114	1.27646	10.20993	6.44086	3.41614
17700	0.50511	0.45386	0.30222	2.70405	2.23901	1.83214	10.11178	6.08710	2.88427	1.04326	0.94119	0.85432	2.15161	1.64042	1.27762	10.25790	6.48008	3.37500
17870	0.51435	0.45155	0.29888	2.69773	2.25905	1.83141	10.10591	6.07022	2.83968	1.00934	0.95397	0.83574	2.14195	1.64225	1.25142	10.21648	6.42545	3.36285
18030	0.49813	0.44335	0.26595	2.66850	2.22112	1.80919	10.08862	6.07409	2.82073	0.98064	0.92998	0.81201	2.10874	1.62448	1.24469	10.14732	6.39093	3.37044	25.75	6.0	0.00	7.21	0.01272	0.01289	0.01661	0.00770	0.00575	0.00630	0.00467	0.01264	0.01684	0.00672	0.00690	0.00886	0.01488	0.01095	0.01196	0.00214	0.00608	0.00856
18200	0.47514	0.44657	0.27795	2.65434	2.22467	1.82234	10.09063	6.05146	2.82307	0.98887	0.88129	0.79049	2.11433	1.60649	1.22629	10.15488	6.37996	3.39455
18360	0.47925	0.42539	0.26291	2.68018	2.23367	1.79881	10.07811	6.07326	2.81453	0.98680	0.89274	0.78185	2.13597	1.61802	1.26002	10.15225	6.40772	3.38653
18520	0.48170	0.45913	0.27846	2.68404	2.23632	1.79281	10.08812	6.05929	2.81138	0.99785	0.93428	0.79400	2.12735	1.62699	1.22373	10.21292	6.40920	3.37588
18690	0.47141	0.41979	0.25829	2.67069	2.20664	1.79869	10.06007	6.04938	2.82602	0.98844	0.90384	0.76829	2.12383	1.61243	1.23019	10.13075	6.34725	3.34183
18850	0.46708	0.42584	0.26051	2.62896	2.19181	1.81309	10.04771	6.04805	2.81632	1.01475	0.88561	0.80625	2.12295	1.62059	1.24725	10.15614	6.39588	3.39871
19020	0.47569	0.43112	0.28043	2.66835	2.24566	1.79874	10.05173	6.06765	2.82347	1.01400	0.92125	0.80797	2.13906	1.65717	1.25688	10.16928	6.41265	3.39806
19180	0.48509	0.45329	0.28901	2.68103	2.23441	1.82138	10.08383	6.07794	2.82037	1.00307	0.90848	0.78423	2.13291	1.61548	1.24425	10.14711	6.38161	3.36623
19340	0.48357	0.43175	0.28765	2.66776	2.23878	1.81344	10.05731	6.08137	2.83610	1.01149	0.92397	0.84352	2.13847	1.62082	1.24691	10.14039	6.40757	3.37002
19510	0.47907	0.44971	0.28175	2.69020	2.24014	1.83076	10.02848	6.05552	2.83142	1.04363	0.92692	0.77939	2.11951	1.61985	1.23062	10.18180	6.38928	3.34673
19670	0.47916	0.43928	0.27002	2.67835	2.25165	1.86745	10.07157	6.06562	2.83213	1.06523	0.92904	0.82438	2.12936	1.62080	1.24349	10.18133	6.41469	3.35823	25.75	6.0	0.00	7.27	0.01272	0.01289	0.01661	0.00770	0.00575	0.00630	0.00467	0.01264	0.01684	0.00672	0.00691	0.00886	0.01488	0.01095	0.01196	0.00214	0.00608	0.00856
19840	0.48337	0.43446	0.28017	2.68023	2.23861	1.83535	10.06145	6.06600	2.81524	1.01447	0.92603	0.79548	2.13432	1.64876	1.27166	10.16828	6.40607	3.35863
20000	0.51693	0.45108	0.28238	2.72676	2.25261	1.83194	10.08075	6.07074	2.82262	1.06634	0.94772	0.85996	2.16298	1.65092	1.26375	10.19377	6.39241	3.38119
20170	0.53157	0.49344	0.30521	2.73245	2.27073	1.89857	10.08515	6.09812	2.84427	1.13006	0.94827	0.86434	2.14175	1.63615	1.25362	10.24675	6.42808	3.41495
20330	0.50567	0.45694	0.28608	2.71054	2.25721	1.86880	10.08994	6.06297	2.82297	1.06510	0.98337	0.86417	2.13726	1.62321	1.24229	10.17312	6.38144	3.37123
20490	0.48082	0.43891	0.27617	2.67414	2.21676	1.80040	10.05932	6.05586	2.80586	1.02501	0.92079	0.80493	2.12259	1.61392	1.24278	10.15682	6.37687	3.34890
20660	0.48292	0.44159	0.27422	2.66119	2.21917	1.80588	10.08314	6.06994	2.81966	0.99496	0.91455	0.81520	2.14497	1.62830	1.26054	10.16828	6.39994	3.34213
20820	0.47545	0.43833	0.26642	2.66073	2.20925	1.81435	10.08830	6.07039	2.81775	0.98706	0.91494	0.77626	2.13080	1.63061	1.25686	10.14442	6.39106	3.35899
20980	0.47653	0.46152	0.27474	2.66731	2.21676	1.80486	10.06667	6.05113	2.83520	1.01570	0.90553	0.77571	2.11504	1.61985	1.22958	10.14295	6.38758	3.34764
21150	0.48673	0.44615	0.27502	2.66437	2.24328	1.82198	10.06905	6.05380	2.82648	0.99531	0.94087	0.80460	2.14930	1.62284	1.26049	10.21108	6.41361	3.41553
21310	0.48841	0.46692	0.29566	2.71985	2.25868	1.83152	10.11402	6.08022	2.83618	1.00767	0.90192	0.78878	2.11922	1.62289	1.25008	10.17934	6.39341	3.36328	25.75	6.0	0.00	7.26	0.01272	0.01288	0.01661	0.00770	0.00575	0.00630	0.00467	0.01264	0.01684	0.00672	0.00690	0.00886	0.01488	0.01095	0.01196	0.00214	0.00607	0.00856
21480	0.47638	0.43175	0.26145	2.63353	2.22951	1.79356	10.10115	6.07899	2.82374	1.00687	0.87431	0.75966	2.12676	1.62463	1.24291	10.15377	6.38037	3.33607
21640	0.46649	0.43027	0.27086	2.65457	2.21930	1.80013	10.12823	6.07739	2.83438	0.98490	0.92301	0.81452	2.13457	1.62566	1.24642	10.20644	6.40110	3.36337
21800	0.47984	0.42981	0.26826	2.67289	2.24422	1.79544	10.13513	6.11357	2.84654	1.00337	0.91873	0.77901	2.13302	1.65429	1.26046	10.21712	6.43306	3.39849
21970	0.48452	0.42081	0.26767	2.67371	2.22307	1.87427	10.15305	6.09233	2.83513	0.99768	0.88950	0.80058	2.13046	1.62684	1.24353	10.21025	6.42541	3.36525
22130	0.49613	0.45170	0.27655	2.73629	2.22053	1.81302	10.13253	6.11101	2.85579	1.04724	0.93472	0.78380	2.14828	1.63043	1.25909	10.24062	6.45441	3.37067
22290	0.48751	0.44640	0.27743	2.69261	2.22898	1.81848	10.16357	6.10393	2.85557	1.03825	0.94556	0.82480	2.15197	1.65549	1.28314	10.24433	6.46899	3.43452
22460	0.50135	0.43593	0.29580	2.67506	2.25393	1.82084	10.15647	6.12294	2.86014	1.06740	0.95529	0.84269	2.14563	1.62997	1.25968	10.23002	6.44226	3.37467
22620	0.47896	0.43410	0.26715	2.68601	2.21427	1.78417	10.14127	6.10144	2.84149	0.95811	0.88909	0.76756	2.12482	1.61596	1.23105	10.25483	6.45619	3.40368
22780	0.47080	0.43044	0.26404	2.66551	2.20433	1.78690	10.15844	6.10245	2.82685	0.96219	0.88557	0.75754	2.13359	1.62448	1.24050	10.23712	6.41387	3.36736
22950	0.47058	0.42659	0.27257	2.69745	2.20520	1.80644	10.15939	6.11152	2.83599	0.97657	0.88638	0.79986	2.14127	1.63266	1.24907	10.21566	6.42896	3.41640	25.75	6.1	0.00	7.37	0.01272	0.01288	0.01661	0.00770	0.00575	0.00630	0.00467	0.01264	0.01684	0.00672	0.00690	0.00886	0.01488	0.01095	0.01196	0.00214	0.00607	0.00856
23110	0.48028	0.43144	0.27774	2.65930	2.24217	1.79581	10.17996	6.11038	2.83324	0.96046	0.87196	0.75353	2.12528	1.62977	1.23630	10.23578	6.44263	3.35467
23280	0.47513	0.42603	0.26300	2.67523	2.17213	1.77334	10.14317	6.09152	2.82589	0.97756	0.88453	0.77565	2.12218	1.61099	1.23063	10.21344	6.41311	3.35389
23440	0.47063	0.41836	0.25967	2.66403	2.20693	1.76712	10.13356	6.08312	2.81823	0.96323	0.88394	0.76395	2.12236	1.60884	1.22815	10.19317	6.39818	3.34954
23610	0.46418	0.42216	0.25488	2.65155	2.21202	1.79003	10.12641	6.09000	2.82317	0.99089	0.90373	0.78888	2.12108	1.62055	1.25030	10.19770	6.42070	3.36301
23770	0.49660	0.44328	0.29035	2.70304	2.25373	1.82644	10.15236	6.12143	2.86460	1.05971	0.91266	0.81817	2.14883	1.65588	1.27999	10.26166	6.49422	3.40959
23930	0.49716	0.46085	0.28171	2.73594	2.26646	1.85577	10.16250	6.11531	2.83927	1.00346	0.93412	0.80970	2.14409	1.64171	1.25914	10.21937	6.44962	3.40167
24100	0.49160	0.45232	0.29050	2.70052	2.23238	1.83285	10.14343	6.10731	2.84320	1.01790	0.93388	0.83736	2.15529	1.65051	1.28333	10.26846	6.43820	3.36116
24260	0.49765	0.43980	0.25919	2.68796	2.24037	1.78524	10.14368	6.08077	2.82222	1.01109	0.88525	0.76377	2.12638	1.62438	1.24369	10.18294	6.37560	3.35406
24430	0.46772	0.42259	0.26838	2.65700	2.21182	1.78507	10.11378	6.09041	2.83826	0.97068	0.89202	0.74991	2.12619	1.61791	1.23499	10.15946	6.37745	3.33088
24590	0.46815	0.41971	0.26583	2.67727	2.24037	1.77812	10.12899	6.09889	2.82635	0.99676	0.89873	0.75965	2.12395	1.61385	1.24403	10.16086	6.37914	3.35589	25.75	6.2	0.00	7.33	0.01272	0.01288	0.01661	0.00770	0.00575	0.00630	0.00467	0.01264	0.01684	0.00672	0.00690	0.00886	0.01488	0.01095	0.01196	0.00214	0.00608	0.00856
24750	0.48008	0.42384	0.26828	2.64932	2.22371	1.79247	10.13057	6.08172	2.82164	0.96017	0.90547	0.75820	2.12447	1.60961	1.24101	10.19446	6.38136	3.33846
24920	0.48243	0.42866	0.26832	2.63021	2.19825	1.77673	10.12387	6.07431	2.82153	0.96379	0.89422	0.79167	2.11576	1.61693	1.24029	10.18813	6.37512	3.35138
25080	0.46558	0.41575	0.26066	2.66057	2.17708	1.76689	10.13329	6.09174	2.83650	0.98468	0.89520	0.74862	2.12058	1.62531	1.23360	10.17928	6.37592	3.33771
25240	0.46511	0.42740	0.27118	2.64687	2.18695	1.78206	10.11875	6.07183	2.81282	0.98019	0.87093	0.75116	2.11548	1.60944	1.22880	10.16170	6.37053	3.33372
25410	0.45799	0.42068	0.25335	2.64413	2.17994	1.78701	10.11566	6.07088	2.81775	0.95964	0.86124	0.74246	2.11264	1.61557	1.23536	10.15035	6.35793	3.32460
25570	0.47042	0.41795	0.25930	2.65549	2.19550	1.80453	10.12147	6.08386	2.82550	0.98579	0.87671	0.79808	2.12237	1.60678	1.23100	10.17665	6.39421	3.34626
25730	0.46632	0.41248	0.26121	2.71177	2.21956	1.78375	10.13475	6.08029	2.82726	1.02172	0.89876	0.78086	2.12337	1.62100	1.24371	10.17107	6.37722	3.33760
25900	0.47207	0.42466	0.25820	2.66291	2.19491	1.78841	10.10481	6.06830	2.81801	0.96462	0.88322	0.78937	2.11199	1.61226	1.23410	10.16570	6.37667	3.34246
26060	0.46263	0.42000	0.26209	2.64644	2.20144	1.79282	10.09705	6.07248	2.81378	0.96470	0.86890	0.75896	2.12115	1.61045	1.22245	10.18613	6.38493	3.35391
26220	0.46938	0.42057	0.25933	2.65203	2.17808	1.77078	10.09655	6.07241	2.83220	0.95532	0.86673	0.76001	2.12797	1.61538	1.23314	10.15548	6.37100	3.34421	25.75	6.1	0.00	7.27	0.01272	0.01288	0.01661	0.00770	0.00575	0.00630	0.00467	0.01264	0.01684	0.00672	0.00691	0.00886	0.01488	0.01095	0.01196	0.00214	0.00608	0.00857
26390	0.46924	0.42120	0.27768	2.63269	2.17989	1.75651	10.08716	6.07412	2.82265	0.97321	0.86365	0.74582	2.11272	1.60358	1.22733	10.14182	6.36656	3.34979
26550	0.46864	0.42260	0.26504	2.63350	2.25870	1.80109	10.10436	6.07297	2.81614	1.02577	0.89699	0.75629	2.12008	1.62364	1.22871	10.14308	6.38415	3.33491
26710	0.46738	0.43168	0.26442	2.64055	2.21548	1.78220	10.08401	6.07673	2.82443	0.98152	0.90007	0.78978	2.11942	1.62194	1.22838	10.19086	6.39578	3.33724
26880	0.46729	0.41854	0.26848	2.65107	2.20313	1.77271	10.09919	6.07877	2.80764	0.96264	0.88412	0.76840	2.11040	1.60907	1.23501	10.15222	6.39875	3.34823
27040	0.47054	0.42215	0.26699	2.66943	2.21432	1.81777	10.08389	6.08139	2.83036	0.96888	0.88675	0.76135	2.11788	1.60643	1.23323	10.16936	6.36760	3.33717
27200	0.47148	0.42750	0.25794	2.64837	2.21254	1.78673	10.11238	6.07658	2.81508	0.97919	0.87960	0.77758	2.12653	1.61385	1.23708	10.16126	6.39695	3.32997
27370	0.46648	0.41880	0.25494	2.64001	2.19241	1.77836	10.12722	6.06995	2.81388	0.96051	0.88132	0.75109	2.11381	1.61286	1.23118	10.16684	6.39200	3.33964
27530	0.46099	0.41832	0.26063	2.65573	2.19366	1.77409	10.11181	6.07957	2.82908	0.96075	0.88366	0.74580	2.12260	1.61048	1.24191	10.15611	6.39100	3.36073
27700	0.47377	0.42704	0.27372	2.66374	2.24727	1.82183	10.11894	6.09235	2.83231	1.02569	0.90873	0.78740	2.12415	1.61478	1.23820	10.24269	6.44230	3.42562
27860	0.47273	0.42628	0.27382	2.66338	2.20058	1.82475	10.14137	6.10273	2.85393	1.04468	0.94125	0.77775	2.15118	1.64286	1.25357	10.19702	6.39924	3.34432	25.69	6.1	0.00	7.21	0.01272	0.01288	0.01661	0.00770	0.00575	0.00630	0.00467	0.01264	0.01684	0.00672	0.00691	0.00886	0.01488	0.01095	0.01196	0.00214	0.00608	0.00857
28020	0.49543	0.43394	0.28419	2.66313	2.20723	1.80814	10.13131	6.08921	2.83395	0.98766	0.89003	0.77339	2.12101	1.62045	1.24168	10.19323	6.39551	3.34264
28190	0.47212	0.42449	0.27530	2.65756	2.19121	1.79772	10.12732	6.09683	2.83895	0.98322	0.89609	0.78533	2.13798	1.62423	1.24304	10.22978	6.40257	3.37545
28350	0.48319	0.43829	0.28567	2.67146	2.24126	1.82671	10.14485	6.11417	2.83724	1.01810	0.91373	0.82829	2.15413	1.62872	1.25359	10.23921	6.43008	3.36144
28520	0.48611	0.44478	0.29115	2.66029	2.20469	1.79484	10.14814	6.09395	2.84210	0.98543	0.87512	0.75420	2.13766	1.61967	1.24991	10.18184	6.39281	3.37863
28680	0.47182	0.42316	0.25897	2.63907	2.20059	1.79819	10.13510	6.09708	2.83104	0.96774	0.87542	0.75530	2.11818	1.61177	1.24012	10.20526	6.37955	3.34282
28840	0.47126	0.41548	0.26622	2.68636	2.19435	1.80575	10.13447	6.08902	2.82336	0.98016	0.87768	0.77194	2.12939	1.61858	1.23121	10.18205	6.38954	3.34005
29010	0.46684	0.41554	0.26184	2.63127	2.18507	1.76723	10.13264	6.07652	2.81449	0.95867	0.85375	0.72713	2.12026	1.61232	1.23095	10.17700	6.39146	3.34315
29170	0.46927	0.41934	0.25778	2.63242	2.17531	1.76932	10.13238	6.08934	2.82208	0.96294	0.85782	0.74518	2.11373	1.61180	1.23466	10.18269	6.39214	3.34864
29330	0.47232	0.42369	0.25626	2.62436	2.19487	1.78372	10.13181	6.09246	2.82249	0.94898	0.87570	0.75542	2.13090	1.63199	1.23429	10.20093	6.40652	3.36219
29500	0.47929	0.42277	0.26792	2.63967	2.20157	1.79376	10.13710	6.11073	2.84542	1.00462	0.90498	0.77652	2.14081	1.62982	1.24141	10.18580	6.39241	3.38196	25.81	6.3	0.00	7.35	0.01272	0.01289	0.01661	0.00770	0.00575	0.00630	0.00467	0.01264	0.01684	0.00672	0.00691	0.00886	0.01488	0.01095	0.01196	0.00214	0.00608	0.00857
29660	0.47911	0.42515	0.27292	2.66136	2.19984	1.81525	10.16334	6.10064	2.84774	0.99023	0.92030	0.81988	2.13921	1.63648	1.26651	10.20532	6.43483	3.39797
29830	0.47410	0.43925	0.28452	2.68839	2.24523	1.82111	10.15978	6.11823	2.84628	1.03316	0.93279	0.77696	2.14601	1.62530	1.24308	10.21663	6.42434	3.35606
29990	0.47311	0.42572	0.26460	2.65532	2.20549	1.79562	10.14514	6.09129	2.82742	0.97342	0.87569	0.76741	2.12377	1.61907	1.25064	10.19065	6.39401	3.36035
30160	0.47399	0.42421	0.26859	2.66862	2.20836	1.78258	10.13736	6.11569	2.83093	0.98154	0.87566	0.79554	2.12850	1.62249	1.24416	10.24014	6.40209	3.34805
30320	0.46729	0.42680	0.26610	2.64574	2.19994	1.78457	10.13596	6.09608	2.82259	0.97894	0.88276	0.77441	2.12448	1.61313	1.24368	10.18496	6.40702	3.34484
30480	0.47671	0.42417	0.27129	2.62749	2.19351	1.78325	10.13179	6.09810	2.83323	1.00489	0.91128	0.79212	2.13016	1.62672	1.23935	10.22277	6.43656	3.37200
30650	0.48111	0.43371	0.26972	2.67601	2.20398	1.81565	10.16867	6.12653	2.85509	1.00310	0.92050	0.77938	2.13689	1.64081	1.25560	10.21748	6.44289	3.36571
30810	0.48882	0.43363	0.27214	2.65902	2.20085	1.79478	10.17616	6.12394	2.84790	0.99517	0.90712	0.78458	2.13271	1.62152	1.24323	10.18401	6.37717	3.34961
30980	0.47213	0.42636	0.26845	2.65900	2.20860	1.78071	10.13755	6.09951	2.82729	0.97748	0.88289	0.75537	2.13348	1.63431	1.26831	10.19360	6.40154	3.36258
31140	0.47824	0.43570	0.26824	2.69425	2.20712	1.79709	10.14639	6.11725	2.84394	0.99642	0.91560	0.77580	2.15134	1.62596	1.26342	10.20859	6.41741	3.39100	25.75	6.1	0.00	7.23	0.01272	0.01289	0.01661	0.00770	0.00575	0.00630	0.00467	0.01264	0.01684	0.00672	0.00691	0.00886	0.01488	0.01095	0.01196	0.00214	0.00608	0.00857
31310	0.47996	0.43898	0.27017	2.65291	2.22021	1.80150	10.15596	6.11168	2.84929	0.98332	0.89526	0.78059	2.12597	1.61624	1.24936	10.20172	6.39993	3.34004
31470	0.47409	0.42959	0.26234	2.64941	2.20944	1.78707	10.14563	6.10058	2.83857	0.96148	0.88930	0.75731	2.14150	1.63445	1.25315	10.17452	6.39543	3.35202
31630	0.47642	0.42623	0.27099	2.62989	2.22302	1.78828	10.12993	6.09986	2.82733	1.00179	0.90616	0.78428	2.12751	1.64928	1.26286	10.21271	6.40253	3.36951
31800	0.49746	0.43315	0.26181	2.68098	2.19970	1.79913	10.16046	6.09973	2.83636	0.98286	0.88073	0.75574	2.12842	1.61703	1.23803	10.20785	6.43022	3.38670
31960	0.47023	0.42826	0.25965	2.67857	2.20899	1.77895	10.15222	6.10779	2.83073	0.99661	0.86874	0.77841	2.14440	1.62886	1.24416	10.21123	6.41861	3.33948
32120	0.47401	0.43287	0.27284	2.63419	2.19762	1.79132	10.16065	6.10225	2.82922	0.99050	0.88519	0.75409	2.12112	1.61979	1.24295	10.23271	6.42616	3.36463
32290	0.46496	0.42054	0.26026	2.65420	2.20185	1.77522	10.16554	6.11149	2.83058	1.00904	0.89046	0.75631	2.14096	1.62499	1.25420	10.22033	6.41670	3.36819
32450	0.47062	0.44396	0.27683	2.65935	2.20465	1.77012	10.16750	6.09737	2.84411	1.00302	0.88275	0.79337	2.14041	1.62857	1.26756	10.23123	6.41134	3.35569
32610	0.48777	0.43891	0.27709	2.67684	2.23380	1.80550	10.16814	6.11339	2.85126	0.99144	0.92993	0.80998	2.13005	1.63490	1.24669	10.21832	6.42643	3.41155
32780	0.48762	0.42153	0.26180	2.69056	2.20767	1.79113	10.14842	6.11340	2.84919	0.99092	0.87685	0.76536	2.13323	1.62346	1.24141	10.22679	6.43182	3.37082	25.75	6.1	0.00	7.35	0.01271	0.01289	0.01661	0.00770	0.00575	0.00630	0.00467	0.01264	0.01684	0.00672	0.00691	0.00886	0.01488	0.01095	0.01196	0.00214	0.00608	0.00857
32940	0.47822	0.43720	0.27883	2.69043	2.25949	1.78898	10.15805	6.11516	2.84327	0.97528	0.89022	0.75914	2.12118	1.61805	1.24435	10.21514	6.41808	3.36823
33110	0.46970	0.43033	0.26927	2.64551	2.19621	1.77994	10.16738	6.10810	2.83234	0.98070	0.88500	0.77548	2.13323	1.64783	1.24128	10.21303	6.41605	3.35649
33270	0.46925	0.42408	0.26147	2.67583	2.23482	1.79243	10.14601	6.09723	2.83694	0.97899	0.91039	0.79927	2.13545	1.62100	1.24325	10.20869	6.41542	3.35062
33440	0.48287	0.43249	0.27704	2.67163	2.21443	1.78055	10.16071	6.10862	2.83660	0.98290	0.90565	0.78331	2.13942	1.63049	1.25906	10.22944	6.42088	3.37168
33600	0.48846	0.43442	0.27328	2.67906	2.23174	1.79438	10.14766	6.11047	2.83249	0.97189	0.89125	0.75855	2.12535	1.62040	1.24073	10.18112	6.39970	3.31858
33760	0.46773	0.41998	0.25762	2.65235	2.17855	1.78365	10.12266	6.09056	2.81824	0.97485	0.88340	0.74927	2.13254	1.62435	1.23758	10.18703	6.39242	3.34208
33930	0.48676	0.42372	0.27017	2.67507	2.19084	1.76058	10.14531	6.09257	2.82873	0.97226	0.88614	0.74481	2.12132	1.61332	1.25050	10.21303	6.40413	3.35286
34090	0.46666	0.41173	0.25883	2.66881	2.22515	1.78364	10.12576	6.09102	2.82985	0.98044	0.89395	0.75672	2.13437	1.63641	1.23973	10.19410	6.40060	3.33963
34250	0.48339	0.43175	0.26697	2.64431	2.17879	1.76942	10.16198	6.10838	2.83639	0.97406	0.87538	0.75797	2.12616	1.62499	1.23147	10.18228	6.39320	3.37996
34420	0.47713	0.41374	0.26821	2.70055	2.18954	1.78794	10.14436	6.11213	2.82736	0.98949	0.87144	0.76347	2.13341	1.62006	1.23993	10.18264	6.40296	3.32759	25.75	6.0	0.00	7.64	0.01272	0.01288	0.01661	0.00770	0.00574	0.00630	0.00467	0.01264	0.01684	0.00672	0.00691	0.00886	0.01488	0.01095	0.01196	0.00214	0.00608	0.00857
34580	0.46717	0.41012	0.25877	2.62523	2.17788	1.77374	10.14303	6.11420	2.84238	0.95049	0.87652	0.75978	2.13813	1.62015	1.23690	10.20958	6.42128	3.36664
34750	0.47048	0.41897	0.25794	2.65910	2.18996	1.78089	10.17906	6.11914	2.83423	0.97216	0.88946	0.75809	2.12811	1.62819	1.24304	10.22271	6.43031	3.35409
34910	0.46968	0.42898	0.26201	2.64413	2.18201	1.77291	10.19331	6.13345	2.83952	0.96026	0.88033	0.76155	2.13957	1.62655	1.24117	10.25061	6.44402	3.37691
35080	0.49192	0.42849	0.25973	2.68845	2.22303	1.79976	10.20885	6.14640	2.84186	0.97635	0.90216	0.78705	2.14600	1.63410	1.25653	10.27731	6.46651	3.37691
35240	0.47411	0.42711	0.27535	2.68547	2.21436	1.78861	10.22690	6.14128	2.85837	0.97264	0.90016	0.76867	2.13623	1.63481	1.25389	10.24785	6.42705	3.36612
35400	0.47650	0.42420	0.26602	2.67758	2.23177	1.80485	10.23898	6.14859	2.84596	0.98824	0.87527	0.75601	2.14629	1.63421	1.24231	10.25411	6.44075	3.35154
35570	0.46831	0.42154	0.26168	2.64995	2.20852	1.76495	10.20362	6.13983	2.84262	0.97300	0.89907	0.76285	2.14642	1.62356	1.24101	10.26645	6.46485	3.36567
35730	0.48507	0.44524	0.27192	2.67231	2.23747	1.78567	10.21376	6.15452	2.86511	0.97355	0.87467	0.74758	2.17661	1.64458	1.27510	10.29895	6.47851	3.39108
35890	0.49934	0.42650	0.27155	2.68446	2.21868	1.79702	10.24090	6.14866	2.85511	1.01949	0.90904	0.77886	2.15210	1.64049	1.26572	10.30878	6.47468	3.37203
36060	0.47842	0.43345	0.27015	2.66092	2.21687	1.76806	10.25535	6.14788	2.86192	0.96306	0.87156	0.77414	2.14415	1.63712	1.24981	10.27359	6.44649	3.36230	25.75	6.2	0.00	6.93	0.01272	0.01288	0.01661	0.00770	0.00574	0.00630	0.00467	0.01264	0.01684	0.00672	0.00691	0.00886	0.01488	0.01095	0.01196	0.00214	0.00608	0.00857
36220	0.47472	0.41749	0.25942	2.68374	2.21547	1.77827	10.24179	6.14922	2.85018	0.98335	0.87671	0.75064	2.14597	1.63034	1.25930	10.28530	6.41873	3.34770
36380	0.47600	0.42628	0.26994	2.65492	2.20564	1.79528	10.25228	6.15496	2.86145	0.96417	0.87077	0.75542	2.14082	1.62825	1.25014	10.27848	6.44461	3.33870
36550	0.47451	0.42429	0.26064	2.64085	2.20769	1.77879	10.24454	6.15291	2.84931	0.97287	0.89119	0.74027	2.14552	1.62882	1.24919	10.26497	6.44526	3.37103
36710	0.47247	0.42866	0.27065	2.65500	2.20433	1.78611	10.24921	6.15558	2.85396	0.96415	0.86870	0.76024	2.13389	1.63354	1.24862	10.28019	6.46050	3.37554
36880	0.47952	0.42160	0.27281	2.67127	2.20912	1.79930	10.26554	6.16912	2.86248	1.00037	0.90362	0.77521	2.15851	1.63883	1.25703	10.32255	6.52363	3.44646
37040	0.48211	0.44392	0.27222	2.70374	2.29274	1.84975	10.28042	6.18769	2.88467	1.03114	0.93564	0.81816	2.17087	1.64583	1.27230	10.35414	6.53478	3.45226
37210	0.50063	0.44791	0.27819	2.71271	2.26572	1.84754	10.30548	6.17805	2.86746	0.98725	0.91810	0.79102	2.16129	1.63160	1.25263	10.34032	6.49719	3.40576
37370	0.46898	0.42232	0.27457	2.71577	2.23179	1.80635	10.24870	6.17305	2.86400	0.96918	0.90295	0.77097	2.14321	1.63012	1.24336	10.32704	6.47342	3.36437
37540	0.47348	0.42898	0.26098	2.67808	2.22557	1.80632	10.27663	6.15440	2.85820	0.97752	0.89335	0.76285	2.14029	1.63040	1.25327	10.30535	6.45522	3.36863
37700	0.47152	0.42639	0.26071	2.68173	2.21285	1.80346	10.25843	6.15522	2.86328	0.95144	0.86955	0.75978	2.14818	1.64266	1.25366	10.31415	6.46044	3.36883	25.75	6.0	0.00	7.60	0.01272	0.01288	0.01661	0.00770	0.00574	0.00630	0.00467	0.01264	0.01684	0.00672	0.00691	0.00886	0.01488	0.01095	0.01196	0.00214	0.00608	0.00857
37860	0.47364	0.42667	0.26417	2.68753	2.21110	1.83034	10.27477	6.16784	2.86129	0.95240	0.86626	0.76230	2.14451	1.64181	1.26540	10.30668	6.46550	3.36550
38030	0.47360	0.41875	0.26109	2.67091	2.19946	1.79594	10.26432	6.17422	2.85990	0.95602	0.86449	0.76644	2.14138	1.64131	1.25439	10.30806	6.45989	3.35076
38190	0.47645	0.42791	0.27112	2.68297	2.21317	1.79897	10.28434	6.17685	2.86513	0.99748	0.89401	0.77527	2.15312	1.63552	1.25251	10.35376	6.49272	3.37660
38350	0.48025	0.43310	0.27573	2.66890	2.24827	1.83517	10.28344	6.18841	2.87390	0.99941	0.93629	0.78079	2.16736	1.63704	1.25409	10.34025	6.51218	3.41459
38520	0.49003	0.44645	0.27715	2.70298	2.21029	1.81658	10.27753	6.18966	2.88162	1.04006	0.92131	0.83817	2.17025	1.66267	1.26422	10.35129	6.49820	3.40348
38680	0.48485	0.44093	0.27044	2.69395	2.22470	1.79885	10.30471	6.18249	2.88616	0.99041	0.90972	0.82208	2.16968	1.65480	1.25765	10.36685	6.52287	3.42778
38840	0.48961	0.44826	0.28099	2.73203	2.29080	1.85483	10.29571	6.19667	2.92885	1.00770	0.92517	0.79780	2.18234	1.66487	1.25941	10.33554	6.51772	3.41624
39010	0.50102	0.44063	0.28060	2.69528	2.23703	1.83951	10.29359	6.19142	2.87598	1.05137	0.90214	0.79863	2.14737	1.63516	1.25124	10.33565	6.48620	3.39637
39170	0.47634	0.42891	0.27220	2.67944	2.20669	1.83061	10.27169	6.17979	2.85765	0.98788	0.88776	0.74984	2.15432	1.64071	1.26522	10.32687	6.47200	3.41643
39330	0.47151	0.41637	0.26812	2.66480	2.19953	1.78116	10.27212	6.16491	2.85605	0.96581	0.86796	0.73860	2.13870	1.62347	1.24971	10.30129	6.45802	3.35904	25.69	5.9	0.00	7.20	0.01272	0.01288	0.01661	0.00770	0.00574	0.00630	0.00467	0.01264	0.01684	0.00672	0.00691	0.00886	0.01488	0.01095	0.01196	0.00214	0.00608	0.00857
39500	0.47028	0.42273	0.26823	2.64645	2.17901	1.76795	10.28939	6.17229	2.89078	0.96791	0.87031	0.77600	2.16507	1.65185	1.27181	10.33506	6.47850	3.39536
39660	0.47863	0.43009	0.26574	2.67534	2.24202	1.78435	10.29826	6.18802	2.86777	0.97319	0.88643	0.79917	2.15975	1.64010	1.27238	10.33913	6.48781	3.41153
39820	0.49958	0.44098	0.27750	2.69540	2.20745	1.79528	10.28772	6.16394	2.86198	0.99405	0.87418	0.76362	2.15777	1.63487	1.25900	10.32287	6.47893	3.40400
39990	0.48418	0.42707	0.26327	2.70817	2.21421	1.81216	10.27835	6.18072	2.87692	0.95945	0.86919	0.75651	2.14370	1.62916	1.26147	10.31026	6.45875	3.37355
40150	0.47143	0.41956	0.26153	2.70410	2.18763	1.77790	10.25034	6.15617	2.85950	0.99283	0.89382	0.76193	2.14870	1.62780	1.24251	10.31325	6.46658	3.37596
40320	0.47937	0.42890	0.26057	2.70402	2.21284	1.79495	10.26321	6.16338	2.86498	0.98986	0.89084	0.76757	2.15060	1.63532	1.24317	10.34395	6.50866	3.39550
40480	0.48038	0.42247	0.26994	2.77856	2.29880	1.86946	10.25706	6.17516	2.86358	0.98622	0.88748	0.77014	2.16125	1.65456	1.26809	10.33635	6.48226	3.39880
40650	0.48342	0.42942	0.26236	2.69570	2.23330	1.79694	10.27341	6.19156	2.87295	0.98482	0.89411	0.76069	2.17298	1.64405	1.25512	10.29436	6.45993	3.39295
40810	0.47645	0.42057	0.26359	2.63813	2.18525	1.77594	10.24580	6.15374	2.85285	0.95771	0.87943	0.75426	2.14715	1.63429	1.25506	10.31432	6.46834	3.38665
40980	0.47744	0.42673	0.26476	2.66185	2.21311	1.77007	10.24567	6.17907	2.86097	0.95234	0.86837	0.74505	2.14563	1.62603	1.24207	10.29906	6.46418	3.36398	25.69	6.1	0.00	7.24	0.01271	0.01288	0.01660	0.00770	0.00574	0.00630	0.00467	0.01264	0.01683	0.00672	0.00691	0.00886	0.01488	0.01095	0.01196	0.00214	0.00607	0.00856
41140	0.47128	0.41764	0.25877	2.65651	2.19181	1.77762	10.26444	6.16977	2.85917	0.96744	0.86627	0.76017	2.15309	1.63172	1.25919	10.32930	6.48670	3.36841
41310	0.47347	0.42303	0.26276	2.68977	2.20582	1.78914	10.29127	6.16935	2.86099	0.97953	0.88054	0.76547	2.14635	1.64303	1.26427	10.33947	6.49963	3.39894
41470	0.49226	0.43864	0.27471	2.67937	2.28431	1.83472	10.30226	6.18022	2.88644	1.00068	0.92335	0.76236	2.16683	1.65034	1.27647	10.34483	6.49236	3.39099
41640	0.48246	0.42786	0.27192	2.67645	2.23122	1.80511	10.27502	6.18614	2.87055	0.97115	0.89875	0.78893	2.14894	1.65584	1.26988	10.35019	6.47610	3.39321
41800	0.49124	0.43862	0.27924	2.68702	2.21654	1.77951	10.26706	6.17814	2.86109	0.95532	0.86918	0.75220	2.14974	1.63265	1.26472	10.32620	6.45726	3.36099
41960	0.46983	0.42814	0.26685	2.68181	2.18953	1.79075	10.29037	6.18134	2.86688	0.98676	0.88777	0.77298	2.15615	1.64043	1.25882	10.31871	6.45892	3.38829
42130	0.47563	0.41375	0.25616	2.68447	2.21802	1.79053	10.28535	6.17764	2.86812	0.96718	0.89261	0.76575	2.15761	1.64551	1.25556	10.33412	6.48251	3.38276
42290	0.48503	0.42989	0.26813	2.69208	2.23839	1.81740	10.26681	6.18241	2.87726	0.99112	0.95531	0.80763	2.16429	1.66261	1.28214	10.34987	6.51838	3.48383
42450	0.48908	0.43239	0.27044	2.78603	2.32143	1.88589	10.27098	6.20281	2.89015	1.02529	0.94564	0.82790	2.17866	1.65595	1.26439	10.33808	6.47734	3.38467
42620	0.51957	0.43622	0.28314	2.68384	2.20920	1.82272	10.24115	6.18858	2.88429	0.99628	0.88717	0.78625	2.15689	1.66053	1.26066	10.33416	6.49809	3.37214	25.75	6.1	0.00	7.31	0.01272	0.01288	0.01661	0.00770	0.00574	0.00630	0.00467	0.01264	0.01683	0.00672	0.00691	0.00886	0.01488	0.01095	0.01196	0.00214	0.00608	0.00857
42780	0.48425	0.42883	0.27966	2.66382	2.20666	1.79122	10.27138	6.17157	2.86844	0.97048	0.88534	0.76240	2.14733	1.63000	1.24400	10.31052	6.47109	3.38530
42940	0.46827	0.42264	0.27254	2.67529	2.21620	1.78132	10.25670	6.15752	2.85136	0.96412	0.89367	0.76164	2.14258	1.64113	1.24732	10.32560	6.47094	3.38099
43110	0.46642	0.42708	0.26216	2.69410	2.19455	1.79935	10.27452	6.17491	2.86318	0.98500	0.87824	0.77473	2.14464	1.63249	1.26369	10.31533	6.47943	3.36477
43270	0.47373	0.43111	0.26525	2.67942	2.20722	1.77724	10.24595	6.16500	2.86305	1.00550	0.89363	0.78341	2.14453	1.62506	1.25185	10.31897	6.45718	3.39259
43430	0.47456	0.42003	0.25755	2.69187	2.21151	1.80926	10.24844	6.15901	2.84710	0.97528	0.88181	0.75628	2.13593	1.62827	1.24003	10.28630	6.45560	3.36167
43600	0.47227	0.42535	0.25979	2.68962	2.21183	1.78573	10.25997	6.15738	2.85638	0.94892	0.86620	0.75613	2.15047	1.64563	1.26010	10.30070	6.47051	3.39792
43760	0.48092	0.42771	0.27084	2.67265	2.20239	1.78009	10.27189	6.18590	2.88364	0.95836	0.88005	0.73680	2.14017	1.63022	1.24940	10.29003	6.46287	3.37418
43920	0.47107	0.41884	0.26039	2.67694	2.21443	1.77526	10.25504	6.16659	2.86104	0.97269	0.88002	0.75725	2.13752	1.62651	1.24764	10.29899	6.46879	3.36657
44090	0.47850	0.41308	0.24905	2.66931	2.19682	1.77693	10.24646	6.15602	2.85163	0.94514	0.85228	0.73837	2.14151	1.63337	1.25405	10.29163	6.46184	3.36952
44250	0.47397	0.42157	0.25948	2.66413	2.20690	1.77737	10.26958	6.16580	2.86133	0.94324	0.86715	0.73971	2.13972	1.62610	1.24035	10.32064	6.45960	3.38068	25.75	6.1	0.00	7.20	0.01272	0.01288	0.01661	0.00770	0.00575	0.00630	0.00467	0.01264	0.01683	0.00672	0.00691	0.00886	0.01488	0.01095	0.01196	0.00214	0.00608	0.00857
44410	0.46655	0.43143	0.26727	2.65618	2.19108	1.78323	10.26567	6.16721	2.86391	0.96944	0.87706	0.76914	2.15440	1.64554	1.26213	10.32278	6.47315	3.37028
44580	0.49965	0.44564	0.28302	2.66795	2.21605	1.84224	10.26324	6.19716	2.88049	0.98123	0.89093	0.79254	2.17518	1.64373	1.28519	10.32352	6.49031	3.40770
44740	0.48659	0.43526	0.29329	2.72636	2.24095	1.85415	10.30247	6.20007	2.89863	1.03624	0.93535	0.81864	2.16901	1.64865	1.27169	10.36852	6.53907	3.43169
44900	0.51081	0.43652	0.28399	2.72783	2.27087	1.86067	10.29218	6.18757	2.90979	1.04001	0.94420	0.81338	2.18296	1.66817	1.32111	10.38766	6.54978	3.41240
45070	0.50224	0.44231	0.29591	2.70614	2.22393	1.78893	10.30016	6.23204	2.88845	0.98123	0.89269	0.76722	2.17093	1.65414	1.28641	10.33968	6.48576	3.42021
45230	0.49521	0.45406	0.28645	2.69291	2.22364	1.80135	10.30498	6.20330	2.88746	0.97485	0.88416	0.74528	2.17279	1.64493	1.25541	10.34096	6.51422	3.37845
45400	0.48719	0.43196	0.27656	2.68099	2.21519	1.81921	10.33211	6.21871	2.87874	0.99302	0.91854	0.80641	2.17609	1.66214	1.26415	10.35329	6.50739	3.40883
45560	0.49381	0.43376	0.28245	2.69518	2.28862	1.81184	10.33088	6.21804	2.88029	1.02441	0.91897	0.77413	2.17231	1.65708	1.27416	10.38873	6.51158	3.43321
45720	0.48224	0.43350	0.27761	2.73546	2.26507	1.85374	10.33030	6.21625	2.89512	0.97789	0.89130	0.75474	2.16322	1.66172	1.28226	10.39250	6.47215	3.37715
45890	0.49195	0.43263	0.27177	2.75467	2.27398	1.81271	10.33791	6.21581	2.89085	1.01624	0.95435	0.77370	2.16824	1.65729	1.26447	10.35318	6.49326	3.38822	25.75	6.0	0.00	7.31	0.01272	0.01288	0.01661	0.00770	0.00575	0.00630	0.00467	0.01264	0.01683	0.00672	0.00691	0.00886	0.01488	0.01095	0.01196	0.00214	0.00608	0.00857
46050	0.48361	0.43767	0.29010	2.70881	2.21055	1.81215	10.32649	6.20679	2.87603	0.96640	0.87839	0.76957	2.17059	1.66556	1.27235	10.41359	6.51429	3.40033
46210	0.47881	0.43014	0.27601	2.69430	2.22537	1.82513	10.31882	6.21918	2.88764	0.99049	0.90195	0.80373	2.16063	1.65171	1.27275	10.40530	6.50820	3.40151
46380	0.49430	0.43447	0.28357	2.69358	2.21934	1.79777	10.33953	6.21714	2.90641	0.97619	0.89976	0.76333	2.17092	1.69063	1.28067	10.38248	6.52302	3.44382
46540	0.48061	0.42895	0.28114	2.71101	2.23620	1.79707	10.33701	6.22048	2.98059	0.95133	0.87999	0.76354	2.15688	1.66025	1.26879	10.36176	6.48504	3.38798
46700	0.50660	0.49450	0.31883	2.67230	2.22628	1.79229	10.36908	6.21437	2.88503	0.96397	0.88353	0.75727	2.16840	1.64696	1.26922	10.36369	6.50830	3.36613
46870	0.48171	0.41646	0.26364	2.67106	2.23099	1.80141	10.33798	6.21437	2.87315	0.96141	0.86680	0.74523	2.15731	1.65552	1.25522	10.36766	6.51131	3.38689
47030	0.48757	0.43589	0.27004	2.70479	2.18167	1.77303	10.35497	6.22567	2.88904	0.95640	0.88184	0.74397	2.16009	1.65307	1.25975	10.39205	6.49796	3.39520
47200	0.48214	0.43117	0.27432	2.67918	2.19989	1.77712	10.36092	6.22525	2.88897	0.93481	0.84377	0.72313	2.16411	1.64500	1.25394	10.37389	6.50395	3.35802
47360	0.46505	0.42591	0.26750	2.67497	2.18687	1.77255	10.33759	6.22718	2.88745	0.94034	0.87922	0.74409	2.17262	1.65906	1.26634	10.41111	6.53103	3.40929
47530	0.48127	0.43558	0.26581	2.69758	2.23354	1.80325	10.37025	6.22782	2.88907	0.97271	0.89590	0.77682	2.17116	1.65843	1.27086	10.41916	6.53485	3.40880	25.75	6.3	0.00	7.25	0.01271	0.01288	0.01661	0.00770	0.00575	0.00630	0.00467	0.01264	0.01684	0.00672	0.00691	0.00886	0.01488	0.01095	0.01196	0.00214	0.00608	0.00857
47690	0.48691	0.44669	0.26685	2.69257	2.23273	1.79146	10.35342	6.25281	2.90012	0.98290	0.87753	0.76876	2.16702	1.65419	1.27449	10.43007	6.52928	3.44655
47860	0.48371	0.42650	0.26455	2.70932	2.21663	1.79389	10.37990	6.21550	2.88882	0.99287	0.87663	0.78793	2.18375	1.68790	1.27663	10.40233	6.52669	3.41145
48020	0.49604	0.56659	0.28004	2.71385	2.22758	1.82006	10.36831	6.24445	2.91047	1.00019	0.89453	0.76737	2.19344	1.67481	1.28499	10.42477	6.54431	3.43911
48180	0.48450	0.44778	0.27872	2.71906	2.23954	1.78999	10.38697	6.24406	2.89243	1.02040	0.90576	0.77915	2.18630	1.66108	1.27811	10.42034	6.54332	3.41322
48350	0.49572	0.43823	0.26769	2.70728	2.23214	1.78824	10.37226	6.23683	2.90575	0.96464	0.86690	0.75262	2.20072	1.67219	1.27508	10.41441	6.56929	3.40582
48510	0.47798	0.43668	0.27647	2.72872	2.21732	1.79251	10.38535	6.24236	2.89633	0.93758	0.86672	0.73430	2.17409	1.66431	1.26575	10.38941	6.51555	3.42332
48670	0.48636	0.42222	0.26604	2.70053	2.21159	1.81610	10.36047	6.22847	2.88579	0.95362	0.88044	0.76631	2.17548	1.65129	1.26483	10.41452	6.51775	3.39486
48840	0.48045	0.43334	0.27326	2.71898	2.22219	1.79864	10.36992	6.24128	2.88340	0.93725	0.86360	0.74207	2.17266	1.65549	1.27270	10.39048	6.50607	3.38785
49000	0.47330	0.42354	0.25713	2.66283	2.19175	1.76875	10.36429	6.22652	2.89049	0.95479	0.85214	0.73937	2.16535	1.65090	1.25842	10.39490	6.50584	3.37554
49170	0.47162	0.42468	0.25606	2.66823	2.20498	1.78819	10.36026	6.22747	2.88072	0.94216	0.85392	0.72974	2.17003	1.65396	1.26711	10.37648	6.51581	3.38232	25.75	6.1	0.00	7.27	0.01271	0.01288	0.01660	0.00770	0.00575	0.00630	0.00467	0.01264	0.01683	0.00672	0.00691	0.00886	0.01488	0.01095	0.01196	0.00214	0.00608	0.00857
49330	0.47127	0.42613	0.26433	2.66693	2.20290	1.79218	10.36524	6.24422	2.90221	0.95509	0.91100	0.76507	2.18075	1.66332	1.26692	10.41019	6.53187	3.41719
49490	0.47966	0.43410	0.27532	2.69296	2.23157	1.83093	10.39701	6.22927	2.88688	0.98961	0.87476	0.77272	2.17567	1.66339	1.27667	10.40641	6.50635	3.39093
49660	0.49025	0.46111	0.30643	2.68589	2.23121	1.78720	10.37813	6.23458	2.89209	0.99638	0.92299	0.79849	2.19832	1.65787	1.27199	10.40059	6.55890	3.43513
49820	0.48882	0.44912	0.27085	2.71246	2.25822	1.80998	10.38675	6.24571	2.89769	1.02333	0.90519	0.81340	2.19097	1.68455	1.28259	10.41580	6.62186	3.43103
49990	0.49711	0.43599	0.27478	2.71118	2.26468	1.83487	10.39551	6.25685	2.92895	1.01490	0.91676	0.76540	2.17367	1.66605	1.27242	10.40965	6.55677	3.39522
50150	0.48450	0.43131	0.26284	2.67624	2.21228	1.78071	10.34881	6.22873	2.89990	0.98217	0.87317	0.75964	2.16739	1.66965	1.26700	10.51342	6.51548	3.40658
50310	0.47739	0.42439	0.25962	2.68272	2.23232	1.79763	10.36233	6.23772	2.89510	0.96405	0.88569	0.74786	2.17570	1.65767	1.27073	10.42455	6.53002	3.41133
50480	0.47941	0.43491	0.26707	2.69525	2.21852	1.80360	10.38701	6.25503	2.90295	0.98918	0.87025	0.75176	2.19535	1.67134	1.28351	10.42077	6.54196	3.38467
50640	0.49383	0.44664	0.27901	2.69441	2.24264	1.80083	10.38202	6.24299	2.91386	1.01300	0.92777	0.82600	2.18276	1.67293	1.29383	10.46200	6.58933	3.45250
50810	0.49968	0.45811	0.28617	2.71986	2.24841	1.85757	10.40519	6.28195	2.90408	1.03831	0.96116	0.79371	2.18396	1.68118	1.28580	10.45081	6.56573	3.43182	25.69	6.0	0.00	7.20	0.01271	0.01288	0.01660	0.00770	0.00574	0.00630	0.00467	0.01264	0.01683	0.00672	0.00691	0.00886	0.01488	0.01095	0.01196	0.00214	0.00607	0.00857
50970	0.48953	0.43362	0.28091	2.72146	2.26649	1.83581	10.39733	6.24036	2.90016	0.98886	0.89733	0.77051	2.17307	1.66544	1.27754	10.41998	6.51719	3.40551
51130	0.48300	0.42234	0.27738	2.66701	2.20563	1.79746	10.36200	6.22860	2.89768	0.96975	0.86647	0.72411	2.19150	1.66013	1.26998	10.40098	6.50065	3.39203
51300	0.47518	0.42839	0.26258	2.69352	2.20706	1.76438	10.39863	6.24509	2.88821	0.95422	0.84872	0.73252	2.17603	1.65421	1.27012	10.41177	6.50571	3.37083
51460	0.47288	0.42048	0.25605	2.65854	2.19290	1.75715	10.37637	6.25097	2.90069	0.97111	0.86373	0.74034	2.18521	1.65757	1.26577	10.39312	6.50811	3.37130
51620	0.48478	0.42838	0.27830	2.66023	2.18486	1.76949	10.39311	6.23220	2.88731	1.00656	0.87029	0.78576	2.17564	1.65610	1.26342	10.38946	6.52234	3.40079
51790	0.48637	0.43403	0.28104	2.67101	2.23294	1.79223	10.38629	6.25227	2.90823	0.94593	0.87376	0.79554	2.19396	1.65466	1.27076	10.65327	6.78409	3.57765
51950	0.49644	0.43421	0.26212	2.78422	2.32472	1.79852	10.37475	6.23288	2.89380	0.94069	0.84990	0.76527	2.18083	1.65864	1.25917	10.42419	6.54524	3.38625
52120	0.48511	0.44993	0.28904	2.69662	2.18904	1.80070	10.39811	6.24436	2.91443	0.97023	0.90189	0.78239	2.19673	1.67373	1.28509	10.40551	6.52710	3.40623
52280	0.48334	0.42976	0.27324	2.68824	2.22539	1.78098	10.37592	6.23426	2.88787	0.98333	0.89136	0.76337	2.19083	1.66120	1.27088	10.41382	6.53453	3.40833
52450	0.48730	0.44532	0.26967	2.68785	2.22044	1.81391	10.40013	6.24162	2.90569	0.95724	0.87284	0.73969	2.17028	1.64539	1.25745	10.40371	6.51196	3.38305	25.75	6.2	0.00	7.23	0.01271	0.01288	0.01660	0.00770	0.00574	0.00630	0.00467	0.01264	0.01683	0.00672	0.00691	0.00886	0.01488	0.01095	0.01196	0.00214	0.00608	0.00857
52610	0.47734	0.42230	0.26716	2.66034	2.20911	1.76698	10.36932	6.24816	2.89238	0.97648	0.85466	0.74809	2.17365	1.66757	1.27177	10.39467	6.52753	3.36069
52770	0.48091	0.43252	0.26302	2.66452	2.20350	1.78399	10.38546	6.22917	2.88296	0.94814	0.85816	0.73765	2.16745	1.64738	1.26402	10.39542	6.50735	3.38125
52940	0.47036	0.43131	0.27076	2.67997	2.20863	1.79578	10.37949	6.24423	2.90136	0.97375	0.90611	0.76727	2.18309	1.65368	1.26482	10.43533	6.53517	3.39744
53100	0.48891	0.43265	0.27356	2.71802	2.21088	1.79701	10.39370	6.25989	2.92868	0.98916	0.88991	0.77758	2.20079	1.66676	1.30023	10.46369	6.53864	3.43644
53270	0.52843	0.49611	0.31159	2.74703	2.26863	1.83670	10.41371	6.30874	2.94889	1.03215	0.97376	0.88084	2.23682	1.70558	1.29622	10.47182	6.58926	3.50169
53430	0.50687	0.44313	0.28116	2.75395	2.27220	1.86278	10.39169	6.25903	2.92290	1.05233	0.91692	0.78962	2.21442	1.68564	1.28683	10.49332	6.57229	3.44199
53600	0.49906	0.45600	0.28718	2.75804	2.25980	1.83408	10.40513	6.25900	2.92277	1.01836	0.90408	0.79761	2.20398	1.66633	1.27615	10.44192	6.54113	3.44888
53760	0.49370	0.43593	0.29674	2.74356	2.21481	1.81783	10.36990	6.26048	2.91161	0.97610	0.86726	0.76791	2.18832	1.65749	1.28163	10.41891	6.55075	3.38502
53920	0.48810	0.42975	0.27450	2.66972	2.19695	1.78457	10.37949	6.25493	2.90408	0.95625	0.85558	0.74203	2.17924	1.65546	1.27577	10.42312	6.53933	3.39526
54090	0.47798	0.42410	0.27003	2.66685	2.22105	1.78417	10.37428	6.23664	2.95847	0.96589	0.85669	0.75248	2.17157	1.65350	1.26490	10.38959	6.51334	3.38321	25.69	6.0	0.00	7.33	0.01271	0.01288	0.01660	0.00770	0.00575	0.00630	0.00467	0.01264	0.01683	0.00672	0.00691	0.00886	0.01488	0.01095	0.01196	0.00214	0.00608	0.00857
54250	0.47825	0.53451	0.25507	2.64882	2.19038	1.76772	10.37130	6.24041	2.89452	0.92375	0.84997	0.72480	2.16200	1.65200	1.25421	10.38916	6.49413	3.35908
54420	0.47550	0.41811	0.25419	2.66491	2.19844	1.76585	10.36858	6.23252	2.88985	0.93141	0.83362	0.72655	2.16352	1.65129	1.25245	10.42784	6.50189	3.36441
54580	0.47859	0.41243	0.25597	2.65018	2.18702	1.76705	10.38271	6.24492	2.89073	0.92980	0.82936	0.71311	2.16509	1.65531	1.26213	10.39712	6.49668	3.35985
54750	0.46781	0.41447	0.25470	2.64005	2.19192	1.77250	10.38705	6.23600	2.89003	0.94404	0.92153	0.71801	2.17407	1.64499	1.26515	10.40347	6.58268	3.38349
54910	0.47183	0.41803	0.25627	2.65482	2.17398	1.76435	10.39744	6.24319	2.89279	0.93165	0.84858	0.71308	2.21562	1.64764	1.26430	10.40401	6.50067	3.35855
55080	0.47113	0.41842	0.25762	2.64564	2.17539	1.76830	10.38984	6.24509	2.89409	0.94096	0.85024	0.70766	2.16630	1.65119	1.26366	10.40950	6.52235	3.37265
55240	0.47138	0.41664	0.28033	2.67700	2.19847	1.78225	10.38575	6.25575	2.89851	0.92783	0.86250	0.72738	2.17708	1.65781	1.27209	10.39389	6.50204	3.38786
55400	0.48788	0.43553	0.26756	2.64929	2.19320	1.77400	10.37940	6.24365	2.89752	0.94119	0.86251	0.72970	2.17232	1.65028	1.26380	10.42212	6.53340	3.37733
55570	0.47508	0.41641	0.26135	2.67634	2.18397	1.76655	10.39594	6.23885	2.89308	0.97001	0.85085	0.77026	2.16416	1.65687	1.26236	10.41618	6.52438	3.36593
55730	0.46909	0.42574	0.25778	2.67468	2.19273	1.75817	10.38339	6.23982	2.88704	0.93183	0.83784	0.72049	2.16821	1.65542	1.25349	10.38860	6.50962	3.37098	25.75	6.2	0.00	7.21	0.01271	0.01288	0.01660	0.00770	0.00574	0.00630	0.00467	0.01264	0.01683	0.00672	0.00691	0.00886	0.01488	0.01095	0.01196	0.00214	0.00608	0.00857
55890	0.46798	0.40953	0.25595	2.67562	2.19653	1.77090	10.39092	6.23728	2.88936	0.93868	0.89566	0.74823	2.18041	1.65200	1.28273	10.41371	6.55533	3.40204
56060	0.48818	0.44267	0.27146	2.67187	2.22697	1.78965	10.40950	6.25386	2.90765	0.98444	0.86976	0.76222	2.18055	1.65319	1.26572	10.42655	6.53368	3.40655
56220	0.48810	0.42505	0.26240	2.72019	2.23206	1.75765	10.38281	6.25273	2.91212	0.95418	0.86705	0.78526	2.18602	1.65913	1.27652	10.43185	6.52329	3.38832
56390	0.48774	0.42071	0.26551	2.67213	2.19796	1.79029	10.41106	6.23804	2.90969	0.97449	0.84938	0.76377	2.17889	1.66420	1.26767	10.46269	6.54388	3.40513
56550	0.47778	0.43435	0.26477	2.69559	2.23081	1.78596	10.40560	6.24537	2.89384	0.95804	0.86938	0.76915	2.17994	1.66372	1.27063	10.42990	6.54578	3.40261
56720	0.49740	0.43596	0.26875	2.70075	2.22909	1.79762	10.39825	6.24236	2.90587	0.95878	0.86280	0.74405	2.18185	1.67168	1.27856	10.41889	6.57186	3.40387
56880	0.49637	0.43871	0.27004	2.71525	2.26411	1.81829	10.41756	6.25608	2.91528	0.99914	0.89396	0.77934	2.18460	1.66398	1.27534	10.42126	6.54131	3.41116
57040	0.48763	0.43452	0.27931	2.68853	2.22219	1.77900	10.40963	6.25359	2.89883	0.98014	0.87282	0.74233	2.17488	1.65722	1.26675	10.41328	6.51683	3.38760
57210	0.48653	0.42559	0.26110	2.65849	2.19077	1.79263	10.39988	6.25576	2.90457	0.94978	0.87545	0.74981	2.17300	1.65989	1.26219	10.41770	6.51822	3.38035
57370	0.46849	0.42452	0.25782	2.68827	2.20493	1.77102	10.38834	6.25938	2.89677	0.94755	0.85521	0.74120	2.17569	1.65617	1.26931	10.42119	6.51751	3.42309	25.75	6.1	0.00	7.22	0.01271	0.01288	0.01660	0.00770	0.00574	0.00630	0.00467	0.01264	0.01683	0.00672	0.00691	0.00886	0.01488	0.01095	0.01196	0.00214	0.00607	0.00857
57540	0.46944	0.42370	0.26079	2.68809	2.20382	1.78951	10.37433	6.24712	2.89118	0.95978	0.86743	0.72751	2.17500	1.65486	1.26760	10.43124	6.52057	3.39891
57700	0.47623	0.42146	0.26271	2.66430	2.21100	1.79130	10.39067	6.24227	2.94497	0.96366	0.87340	0.73492	2.19618	1.66254	1.28383	10.42367	6.51954	3.37391
57870	0.47925	0.43071	0.26434	2.68624	2.19610	1.80571	10.38308	6.23744	2.88086	0.96208	0.86251	0.75382	2.16929	1.65547	1.25938	10.42778	6.53982	3.37988
58030	0.48011	0.43747	0.27492	2.67189	2.18469	1.78706	10.38036	6.25154	2.90434	0.94311	0.90182	0.74243	2.18924	1.65830	1.26344	10.42584	6.52663	3.41023
58200	0.48102	0.42753	0.27555	2.66896	2.20287	1.77509	10.39385	6.25823	2.90626	0.95740	0.85983	0.72484	2.17392	1.65519	1.26020	10.41892	6.52536	3.39069
58360	0.48212	0.42969	0.27382	2.70357	2.22480	1.79954	10.37900	6.25210	2.91869	0.95718	0.87846	0.77832	2.17646	1.66278	1.27312	10.43827	6.60091	3.43853
58530	0.47804	0.42937	0.26129	2.69143	2.23703	1.79446	10.39983	6.23686	2.88950	0.99656	0.92030	0.76750	2.17345	1.65203	1.27255	10.43254	6.52480	3.46724
58690	0.47814	0.42377	0.26022	2.68539	2.23376	1.81478	10.40100	6.24904	2.91154	0.96767	0.90547	0.75687	2.18776	1.66868	1.28018	10.44693	6.55788	3.38788
58860	0.47689	0.42900	0.27017	2.68634	2.21771	1.78555	10.39009	6.25076	2.89527	0.95064	0.87320	0.77775	2.18052	1.66122	1.27636	10.45375	6.56693	3.40225
59020	0.46780	0.42864	0.27868	2.70481	2.22649	1.82284	10.40736	6.26998	2.91511	0.95834	0.87775	0.80206	2.18720	1.65438	1.27284	10.40371	6.51257	3.36739	25.75	6.0	0.00	7.35	0.01271	0.01288	0.01660	0.00770	0.00574	0.00630	0.00467	0.01264	0.01683	0.00672	0.00691	0.00886	0.01488	0.01095	0.01196	0.00214	0.00607	0.00856
59180	0.48318	0.42793	0.26897	2.68321	2.21840	1.79385	10.38658	6.24192	2.89737	0.93686	0.85845	0.73542	2.17284	1.65440	1.25592	10.42984	6.52303	3.38609
59350	0.47658	0.41418	0.26797	2.65023	2.19743	1.78794	10.38866	6.25795	2.90218	0.93985	0.85127	0.78527	2.18132	1.66361	1.26643	10.39951	6.52212	3.40131
59510	0.46966	0.41832	0.27061	2.67392	2.20163	1.75983	10.40814	6.25628	2.90556	0.96864	0.86729	0.75637	2.19788	1.66474	1.26570	10.41234	6.51011	3.40626
59680	0.48634	0.42630	0.27050	2.67383	2.19481	1.78828	10.39917	6.25146	2.91108	0.95472	0.85469	0.73433	2.16880	1.64685	1.26596	10.42920	6.52567	3.36967
59840	0.48274	0.42073	0.25476	2.71765	2.18618	1.75454	10.40158	6.24173	2.89102	0.94581	0.86336	0.74290	2.16698	1.65206	1.26676	10.42498	6.53715	3.38531
60010	0.47771	0.43228	0.25876	2.66400	2.17588	1.76549	10.38087	6.24254	2.89925	0.96372	0.85338	0.72738	2.16978	1.66100	1.28326	10.41655	6.54035	3.40680
60170	0.52779	0.44504	0.28541	2.70964	2.21865	1.81080	10.44077	6.27090	2.91316	1.02333	0.92229	0.78661	2.20265	1.66856	1.28644	10.45377	6.55440	3.40404
60340	0.52226	0.45287	0.28120	2.73702	2.23443	1.79310	10.40502	6.25551	2.90959	1.01480	0.91031	0.76607	2.19063	1.66369	1.27744	10.40501	6.50311	3.41218
60500	0.48506	0.42994	0.26514	2.69135	2.23220	1.81995	10.38898	6.26247	2.90107	0.98442	0.90526	0.76522	2.17974	1.65206	1.26288	10.40943	6.53528	3.38274
60660	0.49157	0.43056	0.25740	2.68809	2.19171	1.77681	10.38479	6.25115	2.90196	0.96824	0.87068	0.71830	2.18173	1.66192	1.27816	10.43213	6.54306	3.39616	25.75	6.2	0.00	7.23	0.01271	0.01288	0.01660	0.00770	0.00574	0.00630	0.00467	0.01264	0.01683	0.00672	0.00691	0.00886	0.01488	0.01095	0.01196	0.00214	0.00607	0.00856
60830	0.47737	0.42712	0.26480	2.68387	2.19484	1.79566	10.41058	6.25638	2.90475	0.95805	0.85788	0.73892	2.18299	1.65785	1.27603	10.42358	6.54537	3.43376
60990	0.48376	0.42409	0.27835	2.67110	2.21508	1.78508	10.42952	6.26079	2.91398	0.94500	0.87931	0.74063	2.20321	1.68223	1.28325	10.45606	6.55421	3.42188
61150	0.49659	0.44860	0.26900	2.70249	2.22696	1.78615	10.41435	6.29291	2.90885	1.00769	0.89728	0.76618	2.21606	1.68917	1.30906	10.47331	6.58238	3.39993
61320	0.49909	0.44315	0.28282	2.69479	2.20225	1.82330	10.41513	6.26851	2.90215	0.99309	0.87702	0.74903	2.18765	1.66289	1.27898	10.42899	6.56052	3.39523
61480	0.48882	0.43541	0.26655	2.65052	2.20914	1.77504	10.43343	6.28041	2.91382	0.94149	0.86453	0.76338	2.18318	1.66849	1.27100	10.45378	6.54024	3.38722
61650	0.48859	0.43641	0.26962	2.66185	2.18849	1.79802	10.43858	6.27600	2.90970	0.96975	0.86331	0.74795	2.19733	1.67025	1.28149	10.44132	6.56747	3.40377
61810	0.47876	0.43616	0.28017	2.69031	2.21864	1.76467	10.43624	6.28078	2.91507	0.95905	0.85640	0.73536	2.18390	1.66713	1.27360	10.45519	6.53534	3.38607
61970	0.48601	0.42248	0.27249	2.66264	2.20512	1.76093	10.41396	6.26005	2.89716	0.95514	0.85334	0.73453	2.18703	1.66799	1.26885	10.43375	6.54547	3.38559
62140	0.48848	0.42944	0.26439	2.69826	2.20874	1.79617	10.40602	6.26810	2.90147	0.94126	0.85982	0.74871	2.17858	1.66171	1.26301	10.43710	6.53090	3.40121
62300	0.48163	0.42548	0.27223	2.67629	2.18714	1.74861	10.42271	6.26585	2.92249	0.95085	0.85789	0.75172	2.19070	1.67245	1.28313	10.41337	6.52625	3.38702	25.81	6.1	0.00	7.18	0.01271	0.01288	0.01660	0.00770	0.00574	0.00630	0.00467	0.01264	0.01683	0.00672	0.00691	0.00886	0.01488	0.01095	0.01196	0.00213	0.00607	0.00856
62470	0.48953	0.43516	0.26775	2.66892	2.18585	1.77052	10.42297	6.25711	2.89956	0.96613	0.84722	0.71625	2.17959	1.65931	1.27278	10.41532	6.51712	3.38889
62630	0.47821	0.42853	0.25970	2.65983	2.20655	1.80092	10.44154	6.25287	2.89791	0.95773	0.85828	0.72006	2.17650	1.65335	1.26432	10.40970	6.52696	3.37519
62790	0.47982	0.40906	0.26074	2.65512	2.19418	1.78195	10.41932	6.25252	2.89013	0.94984	0.87688	0.72933	2.17732	1.65357	1.25899	10.39417	6.53127	3.39130
62960	0.46909	0.41828	0.26022	2.66162	2.20658	1.77002	10.41600	6.25433	2.90357	0.92934	0.83852	0.72434	2.17218	1.66387	1.25722	10.42083	6.52249	3.41037
63120	0.48274	0.42658	0.26225	2.66993	2.19329	1.76700	10.39948	6.24245	2.90118	0.94156	0.86780	0.72198	2.17525	1.66686	1.28242	10.42775	6.54183	3.42764
63290	0.48712	0.42411	0.26729	2.68054	2.20565	1.77994	10.40989	6.26092	2.90459	0.96651	0.86497	0.72905	2.18034	1.66373	1.28182	10.42310	6.56171	3.39997
63450	0.48031	0.42776	0.27185	2.68304	2.22762	1.78756	10.41197	6.26438	2.90510	0.95262	0.84993	0.72615	2.17875	1.65702	1.27495	10.40938	6.51563	3.39647
63620	0.48348	0.42171	0.26567	2.68782	2.21109	1.76526	10.43606	6.27510	2.90871	0.96946	0.87688	0.76587	2.18288	1.65751	1.28348	10.46057	6.59824	3.42307
63780	0.48122	0.42993	0.27292	2.67082	2.19851	1.80040	10.41158	6.26137	2.89618	0.97141	0.87546	0.74163	2.19274	1.67926	1.29488	10.45168	6.54653	3.42527
63940	0.48882	0.44486	0.29017	2.70621	2.24208	1.80603	10.41606	6.27180	2.92568	0.99929	0.88817	0.77384	2.18849	1.66901	1.27956	10.43031	6.52046	3.39338	25.81	6.1	0.00	7.29	0.01272	0.01288	0.01660	0.00770	0.00574	0.00630	0.00467	0.01264	0.01683	0.00672	0.00691	0.00886	0.01488	0.01095	0.01196	0.00214	0.00607	0.00856
64100	0.48947	0.43266	0.28783	2.69780	2.20816	1.79584	10.41287	6.25263	2.90819	0.97567	0.87025	0.75091	2.17303	1.65838	1.27369	10.43885	6.52789	3.40018
64270	0.49070	0.42677	0.26837	2.68141	2.24279	1.77891	10.41593	6.26147	2.89815	0.94419	0.88265	0.74934	2.18755	1.67332	1.27199	10.44763	6.51400	3.40121
64430	0.47207	0.42213	0.25577	2.69919	2.19677	1.78718	10.39337	6.24934	2.89574	0.93851	0.85460	0.73733	2.17486	1.65928	1.25567	10.44589	6.53507	3.39052
64600	0.48475	0.42069	0.26337	2.69131	2.19414	1.77411	10.42231	6.26462	2.90879	0.94799	0.84027	0.71816	2.17181	1.66405	1.26663	10.43258	6.54259	3.38740
64760	0.47472	0.41328	0.25737	2.68119	2.18869	1.78520	10.43110	6.25925	2.92648	0.96335	0.84897	0.73833	2.18023	1.68562	1.27781	10.44578	6.53279	3.39511
64920	0.48262	0.42038	0.26369	2.69298	2.21393	1.75442	10.45668	6.27574	2.91543	0.98083	0.87482	0.78499	2.19987	1.66469	1.26381	10.47106	6.54068	3.40593
65090	0.47302	0.42199	0.26453	2.66916	2.20782	1.78491	10.42127	6.27143	2.89659	0.96293	0.86116	0.72972	2.18745	1.65818	1.26559	10.42555	6.54119	3.37770
65250	0.47370	0.42280	0.25711	2.66837	2.20355	1.75934	10.41033	6.26050	2.89826	0.92406	0.85006	0.71119	2.17832	1.65842	1.27155	10.43009	6.54515	3.37232
65410	0.48211	0.41260	0.25492	2.67299	2.17649	1.75999	10.40864	6.28135	2.89783	0.94700	0.83432	0.74882	2.20510	1.66978	1.26392	10.45435	6.53576	3.40351
65580	0.49030	0.42148	0.26795	2.66250	2.18989	1.77202	10.41718	6.27251	2.91011	0.95943	0.84320	0.73094	2.18181	1.66418	1.26734	10.44815	6.56140	3.41115	25.75	6.2	0.00	7.37	0.01271	0.01288	0.01660	0.00770	0.00574	0.00630	0.00467	0.01264	0.01683	0.00672	0.00691	0.00886	0.01488	0.01095	0.01196	0.00214	0.00607	0.00856
65740	0.46537	0.42492	0.26220	2.68992	2.21075	1.78366	10.44735	6.26934	2.90889	0.93708	0.86727	0.71234	2.18588	1.65778	1.26383	10.46929	6.54627	3.40286
65910	0.47270	0.41992	0.27242	2.66434	2.19489	1.77291	10.43307	6.26680	2.89791	0.94186	0.85725	0.71874	2.17851	1.65768	1.26355	10.42716	6.53870	3.38230
66070	0.47213	0.42062	0.25610	2.65474	2.17181	1.76136	10.44892	6.26860	2.89868	0.94750	0.85026	0.74036	2.18663	1.67091	1.27019	10.44674	6.51473	3.37581
66240	0.49945	0.43918	0.26654	2.65608	2.17737	1.77290	10.42206	6.27585	2.90270	0.93336	0.84084	0.72219	2.17565	1.66300	1.27931	10.44479	6.52462	3.38153
66400	0.47317	0.42284	0.26331	2.67475	2.20220	1.79606	10.45793	6.29342	2.91040	0.97411	0.85346	0.73937	2.19575	1.67035	1.28136	10.44783	6.55926	3.39082
66560	0.48222	0.43910	0.29151	2.71144	2.25841	1.83357	10.45865	6.27712	2.91526	0.99695	0.92422	0.81321	2.20161	1.68383	1.28076	10.50256	6.63339	3.44097
66730	0.49502	0.44084	0.28559	2.73868	2.27212	1.82837	10.47657	6.31012	2.91790	0.98600	0.90145	0.75379	2.20523	1.67218	1.27553	10.49364	6.59139	3.44256
66890	0.50079	0.43919	0.28984	2.72223	2.22263	1.81168	10.45121	6.28846	2.93194	0.99918	0.90509	0.74887	2.18731	1.67209	1.28692	10.49124	6.57624	3.42632
67060	0.49740	0.42733	0.27089	2.68922	2.23549	1.85499	10.45721	6.30441	2.92410	0.97708	0.87528	0.72872	2.19696	1.65948	1.27489	10.46137	6.56096	3.42311
67220	0.48049	0.43373	0.26189	2.71365	2.19771	1.78498	10.46933	6.29278	2.91756	0.94718	0.83732	0.71860	2.19579	1.67239	1.26931	10.44938	6.54762	3.39283	25.69	6.1	0.00	7.24	0.01271	0.01288	0.01660	0.00770	0.00574	0.00630	0.00467	0.01264	0.01683	0.00672	0.00691	0.00886	0.01488	0.01095	0.01196	0.00214	0.00607	0.00856
67390	0.47286	0.42276	0.25997	2.67059	2.19327	1.75811	10.47201	6.27920	2.90674	0.95301	0.84201	0.72451	2.18763	1.69075	1.29181	10.47596	6.56453	3.42050
67550	0.48793	0.43439	0.26791	2.68231	2.20320	1.77766	10.45678	6.29411	2.91060	0.94770	0.85874	0.76264	2.19715	1.67531	1.26410	10.52388	6.53972	3.39050
67720	0.47134	0.41754	0.25621	2.66721	2.21314	1.77742	10.45854	6.28677	2.91190	0.94304	0.84890	0.71703	2.18464	1.66713	1.26533	10.46564	6.53779	3.39599
67880	0.47156	0.41400	0.25727	2.67093	2.20030	1.76705	10.46593	6.27833	2.90773	0.93213	0.83620	0.72604	2.18228	1.67173	1.27419	10.47770	6.55817	3.39364
68050	0.47652	0.41651	0.26719	2.67377	2.18619	1.76909	10.44777	6.28927	2.91011	0.96755	0.86948	0.73784	2.19829	1.67070	1.28943	10.48563	6.55323	3.40809
68210	0.47956	0.42668	0.26912	2.70701	2.22992	1.78596	10.48851	6.30932	2.92406	0.95065	0.86224	0.72898	2.21398	1.66396	1.28225	10.47281	6.57229	3.41042
68370	0.48501	0.41255	0.25702	2.66707	2.20773	1.83887	10.46116	6.29631	2.90728	0.94730	0.88003	0.77768	2.19527	1.67581	1.27280	10.48107	6.54536	3.39987
68540	0.47777	0.42364	0.27001	2.68167	2.25817	1.77086	10.44757	6.31079	2.92410	0.98822	0.87346	0.74094	2.19900	1.66020	1.27019	10.52224	6.56837	3.38564
68700	0.48685	0.44278	0.27356	2.65420	2.19201	1.78712	10.47489	6.29606	2.91823	0.94251	0.85375	0.72295	2.20787	1.66924	1.27645	10.50087	6.57777	3.41515
68870	0.47884	0.44311	0.27886	2.67413	2.21182	1.78164	10.47837	6.29828	2.93242	0.97577	0.87075	0.74543	2.20183	1.68991	1.28645	10.46714	6.55616	3.40775	25.75	6.1	0.00	7.37	0.01272	0.01289	0.01660	0.00770	0.00574	0.00630	0.00467	0.01264	0.01683	0.00672	0.00691	0.00885	0.01488	0.01095	0.01196	0.00213	0.00607	0.00856
69030	0.48234	0.43579	0.27685	2.68051	2.19774	1.77325	10.50624	6.31807	2.92168	0.93266	0.84959	0.71107	2.19160	1.67244	1.27347	10.48964	6.55863	3.39747
69200	0.48410	0.42624	0.26131	2.67809	2.21821	1.77623	10.48879	6.31448	2.94043	0.95235	0.87077	0.76124	2.20012	1.67012	1.27524	10.49497	6.60023	3.40460
69360	0.49730	0.44555	0.28106	2.70031	2.25230	1.80219	10.48676	6.31083	2.94061	0.97665	0.87393	0.76053	2.21066	1.70299	1.28964	10.51121	6.60941	3.44324
69530	0.49519	0.43654	0.28528	2.73286	2.30365	1.85989	10.48217	6.30901	2.94304	0.97688	0.90000	0.76254	2.20867	1.67789	1.28984	10.53130	6.64319	3.46473
69690	0.49091	0.43681	0.27889	2.74088	2.26838	1.87892	10.48787	6.32042	2.93628	0.99829	0.90462	0.79054	2.20790	1.68756	1.29570	10.57510	6.65176	3.48592
69860	0.50111	0.43499	0.27934	2.76001	2.27833	1.87054	10.51228	6.33416	2.94924	1.08363	0.94976	0.81151	2.21375	1.70241	1.30516	10.64195	6.66374	3.50317
70020	0.48765	0.44925	0.27060	2.78635	2.33853	1.88843	10.51386	6.32544	2.94808	1.03999	0.91679	0.81402	2.22987	1.69010	1.29500	10.59928	6.69275	3.48590
70180	0.49823	0.45419	0.28228	2.77133	2.30359	1.85316	10.54763	6.33626	2.93497	1.02622	0.96349	0.80007	2.22800	1.70607	1.29262	10.59026	6.66343	3.48612
70350	0.50199	0.45753	0.29332	2.77654	2.29096	1.86254	10.50302	6.33818	2.93695	0.98534	0.90266	0.79933	2.22469	1.67914	1.29517	10.56030	6.61769	3.49767
70510	0.50864	0.44071	0.27664	2.74483	2.24831	1.81555	10.54034	6.32342	2.95321	0.97095	0.90719	0.75945	2.19704	1.67815	1.27843	10.52752	6.61183	3.43141	25.75	5.9	0.00	7.22	0.01272	0.01289	0.01660	0.00770	0.00574	0.00630	0.00467	0.01264	0.01683	0.00672	0.00691	0.00886	0.01488	0.01095	0.01196	0.00214	0.00607	0.00856
70680	0.49376	0.44179	0.27712	2.69933	2.24330	1.83513	10.50659	6.33850	2.93822	1.00150	0.89001	0.75423	2.20301	1.68091	1.29486	10.52818	6.63536	3.43692
70840	0.48156	0.43919	0.28289	2.71708	2.23053	1.83895	10.49111	6.32147	2.93467	0.98606	0.89917	0.74562	2.21841	1.68811	1.29268	10.53954	6.61337	3.44489
71000	0.49660	0.44167	0.28233	2.71197	2.24659	1.84186	10.49137	6.31525	2.93652	1.00441	0.89336	0.78050	2.20767	1.68801	1.29816	10.53561	6.60485	3.45124
71170	0.49041	0.42891	0.26964	2.73842	2.26139	1.82864	10.49950	6.31512	2.91437	0.97287	0.85956	0.73936	2.19574	1.66999	1.27360	10.55672	6.62483	3.43512
71330	0.49822	0.42924	0.26091	2.71031	2.24489	1.81139	10.47722	6.29853	2.92774	0.97339	0.87533	0.73633	2.19227	1.67145	1.28838	10.50266	6.58239	3.42165
71500	0.47462	0.43982	0.26651	2.70561	2.23242	1.81174	10.49209	6.29704	2.91610	0.98930	0.87714	0.73544	2.19573	1.66963	1.26758	10.52010	6.57663	3.39209
71660	0.47947	0.42816	0.26583	2.70077	2.21552	1.79957	10.48278	6.30004	2.91749	0.95801	0.86202	0.74036	2.19140	1.66476	1.27394	10.50222	6.56522	3.38458
71820	0.47443	0.42581	0.26195	2.67618	2.20252	1.78260	10.49248	6.29507	2.91085	0.95271	0.84693	0.75376	2.19574	1.66501	1.27202	10.51301	6.57398	3.41267
71990	0.47981	0.41836	0.26000	2.68018	2.22399	1.77866	10.49032	6.31117	2.92677	0.94944	0.85642	0.71518	2.18472	1.66266	1.27385	10.48318	6.56466	3.39052
72150	0.48628	0.42749	0.26044	2.66531	2.18969	1.76117	10.48438	6.29905	2.92429	0.93801	0.84070	0.70341	2.19235	1.67174	1.27206	10.47213	6.54836	3.38684	25.81	6.2	0.00	7.31	0.01272	0.01289	0.01660	0.00770	0.00574	0.00630	0.00467	0.01264	0.01683	0.00672	0.00691	0.00886	0.01488	0.01095	0.01196	0.00213	0.00607	0.00856
72320	0.48139	0.42002	0.26218	2.66553	2.18442	1.77174	10.47553	6.29539	2.91129	0.94756	0.84365	0.72526	2.20421	1.68056	1.27579	10.49715	6.59973	3.40519
72480	0.48509	0.44193	0.27656	2.70190	2.22240	1.81620	10.50202	6.31293	2.95158	0.96187	0.88693	0.77293	2.20555	1.67732	1.28666	10.53415	6.57485	3.44371
72650	0.51672	0.45332	0.27861	2.71528	2.22625	1.80213	10.50912	6.31922	2.93985	0.93431	0.91054	0.77024	2.20388	1.67364	1.28043	10.52093	6.60512	3.40866
72810	0.48140	0.43551	0.26344	2.69342	2.23006	1.79279	10.47246	6.30397	2.92206	0.96521	0.85003	0.74983	2.18337	1.66630	1.28458	10.49889	6.58283	3.39858
72970	0.49285	0.43093	0.26802	2.69398	2.22824	1.77160	10.49644	6.30461	2.92298	0.96247	0.85445	0.72243	2.19934	1.68107	1.28475	10.47963	6.55314	3.40092
73140	0.47981	0.42105	0.26345	2.68638	2.20074	1.79205	10.49133	6.30202	2.92548	0.94907	0.85712	0.72110	2.20123	1.68306	1.28336	10.46398	6.57687	3.39613
73300	0.49054	0.43011	0.26251	2.67264	2.20494	1.76935	10.48110	6.28414	2.92123	0.95562	0.85769	0.73388	2.19535	1.67553	1.28670	10.48996	6.54732	3.40036
73470	0.48735	0.42671	0.27942	2.68153	2.20419	1.78537	10.48156	6.29573	2.93222	0.96153	0.86769	0.74465	2.20981	1.67363	1.28616	10.51863	6.56194	3.40541
73630	0.50243	0.45279	0.30245	2.68047	2.26729	1.80460	10.50412	6.30750	2.92192	0.96559	0.88268	0.75652	2.20607	1.67996	1.27358	10.48257	6.56596	3.38551
73800	0.48824	0.43734	0.27174	2.70118	2.21844	1.78606	10.47364	6.30388	2.93093	0.94111	0.84403	0.74484	2.20077	1.67744	1.27981	10.49132	6.57472	3.40730	25.75	6.1	0.00	7.27	0.01271	0.01289	0.01660	0.00770	0.00574	0.00630	0.00467	0.01264	0.01683	0.00672	0.00691	0.00886	0.01488	0.01095	0.01196	0.00213	0.00607	0.00856
73960	0.48956	0.43295	0.25806	2.68088	2.19568	1.78960	10.50130	6.29162	2.91514	0.94004	0.86874	0.73152	2.19313	1.68176	1.27629	10.48751	6.56817	3.40837
74130	0.47734	0.43496	0.27234	2.68309	2.19723	1.79899	10.46723	6.32034	2.92127	0.97179	0.86322	0.72931	2.20638	1.66439	1.27499	10.49851	6.58050	3.40904
74290	0.48298	0.42694	0.27495	2.67653	2.20082	1.79207	10.47109	6.29961	2.92766	0.96910	0.85942	0.72771	2.19398	1.67108	1.28090	10.48599	6.57291	3.40116
74450	0.47993	0.44079	0.26764	2.70395	2.21246	1.77989	10.49566	6.30514	2.92049	0.95240	0.84101	0.75064	2.21007	1.66755	1.27469	10.51879	6.58445	3.44345
74620	0.49359	0.43802	0.28470	2.67703	2.25327	1.80290	10.51188	6.31486	2.93800	0.99420	0.96301	0.80638	2.20340	1.67645	1.29270	10.54392	6.65293	3.45611
74780	0.49900	0.43266	0.27155	2.70106	2.21339	1.80617	10.51786	6.34604	2.95018	0.97879	0.89168	0.77447	2.20478	1.67759	1.27992	10.50112	6.58723	3.41588
74950	0.49430	0.42311	0.26800	2.69918	2.22762	1.79863	10.51043	6.31929	2.93069	0.93974	0.84844	0.74969	2.20745	1.69007	1.27691	10.53309	6.57765	3.41988
75110	0.48312	0.42231	0.26437	2.68457	2.22115	1.79762	10.49717	6.33150	2.92747	0.97003	0.88730	0.76244	2.20628	1.69027	1.30728	10.53430	6.62022	3.44513
75280	0.49739	0.43276	0.26080	2.70626	2.22153	1.80073	10.53642	6.32897	2.93537	0.98692	0.87347	0.77090	2.20277	1.67877	1.29095	10.52315	6.59259	3.39090
75440	0.49105	0.42879	0.27086	2.69008	2.20054	1.77568	10.51795	6.33583	2.93408	0.95320	0.86376	0.76956	2.19810	1.68728	1.29161	10.54023	6.60967	3.42424	25.75	6.1	0.00	7.23	0.01271	0.01288	0.01660	0.00770	0.00574	0.00630	0.00467	0.01264	0.01683	0.00672	0.00691	0.00886	0.01488	0.01095	0.01196	0.00214	0.00607	0.00856
75610	0.48477	0.42267	0.26250	2.66562	2.22772	1.78048	10.52466	6.31417	2.93497	0.95149	0.84214	0.71985	2.20117	1.68000	1.27100	10.54099	6.59128	3.40248
75770	0.47219	0.42001	0.26120	2.71506	2.19833	1.77286	10.52124	6.33250	2.93728	0.92820	0.83987	0.72021	2.20946	1.67655	1.28492	10.52767	6.60468	3.40451
75940	0.47655	0.41964	0.26066	2.68011	2.22149	1.78299	10.54112	6.33237	2.92711	0.93751	0.84665	0.72568	2.20514	1.68566	1.29270	10.54580	6.60279	3.39388
76100	0.48824	0.42038	0.27219	2.67617	2.20655	1.76845	10.57922	6.34352	2.93906	0.93128	0.83845	0.70443	2.20939	1.69603	1.29767	10.54088	6.60182	3.42556
76260	0.48998	0.43498	0.27697	2.72521	2.24136	1.78665	10.51546	6.34591	2.93605	0.95907	0.86135	0.76096	2.20703	1.67504	1.27743	10.57723	6.61297	3.43762
76430	0.48520	0.42709	0.27833	2.72681	2.23382	1.78949	10.58564	6.35039	2.93912	0.94128	0.86200	0.73790	2.21376	1.69001	1.29009	10.59699	6.61491	3.43898
76590	0.48970	0.43312	0.27089	2.72254	2.23290	1.80041	10.57618	6.35564	2.95589	0.93512	0.85664	0.77272	2.21471	1.68869	1.29888	10.56266	6.59991	3.40956
76760	0.48895	0.42955	0.27454	2.67672	2.20757	1.77645	10.55550	6.35409	2.95565	0.93789	0.84461	0.71679	2.21867	1.67997	1.28304	10.55335	6.58916	3.40465
76920	0.47672	0.43084	0.27259	2.66826	2.21006	1.77239	10.53631	6.34103	2.93563	0.93852	0.84901	0.71138	2.20043	1.67589	1.27871	10.55652	6.61368	3.43696
77080	0.48097	0.42684	0.26823	2.69997	2.23248	1.77827	10.53737	6.33585	2.94961	0.94079	0.87396	0.73798	2.20319	1.68342	1.28877	10.55763	6.63770	3.45418	25.81	6.1	0.00	7.24	0.01271	0.01288	0.01660	0.00770	0.00574	0.00630	0.00467	0.01264	0.01683	0.00672	0.00691	0.00886	0.01488	0.01095	0.01196	0.00214	0.00607	0.00856
77250	0.48899	0.43295	0.26481	2.70988	2.20271	1.79505	10.55122	6.34796	2.93025	0.94969	0.85443	0.71503	2.19794	1.68480	1.27754	10.57888	6.63357	3.40337
77410	0.47680	0.41956	0.25972	2.70831	2.21427	1.77864	10.55511	6.34521	2.94026	0.95982	0.86432	0.73530	2.19829	1.67421	1.28457	10.56179	6.60292	3.41128
77570	0.48440	0.42105	0.25849	2.67908	2.21437	1.78598	10.56356	6.33866	2.92708	0.95568	0.83838	0.73027	2.20343	1.67478	1.27512	10.56727	6.59745	3.41386
77740	0.48083	0.42265	0.26233	2.69988	2.22045	1.79920	10.54396	6.35946	2.94102	0.94787	0.88041	0.74537	2.21169	1.68439	1.32044	10.56814	6.59166	3.40411
77900	0.49048	0.44033	0.27077	2.67923	2.20774	1.76176	10.55128	6.34349	2.93036	0.93478	0.85959	0.73148	2.21052	1.67754	1.27907	10.57373	6.60016	3.42004
78060	0.48081	0.41948	0.26494	2.68407	2.20283	1.79269	10.54693	6.34445	2.92974	0.94240	0.84471	0.71565	2.21095	1.68581	1.29072	10.57044	6.62535	3.42215
78230	0.47554	0.42232	0.26808	2.70285	2.23438	1.79112	10.55016	6.32960	2.93456	0.94066	0.85762	0.73845	2.20350	1.68786	1.27863	10.55895	6.60905	3.42497
78390	0.49241	0.43000	0.27001	2.71889	2.22755	1.79729	10.53942	6.34498	2.95065	0.95955	0.88181	0.77209	2.21730	1.68652	1.28492	10.59710	6.63449	3.43603
78560	0.48773	0.43653	0.27334	2.74572	2.27153	1.80397	10.52460	6.34527	2.95840	0.96141	0.88104	0.78950	2.22979	1.70294	1.30565	10.57702	6.62561	3.44964
78720	0.49471	0.44706	0.27249	2.74485	2.23436	1.83346	10.55597	6.34737	2.94184	1.00280	0.90287	0.78619	2.22332	1.69637	1.28925	10.57936	6.66527	3.46273	25.81	6.0	0.00	7.24	0.01271	0.01288	0.01660	0.00770	0.00574	0.00630	0.00467	0.01264	0.01683	0.00672	0.00691	0.00885	0.01488	0.01095	0.01195	0.00214	0.00607	0.00856
78890	0.50255	0.45879	0.30085	2.75234	2.29422	1.83307	10.56818	6.35788	2.94976	1.02850	0.92741	0.78346	2.20939	1.69280	1.30969	10.58594	6.61396	3.45012
79050	0.48803	0.42597	0.26522	2.71534	2.22276	1.78190	10.54040	6.33307	2.94420	0.97032	0.89785	0.74466	2.21204	1.69099	1.29456	10.57102	6.65253	3.43444
79210	0.49497	0.43173	0.27163	2.74047	2.25299	1.84651	10.56785	6.36509	2.94594	0.97583	0.90966	0.75075	2.24059	1.68532	1.29840	10.58539	6.66828	3.45663
79380	0.50386	0.43878	0.27811	2.71977	2.25107	1.83333	10.56006	6.35420	2.96440	0.96275	0.83796	0.77015	2.20908	1.69291	1.29491	10.56938	6.61184	3.43828
79540	0.47621	0.42923	0.26063	2.72106	2.24082	1.79539	10.55900	6.33921	2.93501	0.93976	0.86025	0.71853	2.21409	1.67640	1.27948	10.52737	6.57944	3.39683
79710	0.48273	0.42743	0.26061	2.71947	2.22456	1.77564	10.53151	6.32991	2.95636	0.95817	0.86630	0.72123	2.20700	1.67905	1.28464	10.55153	6.61765	3.41618
79870	0.48447	0.43289	0.28558	2.68953	2.20673	1.79925	10.53428	6.34309	2.95603	0.96265	0.86416	0.73184	2.20532	1.68508	1.28328	10.54026	6.63314	3.45912
80030	0.48149	0.42633	0.26942	2.68730	2.20413	1.77708	10.52908	6.33367	2.93970	0.97980	0.90377	0.79717	2.19966	1.67876	1.27879	10.56050	6.59978	3.46078
80200	0.49861	0.43266	0.26779	2.70604	2.20377	1.77374	10.54159	6.33432	2.92911	0.93481	0.84345	0.73499	2.21978	1.68222	1.28275	10.51341	6.59067	3.40267
80360	0.48403	0.43021	0.26754	2.67878	2.21056	1.77223	10.52437	6.33029	2.92072	0.92613	0.85881	0.73520	2.19986	1.66765	1.27193	10.53705	6.59751	3.41708	25.75	6.0	0.00	7.34	0.01271	0.01288	0.01660	0.00770	0.00574	0.00630	0.00467	0.01264	0.01683	0.00672	0.00691	0.00886	0.01488	0.01095	0.01196	0.00214	0.00608	0.00857
80520	0.49255	0.43684	0.26640	2.70762	2.22721	1.78935	10.49147	6.32537	2.93888	0.97637	0.87467	0.74058	2.20890	1.68030	1.29548	10.55115	6.61046	3.41535
80690	0.48879	0.43163	0.26163	2.70412	2.21332	1.82639	10.65555	6.41425	2.92806	0.98610	0.89516	0.76932	2.20696	1.67770	1.29835	10.58390	6.62895	3.44245
80850	0.48508	0.42949	0.27412	2.70486	2.23690	1.80144	10.50991	6.33142	2.94045	0.96843	0.85789	0.74483	2.21386	1.67541	1.28644	10.55913	6.61358	3.41171
81010	0.47688	0.42908	0.26838	2.70132	2.22509	1.77940	10.51175	6.32779	2.93829	0.93323	0.88146	0.75718	2.19427	1.66896	1.27418	10.53148	6.59343	3.43626
81180	0.46773	0.41949	0.26466	2.71422	2.22778	1.79660	10.50886	6.33809	2.93419	0.95917	0.85561	0.71572	2.20250	1.68093	1.29011	10.51937	6.59315	3.40709
81340	0.47951	0.42089	0.25898	2.69902	2.20303	1.76819	10.52701	6.30910	2.92689	0.94587	0.84160	0.73577	2.19221	1.66679	1.28072	10.52591	6.59909	3.40500
81500	0.46772	0.41753	0.25717	2.68147	2.20446	1.80947	10.48747	6.31764	2.91856	0.92176	0.83544	0.70600	2.18576	1.66786	1.28416	10.49367	6.59784	3.40880
81670	0.47581	0.42738	0.26556	2.67103	2.21973	1.78111	10.49718	6.31896	2.92887	0.91555	0.84647	0.72074	2.19042	1.67026	1.27596	10.53432	6.57276	3.41740
81830	0.48335	0.43847	0.27276	2.70784	2.21300	1.78792	10.51708	6.31686	2.94226	0.96896	0.85350	0.72943	2.20002	1.67665	1.27053	10.51926	6.56350	3.39676
81990	0.47551	0.42493	0.26237	2.67794	2.20786	1.80134	10.50348	6.32138	2.93474	0.95612	0.85473	0.75115	2.19251	1.66540	1.28849	10.50998	6.58291	3.38971	25.75	6.0	0.00	7.24	0.01272	0.01289	0.01660	0.00770	0.00574	0.00630	0.00467	0.01264	0.01684	0.00672	0.00691	0.00886	0.01488	0.01095	0.01196	0.00214	0.00608	0.00857
82160	0.50775	0.45224	0.27351	2.69547	2.21549	1.77785	10.54564	6.36418	2.94552	0.93511	0.85413	0.73522	2.21279	1.67716	1.28172	10.52762	6.58711	3.41667
82320	0.47718	0.42371	0.25897	2.69528	2.21869	1.78781	10.51465	6.32248	2.92837	0.96803	0.84748	0.70960	2.19309	1.66501	1.27409	10.53286	6.58372	3.40016
82480	0.47481	0.41623	0.26663	2.67271	2.19994	1.76897	10.51044	6.31703	2.92896	0.95546	0.87639	0.74181	2.21358	1.69049	1.27653	10.52501	6.59955	3.44003
82650	0.47871	0.42621	0.25997	2.67048	2.19272	1.79195	10.49063	6.32655	2.93199	0.94624	0.85970	0.73815	2.18863	1.68075	1.28482	10.54530	6.61569	3.41289
82810	0.48964	0.42782	0.27058	2.72873	2.22457	1.77898	10.50316	6.31904	2.93849	0.93627	0.83641	0.74441	2.19667	1.67117	1.27951	10.54759	6.59203	3.41134
82970	0.47902	0.43269	0.26111	2.69163	2.20088	1.78863	10.54011	6.32728	2.94182	0.94430	0.87683	0.76315	2.19214	1.67373	1.28144	10.54792	6.60205	3.41663
83140	0.47378	0.42852	0.26666	2.69777	2.22807	1.80124	10.51583	6.33123	2.94006	0.97669	0.87125	0.77239	2.20811	1.69564	1.28581	10.57887	6.62584	3.39796
83300	0.49562	0.46066	0.29315	2.70149	2.22414	1.82552	10.51741	6.33959	2.95081	0.96588	0.84933	0.74120	2.20672	1.70734	1.28476	10.52032	6.59598	3.42202
83460	0.49789	0.45090	0.27963	2.70963	2.22731	1.81773	10.52977	6.33440	2.94721	0.95853	0.86042	0.74671	2.20498	1.66925	1.28653	10.53886	6.61694	3.40376
83630	0.47816	0.41922	0.28179	2.67588	2.20530	1.81838	10.50319	6.32372	2.93243	0.97867	0.88267	0.76252	2.19789	1.67404	1.28244	10.56485	6.60957	3.44388	25.75	6.0	0.00	7.23	0.01272	0.01289	0.01660	0.00770	0.00574	0.00630	0.00467	0.01264	0.01684	0.00672	0.00691	0.00886	0.01488	0.01095	0.01196	0.00214	0.00608	0.00857
83790	0.47528	0.42128	0.26585	2.71786	2.25614	1.84743	10.52302	6.32647	2.92563	0.97541	0.89916	0.77225	2.21035	1.68292	1.29825	10.55479	6.58701	3.43522
83950	0.50115	0.44925	0.29017	2.71391	2.21755	1.81156	10.56394	6.34622	2.95181	0.96240	0.89517	0.76771	2.21082	1.69816	1.29513	10.56135	6.63427	3.44237
84120	0.49093	0.44285	0.27810	2.70152	2.24557	1.81909	10.55879	6.34356	2.95396	0.97399	0.86093	0.75430	2.20942	1.68400	1.29636	10.55697	6.63566	3.44088
84280	0.49838	0.45008	0.26446	2.70452	2.21388	1.82607	10.51238	6.32550	2.93293	0.95574	0.84838	0.72818	2.20561	1.67679	1.27356	10.53109	6.59910	3.41870
84440	0.48380	0.43188	0.26535	2.68616	2.19788	1.77940	10.51776	6.32861	2.93528	0.94702	0.86049	0.72850	2.20275	1.67089	1.29086	10.52891	6.58704	3.41689
84610	0.48042	0.42340	0.26325	2.68452	2.20786	1.78494	10.54725	6.33723	2.93421	0.92956	0.83322	0.74198	2.20479	1.67775	1.29439	10.53152	6.61062	3.41112
84770	0.48155	0.42839	0.26188	2.72580	2.22335	1.80082	10.53125	6.33181	2.94230	0.96486	0.86156	0.79083	2.19801	1.67612	1.28706	10.56168	6.61637	3.45122
84930	0.48388	0.42990	0.27030	2.69991	2.24783	1.79960	10.55186	6.34505	2.95018	0.98499	0.85828	0.74047	2.19487	1.67697	1.28178	10.54277	6.61378	3.41421
85100	0.47997	0.42615	0.25628	2.69880	2.20853	1.78424	10.53987	6.33513	2.94898	0.94242	0.85866	0.71954	2.20403	1.68876	1.28917	10.54375	6.60467	3.41682
85260	0.49215	0.43913	0.28208	2.69542	2.21923	1.78608	10.57133	6.34059	2.94303	0.94700	0.85745	0.73483	2.21462	1.69955	1.29741	10.53881	6.58855	3.40469	25.81	6.3	0.00	7.36	0.01271	0.01289	0.01660	0.00770	0.00574	0.00630	0.00467	0.01264	0.01684	0.00672	0.00691	0.00886	0.01488	0.01095	0.01196	0.00214	0.00608	0.00857
85420	0.48366	0.43115	0.27503	2.68006	2.21877	1.79511	10.55463	6.34697	2.95326	0.96058	0.88085	0.71869	2.20427	1.68237	1.29083	10.55761	6.59929	3.41392
85590	0.48845	0.42280	0.26025	2.71029	2.22719	1.78839	10.54401	6.33810	2.93284	0.94557	0.84341	0.71110	2.20225	1.67712	1.28580	10.58797	6.60192	3.42803
85750	0.47929	0.43475	0.26782	2.68195	2.21435	1.79340	10.55555	6.34994	2.94263	0.95067	0.86811	0.73608	2.20466	1.69336	1.28806	10.54045	6.58728	3.40593
85910	0.48732	0.43132	0.26210	2.70590	2.22829	1.79709	10.54625	6.34723	2.93161	0.96566	0.86538	0.72343	2.22224	1.68334	1.27294	10.55947	6.61882	3.41537
86080	0.47530	0.42620	0.25991	2.69891	2.22928	1.78841	10.57027	6.35567	2.94868	0.95225	0.86641	0.71349	2.21346	1.67518	1.28014	10.57897	6.63177	3.43148
86240	0.46891	0.42395	0.25945	2.70735	2.24615	1.79886	10.55528	6.34550	2.94710	0.95918	0.88672	0.73508	2.20885	1.67781	1.28874	10.58983	6.64096	3.42267
86410	0.47794	0.42133	0.27459	2.70990	2.22836	1.78176	10.55766	6.33728	2.94217	0.94712	0.84406	0.76464	2.20800	1.67171	1.28143	10.57426	6.63545	3.42387
86570	0.48190	0.42102	0.27091	2.68581	2.21394	1.79473	10.55027	6.35114	2.94119	0.93739	0.85299	0.71943	2.20625	1.67854	1.28435	10.56166	6.60130	3.41840
86740	0.47724	0.42740	0.25820	2.70305	2.21534	1.80186	10.56169	6.34245	2.93675	0.95409	0.87269	0.74185	2.20270	1.68015	1.29216	10.57656	6.64606	3.43238
86900	0.48356	0.42976	0.25430	2.68309	2.20460	1.77205	10.55957	6.34829	2.93698	0.94754	0.85409	0.73028	2.21194	1.69007	1.28504	10.55045	6.60800	3.41940	25.81	6.0	0.00	7.58	0.01271	0.01289	0.01660	0.00770	0.00574	0.00630	0.00467	0.01264	0.01684	0.00672	0.00691	0.00886	0.01488	0.01095	0.01196	0.00214	0.00608	0.00857
87060	0.47457	0.42422	0.27206	2.70778	2.23035	1.80898	10.56062	6.34327	2.95134	0.98043	0.85691	0.73635	2.22240	1.68153	1.29192	10.58517	6.62003	3.41509
87230	0.48211	0.43472	0.27454	2.69389	2.21195	1.81416	10.54031	6.34948	2.94816	0.94190	0.86691	0.75548	2.21337	1.68715	1.28813	10.56873	6.62819	3.40711
87390	0.50396	0.43298	0.27276	2.68313	2.19412	1.77817	10.54492	6.33696	2.93861	0.94520	0.88040	0.72859	2.21596	1.68894	1.28492	10.54553	6.59218	3.40334
87560	0.47371	0.43168	0.27025	2.68435	2.20716	1.80452	10.55363	6.33566	2.93543	0.95178	0.85110	0.73447	2.20565	1.68108	1.28439	10.55505	6.62878	3.43631
87720	0.47051	0.42757	0.25358	2.72345	2.20890	1.79307	10.54407	6.34192	2.94226	0.94079	0.90257	0.71511	2.21085	1.67430	1.29075	10.56336	6.60480	3.42330
87880	0.47798	0.43156	0.26697	2.66026	2.19968	1.77038	10.53906	6.34070	2.92877	0.94386	0.85239	0.74298	2.19646	1.68580	1.29957	10.56490	6.59664	3.42908
88050	0.48150	0.42635	0.27407	2.71281	2.21780	1.78308	10.53583	6.33975	2.94429	0.95338	0.85563	0.73361	2.20985	1.69001	1.28535	10.58715	6.63827	3.43739
88210	0.47757	0.43008	0.26489	2.68717	2.22556	1.80777	10.53867	6.33295	2.93636	0.95207	0.86576	0.76224	2.20300	1.67647	1.27878	10.55909	6.61814	3.46385
88380	0.48099	0.42426	0.26127	2.70822	2.21908	1.78136	10.54150	6.33362	2.93909	0.95343	0.86912	0.76895	2.21310	1.68077	1.29066	10.56282	6.59368	3.41482
88540	0.47791	0.42675	0.25804	2.68718	2.20427	1.78460	10.55941	6.34371	2.93643	0.93030	0.84049	0.74359	2.20288	1.67306	1.28332	10.54420	6.61367	3.40448	25.81	6.0	0.00	7.26	0.01271	0.01288	0.01660	0.00770	0.00574	0.00630	0.00467	0.01264	0.01683	0.00672	0.00691	0.00886	0.01488	0.01095	0.01196	0.00214	0.00608	0.00857
88700	0.48066	0.43052	0.25856	2.68633	2.20229	1.82831	10.56033	6.35562	2.94573	0.95968	0.86086	0.73864	2.21261	1.69461	1.29458	10.56686	6.63127	3.42364
88870	0.48897	0.43258	0.26685	2.68037	2.23874	1.79374	10.58280	6.34626	2.94110	0.95019	0.87386	0.75583	2.22229	1.68903	1.29853	10.58473	6.62236	3.42652
89030	0.49150	0.42618	0.27609	2.68229	2.21135	1.80526	10.56700	6.36164	2.94741	0.98605	0.88366	0.74977	2.23894	1.70454	1.28985	10.58912	6.63231	3.44032
89200	0.48059	0.43619	0.26778	2.72612	2.24599	1.81033	10.54635	6.33972	2.95134	0.96025	0.89605	0.74127	2.20793	1.67546	1.28707	10.58627	6.62336	3.45552
89360	0.48605	0.43831	0.26842	2.70807	2.21904	1.80160	10.55525	6.36585	2.95011	0.97985	0.87691	0.73913	2.22700	1.70037	1.29644	10.61980	6.65056	3.45595
89520	0.52276	0.44128	0.28859	2.72134	2.24317	1.83346	10.56621	6.37157	2.96366	0.97179	0.88292	0.76819	2.22800	1.71261	1.31679	10.59956	6.66712	3.44640
89690	0.52424	0.43813	0.28178	2.73241	2.28894	1.81996	10.58842	6.39409	3.00079	0.99188	0.91664	0.76200	2.22500	1.70902	1.31877	10.58769	6.69604	3.46311
89850	0.50350	0.43933	0.27962	2.75145	2.25327	1.81318	10.54621	6.37891	2.98674	0.97160	0.90130	0.74968	2.21327	1.71593	1.29238	10.58681	6.66460	3.51195
90020	0.50057	0.43460	0.26702	2.73568	2.24792	1.81760	10.58995	6.34732	2.95700	0.97974	0.88718	0.79008	2.22037	1.69865	1.29502	10.58034	6.65513	3.47338
90180	0.50009	0.45963	0.30356	2.74656	2.24674	1.82203	10.56949	6.35740	2.96706	1.01803	0.92796	0.83439	2.25549	1.71666	1.33792	10.63196	6.69105	3.47765	25.75	6.1	0.00	7.32	0.01271	0.01288	0.01660	0.00770	0.00574	0.00630	0.00467	0.01264	0.01683	0.00672	0.00691	0.00886	0.01488	0.01095	0.01196	0.00214	0.00608	0.00857
90350	0.51665	0.46212	0.31081	2.82611	2.33166	1.89466	10.61591	6.38151	2.97827	1.00698	0.99584	0.83271	2.26404	1.71639	1.31859	10.59628	6.63968	3.44521
90510	0.50901	0.46035	0.28293	2.74669	2.24063	1.79616	10.56268	6.35397	2.96571	0.97960	0.88607	0.73246	2.21413	1.67689	1.27885	10.57848	6.62183	3.44225
90680	0.48780	0.43258	0.28014	2.69840	2.23439	1.80569	10.57987	6.36477	2.94851	1.02481	0.89865	0.79253	2.21832	1.70118	1.29718	10.64112	6.68389	3.49588
90840	0.49996	0.45066	0.29210	2.76488	2.28068	1.85479	10.59840	6.38187	2.97088	0.98302	0.90389	0.83819	2.22636	1.70183	1.31551	10.63538	6.67761	3.50713
91000	0.52353	0.44426	0.28714	2.78292	2.29903	1.83318	10.59045	6.38094	2.95457	0.98667	0.89370	0.76631	2.23787	1.69548	1.29141	10.59968	6.66969	3.48247
91170	0.49482	0.44013	0.28071	2.74651	2.23455	1.83737	10.61963	6.37476	2.94876	1.00009	0.90647	0.81216	2.24655	1.73470	1.31250	10.65903	6.67743	3.53363
91330	0.51787	0.46605	0.29930	2.77097	2.33195	1.87555	10.58695	6.37874	2.97088	1.06238	0.94299	0.79683	2.25322	1.69695	1.32414	10.65062	6.68121	3.47413
91500	0.50371	0.43995	0.29097	2.75768	2.27751	1.82754	10.57676	6.37014	2.96983	0.96944	0.86184	0.73978	2.22631	1.68019	1.29292	10.55743	6.64742	3.43181
91660	0.49102	0.42726	0.27528	2.71894	2.24648	1.82121	10.59926	6.35845	2.94483	0.97318	0.86769	0.73827	2.21424	1.68395	1.28817	10.56280	6.63007	3.42159
91830	0.48766	0.42618	0.26296	2.70508	2.24101	1.80042	10.57294	6.35447	2.94628	0.95998	0.90246	0.79450	2.23973	1.69713	1.29218	10.61447	6.65522	3.44043	25.81	6.2	0.00	7.33	0.01271	0.01288	0.01660	0.00770	0.00574	0.00630	0.00467	0.01264	0.01683	0.00672	0.00691	0.00886	0.01488	0.01095	0.01196	0.00214	0.00608	0.00857
91990	0.50690	0.44241	0.28204	2.74115	2.27155	1.85714	10.63027	6.37999	2.97801	1.03819	0.93326	0.77684	2.24871	1.70860	1.30278	10.64105	6.68576	3.50471
92150	0.50076	0.44121	0.27212	2.70689	2.23274	1.82104	10.59643	6.37086	2.95716	1.00166	0.89495	0.77127	2.21656	1.68621	1.29980	10.58543	6.66092	3.45926
92320	0.48806	0.43012	0.26902	2.71869	2.26205	1.85102	10.58378	6.36837	2.95651	0.96992	0.87076	0.75095	2.23802	1.68806	1.30550	10.59411	6.67079	3.45270
92480	0.49269	0.44913	0.28126	2.71152	2.27027	1.82745	10.59166	6.36828	2.95754	0.96339	0.87231	0.75251	2.22132	1.68597	1.29004	10.57698	6.64171	3.45673
92650	0.49092	0.43624	0.28339	2.71472	2.27281	1.82392	10.57763	6.38220	2.96472	0.97212	0.87014	0.77531	2.22620	1.70752	1.29919	10.62406	6.67141	3.46997
92810	0.50072	0.43871	0.28187	2.72029	2.25615	1.83578	10.58921	6.39109	2.96296	0.97948	0.87852	0.79445	2.24309	1.70741	1.29752	10.62273	6.66509	3.45343
92970	0.48917	0.45155	0.28262	2.71172	2.22493	1.83128	10.59265	6.36254	2.95902	1.03574	0.89188	0.78081	2.22546	1.69637	1.29836	10.60379	6.66259	3.45774
93140	0.48973	0.44944	0.27555	2.70787	2.22855	1.82408	10.62695	6.38312	2.96370	0.95721	0.88107	0.74175	2.22886	1.69502	1.29721	10.59026	6.63558	3.42779
93300	0.48577	0.43919	0.27861	2.69322	2.21649	1.78727	10.59603	6.37139	2.95579	0.93399	0.82874	0.74416	2.20815	1.68184	1.28810	10.57840	6.62411	3.42495
93460	0.49147	0.42701	0.26711	2.68836	2.23301	1.79453	10.61143	6.37917	2.97548	1.00383	0.89455	0.74652	2.23090	1.70757	1.29785	10.59706	6.63645	3.47614	25.75	6.2	0.00	7.29	0.01271	0.01288	0.01660	0.00770	0.00574	0.00630	0.00467	0.01264	0.01683	0.00672	0.00691	0.00886	0.01488	0.01094	0.01196	0.00214	0.00607	0.00856
93630	0.50725	0.44365	0.27446	2.72049	2.24582	1.81287	10.60062	6.37583	2.96762	0.99252	0.88002	0.74395	2.22040	1.69073	1.30674	10.61984	6.65060	3.50104
93790	0.50385	0.43599	0.26742	2.72597	2.23038	1.82688	10.56384	6.37405	2.96491	1.00313	0.91312	0.76171	2.21562	1.69884	1.29226	10.61940	6.65232	3.47905
93950	0.48856	0.43336	0.27014	2.72846	2.23883	1.83505	10.59036	6.38036	2.95348	0.98609	0.88757	0.76275	2.23969	1.69445	1.29311	10.61466	6.65669	3.47741
94120	0.49423	0.43256	0.27406	2.75340	2.25548	1.80901	10.56747	6.36949	2.96900	0.97083	0.86478	0.74146	2.22166	1.68060	1.28045	10.61048	6.66619	3.43340
94280	0.47807	0.43429	0.26645	2.70349	2.23217	1.81102	10.61548	6.38123	2.96250	0.95700	0.87028	0.72775	2.21741	1.68823	1.30436	10.61246	6.63499	3.43861
94450	0.48127	0.42437	0.26395	2.69023	2.20721	1.79820	10.59572	6.36706	2.95077	0.93931	0.86036	0.74058	2.22163	1.69138	1.29573	10.65072	6.64211	3.41354
94610	0.49257	0.43450	0.26916	2.70888	2.21878	1.79989	10.60069	6.36867	2.95629	0.95553	0.87929	0.73901	2.22053	1.69271	1.28764	10.61400	6.64375	3.44062
94770	0.48649	0.42401	0.25695	2.72015	2.20409	1.77535	10.60009	6.38454	2.96027	0.95256	0.85779	0.72824	2.21372	1.69780	1.29151	10.62479	6.65684	3.47349
94940	0.48204	0.43071	0.27583	2.71782	2.22017	1.81289	10.61515	6.38721	2.95903	0.96623	0.86321	0.73511	2.21644	1.68901	1.29830	10.62083	6.68534	3.45950
95100	0.48504	0.43184	0.26796	2.72698	2.24788	1.80586	10.59854	6.38391	2.96434	0.95898	0.84001	0.72747	2.22621	1.70277	1.29310	10.61494	6.66460	3.44520	25.81	6.1	0.00	7.25	0.01271	0.01288	0.01660	0.00770	0.00574	0.00630	0.00467	0.01264	0.01683	0.00672	0.00691	0.00886	0.01488	0.01094	0.01195	0.00214	0.00607	0.00856
95270	0.48243	0.42805	0.26422	2.71864	2.23138	1.82015	10.60789	6.38261	2.95927	0.95740	0.86313	0.71652	2.21352	1.68078	1.29145	10.62033	6.64021	3.44437
95430	0.47862	0.42245	0.26024	2.68814	2.22754	1.79176	10.60444	6.36792	2.94512	0.94221	0.84925	0.72474	2.21035	1.68195	1.29094	10.63179	6.66506	3.42472
95590	0.47825	0.43532	0.26978	2.68536	2.20732	1.80629	10.61585	6.38177	2.96718	0.96326	0.84833	0.73567	2.22475	1.69048	1.29340	10.63113	6.63257	3.41578
95760	0.48452	0.43190	0.26456	2.69360	2.22683	1.80233	10.61525	6.38659	2.96552	0.96642	0.88453	0.74689	2.23376	1.69451	1.29504	10.63168	6.65265	3.44021
95920	0.48229	0.42854	0.26856	2.70817	2.24025	1.81117	10.60809	6.38276	2.96766	0.95520	0.91516	0.75441	2.23701	1.70342	1.30809	10.63841	6.65168	3.46134
96090	0.48485	0.44844	0.28523	2.72903	2.23010	1.82530	10.66482	6.39153	2.99621	0.96613	0.87418	0.75515	2.24701	1.70330	1.30981	10.63874	6.65591	3.45602
96250	0.49992	0.43247	0.27088	2.71958	2.24022	1.84424	10.61665	6.39005	2.96435	0.99470	0.87817	0.77596	2.23435	1.69243	1.29523	10.65740	6.66565	3.50568
96420	0.48703	0.42397	0.26454	2.70463	2.24847	1.80923	10.61114	6.38714	2.95659	0.93197	0.85398	0.71877	2.21740	1.69620	1.28674	10.63488	6.66647	3.42653
96580	0.47706	0.42417	0.26837	2.74317	2.22159	1.81905	10.61114	6.38419	2.95094	0.95446	0.85896	0.73740	2.21763	1.69100	1.28976	10.62815	6.63864	3.44737
96750	0.48230	0.42581	0.26037	2.71071	2.20449	1.80101	10.62463	6.37925	2.95836	1.01334	0.89340	0.75602	2.21939	1.69229	1.30169	10.61255	6.64773	3.43739	25.81	6.1	0.00	6.34	0.01271	0.01288	0.01660	0.00770	0.00574	0.00630	0.00467	0.01264	0.01683	0.00672	0.00691	0.00885	0.01488	0.01094	0.01195	0.00214	0.00607	0.00856
96910	0.47227	0.42416	0.26464	2.70494	2.21848	1.78569	10.59610	6.41168	2.96299	0.95358	0.86748	0.72819	2.23574	1.69416	1.29700	10.66677	6.67474	3.43315
97080	0.48565	0.42856	0.28317	2.74720	2.23127	1.83807	10.61627	6.40304	2.96536	0.97300	0.86865	0.76467	2.22061	1.68939	1.29184	10.63140	6.69253	3.43484
97240	0.49651	0.43136	0.27756	2.69444	2.23488	1.81174	10.61368	6.37246	2.95769	0.94258	0.86862	0.72677	2.22585	1.69418	1.30857	10.62467	6.67553	3.44701
97410	0.50730	0.43673	0.27397	2.71528	2.23271	1.80615	10.61547	6.38961	2.97859	0.96618	0.89930	0.75566	2.25699	1.70745	1.31143	10.63095	6.65050	3.43209
97570	0.48758	0.42786	0.26271	2.69465	2.23942	1.82699	10.60041	6.38518	2.97893	0.96597	0.87311	0.75256	2.23553	1.69078	1.29329	10.62235	6.67144	3.43719
97730	0.49250	0.43285	0.27206	2.69716	2.23750	1.81942	10.60850	6.41438	2.97895	0.98355	0.89986	0.73358	2.23267	1.71452	1.32481	10.66810	6.67451	3.45343
97900	0.49698	0.43583	0.28737	2.72561	2.25539	1.83549	10.64612	6.39809	2.96317	1.00383	0.89415	0.74862	2.22776	1.70002	1.33139	10.66223	6.67590	3.47578
98060	0.50851	0.45882	0.28893	2.73164	2.24398	1.82670	10.63241	6.40331	2.98283	0.97312	0.91756	0.77886	2.22962	1.69749	1.29296	10.67042	6.69271	3.46750
98230	0.49377	0.45628	0.27353	2.74548	2.25999	1.82590	10.61919	6.40312	2.97011	0.99473	0.89316	0.75337	2.22211	1.70115	1.31062	10.63758	6.65887	3.45536
98390	0.48601	0.44109	0.27251	2.72029	2.24028	1.79048	10.64509	6.40009	2.97287	0.98875	0.89908	0.73678	2.23968	1.71745	1.31045	10.64848	6.66045	3.43911	25.81	6.2	0.00	7.25	0.01271	0.01288	0.01660	0.00770	0.00574	0.00630	0.00467	0.01264	0.01683	0.00672	0.00691	0.00886	0.01488	0.01094	0.01196	0.00214	0.00607	0.00856
98560	0.49349	0.44533	0.29765	2.72011	2.25588	1.82615	10.63764	6.40148	2.97733	0.95989	0.89247	0.76713	2.23676	1.71232	1.30863	10.64384	6.67397	3.45507
98720	0.50032	0.43325	0.27116	2.71459	2.22851	1.79027	10.60854	6.39468	2.96320	0.96476	0.87639	0.76446	2.21974	1.68122	1.28746	10.61857	6.62360	3.46608
98880	0.48068	0.43470	0.27103	2.69482	2.21210	1.78158	10.61664	6.38158	2.94314	0.94603	0.86918	0.75092	2.21358	1.69247	1.29273	10.60481	6.61877	3.42332
99050	0.48901	0.42034	0.25534	2.68794	2.19746	1.76558	10.61027	6.37396	2.95811	0.92831	0.86306	0.73920	2.23718	1.69607	1.30288	10.62783	6.64712	3.42968
99210	0.48224	0.44433	0.26890	2.69916	2.22455	1.80778	10.63598	6.40179	2.99456	0.93396	0.89036	0.74195	2.23472	1.71021	1.31715	10.64826	6.66849	3.42989
99370	0.48644	0.44047	0.27146	2.73905	2.27081	1.82250	10.63278	6.39595	2.97163	0.97449	0.88888	0.74251	2.22805	1.72474	1.30144	10.61593	6.70746	3.47841
99540	0.49699	0.45121	0.27476	2.74294	2.28648	1.82639	10.62315	6.39972	2.96312	0.98198	0.87744	0.78893	2.24140	1.71270	1.29555	10.61549	6.66623	3.43331
99700	0.49511	0.44720	0.28245	2.72722	2.22062	1.77363	10.62687	6.39860	2.97845	0.96432	0.87714	0.73270	2.23593	1.69508	1.28323	10.63478	6.64656	3.44206
99870	0.48915	0.43016	0.26413	2.68578	2.22446	1.78831	10.61717	6.39146	2.95316	0.93593	0.85546	0.72656	2.20934	1.68128	1.28268	10.58843	6.63500	3.42836
100030	0.47515	0.42592	0.25756	2.68668	2.21892	1.78875	10.64057	6.39371	2.96505	0.91828	0.83656	0.71035	2.22436	1.69002	1.29651	10.62478	6.65252	3.43809	25.81	6.2	0.00	7.29	0.01271	0.01288	0.01660	0.00770	0.00574	0.00630	0.00467	0.01264	0.01683	0.00672	0.00691	0.00886	0.01488	0.01095	0.01196	0.00214	0.00608	0.00857
100190	0.48930	0.42082	0.26330	2.69751	2.21185	1.74727	10.61505	6.39137	2.95108	0.94704	0.84494	0.71356	2.21773	1.70098	1.29225	10.61509	6.67446	3.42592
100360	0.48125	0.43754	0.25803	2.68226	2.19628	1.75563	10.60118	6.38173	2.95345	0.93508	0.84490	0.73000	2.21763	1.69486	1.27679	10.59902	6.63985	3.41430
100520	0.46881	0.42087	0.25599	2.68128	2.19882	1.77031	10.62800	6.38361	2.94954	0.93521	0.86623	0.71993	2.22832	1.69716	1.30781	10.63713	6.65835	3.46598
100690	0.50026	0.46308	0.28539	2.76567	2.30835	1.85766	10.66189	6.45835	3.01515	1.01860	0.95044	0.82542	2.27767	1.78443	1.33851	10.73683	6.74206	3.47922
100850	0.54988	0.48058	0.32211	2.76724	2.29017	1.92694	10.70506	6.47466	3.03586	1.03915	0.99459	0.86133	2.27130	1.79648	1.37771	10.80382	6.85183	3.56912
101010	0.58566	0.50942	0.40075	2.83446	2.45514	1.99600	10.76243	6.55931	3.13947	1.26594	1.12449	1.01870	2.37441	1.81443	1.49169	10.92881	6.92583	3.74098
101180	0.59656	0.56308	0.41127	2.95052	2.45503	2.12174	10.77746	6.62852	3.14943	1.33758	1.19091	1.06985	2.39693	1.85581	1.43690	10.89705	7.01706	3.79438
101340	0.60264	0.56662	0.41880	2.96680	2.50248	2.03833	10.77314	6.54608	3.08059	1.23025	1.07573	0.88263	2.30761	1.77482	1.36137	10.77950	6.87814	3.59111
101510	0.56805	0.50231	0.33499	2.94545	2.40182	1.99496	10.71826	6.47322	3.03758	1.09565	0.99768	0.83936	2.34335	1.76215	1.33466	10.76507	6.79136	3.51504
101670	0.54012	0.47521	0.29881	2.86684	2.34593	1.87443	10.68290	6.45640	3.03704	1.01355	0.94126	0.79388	2.25204	1.71218	1.31345	10.68599	6.70642	3.54098	25.75	6.2	0.00	7.24	0.01271	0.01288	0.01660	0.00770	0.00574	0.00630	0.00467	0.01264	0.01683	0.00672	0.00691	0.00886	0.01488	0.01095	0.01196	0.00214	0.00608	0.00857
101830	0.49288	0.44491	0.29010	2.77689	2.26610	1.81883	10.67943	6.44144	2.99663	0.95637	0.92744	0.79001	2.24700	1.70496	1.30001	10.68865	6.69791	3.44192
102000	0.48269	0.43462	0.27751	2.71933	2.22733	1.81806	10.67656	6.41800	2.97518	0.96699	0.86282	0.73646	2.23577	1.71404	1.30611	10.67690	6.71594	3.45087
102160	0.49931	0.44591	0.28904	2.74071	2.27354	1.84520	10.66628	6.45080	2.99899	0.96991	0.84842	0.74313	2.23820	1.72372	1.32935	10.66185	6.67107	3.50575
102330	0.49612	0.43846	0.26812	2.71365	2.20134	1.81092	10.67155	6.43033	2.96834	0.97563	0.86204	0.73808	2.23880	1.70550	1.30453	10.67513	6.68854	3.45305
102490	0.48624	0.43220	0.27899	2.69974	2.23901	1.78922	10.66988	6.42674	2.98401	0.98253	0.89390	0.73465	2.25287	1.70967	1.31712	10.66672	6.64226	3.40822
102660	0.49396	0.42663	0.28534	2.70134	2.24217	1.83012	10.66254	6.42027	3.00059	0.95381	0.86997	0.75473	2.25277	1.71718	1.31502	10.65732	6.68414	3.46696
102820	0.49969	0.43942	0.28204	2.69386	2.24603	1.81186	10.68023	6.42470	2.98275	0.95503	0.86429	0.73444	2.24126	1.70993	1.29884	10.67513	6.67632	3.46370
102980	0.48875	0.45192	0.27805	2.69750	2.24159	1.82589	10.69588	6.43694	3.00224	0.96361	0.87889	0.72826	2.24253	1.71358	1.32972	10.67657	6.67292	3.44773
103150	0.50356	0.44743	0.28577	2.69885	2.21489	1.77539	10.66434	6.41189	2.98583	0.95310	0.83949	0.70226	2.22810	1.69560	1.29338	10.66572	6.66594	3.42610
103310	0.48780	0.42596	0.26490	2.69122	2.22839	1.78502	10.66722	6.42270	2.97720	0.92923	0.83525	0.71011	2.23771	1.70407	1.31646	10.65301	6.65926	3.47104	25.81	6.2	0.00	7.26	0.01271	0.01288	0.01660	0.00770	0.00574	0.00630	0.00467	0.01264	0.01683	0.00672	0.00691	0.00886	0.01488	0.01095	0.01196	0.00214	0.00608	0.00857
103470	0.49146	0.42860	0.28332	2.71066	2.21284	1.78062	10.65995	6.41017	2.97204	0.94970	0.85959	0.76244	2.23822	1.70169	1.29147	10.69154	6.68383	3.44807
103640	0.48464	0.43954	0.27086	2.67694	2.19480	1.76834	10.66322	6.40337	2.96137	0.95246	0.82462	0.69138	2.22021	1.68478	1.29308	10.64573	6.66570	3.41941
103800	0.48034	0.42518	0.26231	2.68542	2.18983	1.75592	10.65555	6.39274	2.97892	0.94524	0.83211	0.71058	2.21854	1.70629	1.29276	10.62598	6.65734	3.39317
103970	0.47816	0.42452	0.26402	2.69762	2.19727	1.77170	10.64456	6.41226	2.96859	0.94883	0.83632	0.73264	2.22561	1.70167	1.29392	10.65069	6.65372	3.42672
104130	0.48052	0.42403	0.26165	2.69826	2.22304	1.78866	10.64876	6.41040	2.97031	0.93379	0.84108	0.72834	2.23035	1.68602	1.28626	10.64032	6.66732	3.44778
104290	0.47492	0.41866	0.25631	2.68786	2.20725	1.76182	10.66288	6.41151	2.96316	0.94902	0.83525	0.70652	2.23641	1.70168	1.31057	10.64727	6.65908	3.42960
104460	0.48108	0.43075	0.27725	2.70487	2.20892	1.78259	10.65422	6.40387	2.96561	0.96166	0.84873	0.72118	2.24278	1.69445	1.30079	10.62929	6.66909	3.43676
104620	0.47637	0.44033	0.26576	2.69267	2.23783	1.76615	10.65495	6.40327	2.96850	0.92626	0.86821	0.71514	2.22825	1.71203	1.30175	10.65478	6.66894	3.45183
104790	0.47700	0.43663	0.27286	2.70069	2.20137	1.78528	10.66835	6.40753	2.96427	0.92540	0.83383	0.72885	2.23915	1.69551	1.30265	10.64374	6.66578	3.42437
104950	0.48180	0.43046	0.26741	2.70990	2.22780	1.78775	10.65705	6.40953	2.96788	0.99419	0.87977	0.73731	2.23428	1.69672	1.29423	10.68487	6.66157	3.46755	25.75	6.2	0.00	7.19	0.01271	0.01289	0.01660	0.00770	0.00574	0.00630	0.00467	0.01264	0.01683	0.00672	0.00691	0.00886	0.01488	0.01095	0.01196	0.00214	0.00608	0.00857
105120	0.50028	0.42817	0.26515	2.69471	2.20188	1.77723	10.63582	6.40093	2.96324	0.92968	0.84232	0.76907	2.22921	1.70376	1.30813	10.63709	6.66100	3.43468
105280	0.49847	0.42898	0.26706	2.68809	2.22191	1.80638	10.63675	6.40687	2.98435	0.94261	0.86624	0.76861	2.22843	1.70880	1.30873	10.69807	6.69216	3.47818
105440	0.50664	0.44135	0.28600	2.73773	2.25494	1.83684	10.68749	6.45189	3.00197	1.00314	0.94927	0.80902	2.25089	1.72368	1.33113	10.70751	6.73415	3.52531
105610	0.50391	0.44837	0.28113	2.73137	2.27130	1.81126	10.68495	6.42406	2.99461	0.97586	0.89609	0.75754	2.27408	1.72111	1.31374	10.68243	6.69685	3.47970
105770	0.51074	0.45044	0.28019	2.71741	2.24206	1.83096	10.67219	6.46160	3.01436	1.04506	0.88271	0.75687	2.25042	1.70006	1.30380	10.66471	6.70463	3.45994
105940	0.51259	0.45819	0.27448	2.73561	2.22999	1.81252	10.67486	6.42218	2.98466	0.99131	0.85405	0.73369	2.24061	1.71566	1.31741	10.69241	6.70445	3.46582
106100	0.48879	0.42791	0.27195	2.72144	2.27193	1.80536	10.67066	6.43401	2.97719	0.96444	0.88627	0.76183	2.22945	1.71303	1.31542	10.67113	6.68364	3.45400
106260	0.48252	0.43800	0.26666	2.73386	2.24016	1.81990	10.66145	6.41528	2.98164	0.96200	0.88057	0.76132	2.23360	1.70147	1.30406	10.68077	6.70662	3.46258
106430	0.48482	0.43118	0.28039	2.74129	2.25682	1.80286	10.65492	6.42164	2.98223	0.99995	0.90804	0.77181	2.24759	1.71639	1.32794	10.73633	6.72603	3.53110
106590	0.52677	0.45182	0.30876	2.79001	2.33156	1.92685	10.72894	6.47972	3.05562	1.14641	1.04883	0.93842	2.33382	1.80447	1.36238	10.81977	6.86227	3.74705	25.81	6.2	0.00	7.36	0.01271	0.01289	0.01660	0.00770	0.00575	0.00630	0.00467	0.01264	0.01684	0.00672	0.00691	0.00886	0.01488	0.01095	0.01196	0.00214	0.00608	0.00857
106750	0.56273	0.51050	0.34236	2.91939	2.47033	1.99434	10.72955	6.50057	3.06400	1.15550	1.01767	0.86596	2.28671	1.74216	1.38070	10.79991	6.77761	3.57385
106920	0.55358	0.49267	0.31098	2.83285	2.33297	1.93799	10.72981	6.46693	3.04748	1.08689	0.96769	0.86079	2.28058	1.77620	1.34484	10.75418	6.75391	3.60133
107080	0.54752	0.48137	0.31754	2.82854	2.36362	1.92503	10.68194	6.46267	2.99917	1.06661	0.96216	0.83008	2.28016	1.74070	1.33058	10.75886	6.75805	3.52386
107250	0.52186	0.46250	0.29019	2.78546	2.28174	1.83578	10.69410	6.43602	2.99612	0.99022	0.90494	0.76014	2.26273	1.71959	1.33463	10.74905	6.71597	3.51161
107410	0.50561	0.45630	0.28018	2.78343	2.33341	1.87229	10.68896	6.43218	3.00039	1.00042	0.91125	0.80057	2.27101	1.72445	1.31144	10.71954	6.70088	3.50605
107570	0.51241	0.46188	0.28296	2.77865	2.28645	1.86450	10.67800	6.44902	3.02277	0.98410	0.91375	0.76950	2.24888	1.73977	1.33571	10.71420	6.81461	3.52516
107740	0.52214	0.47093	0.29970	2.79093	2.27873	1.84567	10.66439	6.42660	2.99152	0.99203	0.90691	0.77559	2.25371	1.71312	1.31266	10.70854	6.73191	3.52151
107900	0.50217	0.43742	0.27581	2.75696	2.30026	1.86506	10.68014	6.41646	2.98857	1.02141	0.89219	0.76199	2.25192	1.71587	1.31571	10.67561	6.68446	3.46838
108060	0.49072	0.45518	0.28160	2.72262	2.25455	1.82611	10.65905	6.41949	2.98668	0.99170	0.88216	0.72906	2.24262	1.70599	1.29487	10.68148	6.69934	3.46701
108230	0.48515	0.43122	0.25950	3.53550	3.06478	2.10827	10.62965	6.40005	2.97357	1.00684	0.88453	0.74882	2.22142	1.70209	1.29505	10.68190	6.72101	3.47247	25.75	6.1	0.00	7.36	0.01271	0.01289	0.01660	0.00770	0.00575	0.00630	0.00467	0.01264	0.01684	0.00672	0.00691	0.00886	0.01488	0.01095	0.01196	0.00214	0.00608	0.00857
108390	0.47634	0.42293	0.26584	2.73945	2.22371	1.80089	10.64787	6.40824	2.96429	0.96909	0.85775	0.72773	2.23072	1.69530	1.28855	10.64751	6.67112	3.41779
108560	0.47324	0.42271	0.26223	2.72050	2.23480	1.79227	10.62991	6.39920	2.96687	0.95931	0.85843	0.77245	2.22171	1.70827	1.29941	10.65591	6.68276	3.45572
108720	0.47707	0.43025	0.26514	2.70260	2.23523	1.80403	10.65247	6.40621	2.96275	0.95145	0.86408	0.73775	2.22606	1.70486	1.30392	10.67770	6.67530	3.43198
108890	0.48624	0.43073	0.27944	2.72367	2.23503	1.80578	10.64574	6.39829	2.95694	0.95141	0.88327	0.75031	2.22688	1.69654	1.29503	10.63902	6.77882	3.45189
109050	0.49289	0.43415	0.27070	2.71296	2.23856	1.85692	10.63503	6.40379	2.96799	0.97993	0.89965	0.75938	2.21492	1.68521	1.29181	10.64398	6.66169	3.43235
109220	0.47672	0.42693	0.27208	2.69177	2.21587	1.82610	10.65520	6.40359	2.96535	0.93371	0.85201	0.72562	2.24020	1.69552	1.29021	10.62248	6.63736	3.44384
109380	0.47438	0.42399	0.26487	2.69901	2.20376	1.77074	10.60893	6.38623	2.96206	0.94012	0.84164	0.71065	2.22831	1.69411	1.30303	10.60895	6.63331	3.41518
109540	0.47834	0.42324	0.25613	2.68398	2.20071	1.77536	10.61849	6.39613	2.96142	0.94229	0.84828	0.73802	2.22063	1.69565	1.28973	10.60620	6.64594	3.45779
109710	0.47978	0.42110	0.25803	2.68576	2.22203	1.79932	10.61152	6.37796	2.95240	0.95815	0.88549	0.73502	2.21417	1.69750	1.29688	10.67006	6.64227	3.42053
109870	0.48389	0.42306	0.26553	2.71203	2.22913	1.78969	10.61833	6.40159	2.95982	0.93984	0.84450	0.72745	2.21177	1.68903	1.33995	10.58814	6.63362	3.41709	25.81	6.3	0.00	7.23	0.01272	0.01289	0.01660	0.00770	0.00575	0.00630	0.00467	0.01264	0.01684	0.00672	0.00691	0.00886	0.01488	0.01095	0.01196	0.00214	0.00608	0.00857
110030	0.47640	0.43650	0.27254	2.71122	2.21802	1.76552	10.61495	6.38923	2.95940	0.94408	0.84023	0.72535	2.22117	1.69954	1.29719	10.61441	6.65597	3.43591
110200	0.49645	0.44295	0.27167	2.68815	2.19588	1.78352	10.64266	6.38137	2.95962	0.96569	0.87981	0.74978	2.22483	1.69165	1.29017	10.61143	6.66059	3.45062
110360	0.48342	0.43550	0.26583	2.74341	2.23333	1.81354	10.62139	6.39597	2.97013	0.98296	0.86986	0.77862	2.24017	1.71271	1.30419	10.65420	6.67613	3.46108
110530	0.49379	0.42826	0.26094	2.74634	2.24751	1.81949	10.62079	6.39297	2.96809	0.97840	0.86937	0.74927	2.23992	1.70365	1.29449	10.62806	6.64130	3.44739
110690	0.49970	0.44715	0.27050	2.70738	2.20996	1.81513	10.63714	6.40475	2.97012	0.95424	0.87334	0.74495	2.22377	1.70162	1.30207	10.63820	6.67677	3.44807
110850	0.47896	0.42828	0.26195	2.70628	2.22937	1.81230	10.64266	6.38302	2.95230	0.95789	0.86073	0.72505	2.22369	1.68721	1.29382	10.64184	6.70507	3.46329
111020	0.48374	0.41942	0.26671	2.69700	2.23924	1.79152	10.63155	6.38265	2.96529	0.93217	0.83802	0.73384	2.23079	1.70353	1.29179	10.62002	6.64432	3.44680
111180	0.47950	0.42344	0.26409	2.70600	2.22640	1.80070	10.62650	6.38240	2.96119	0.97836	0.87924	0.73454	2.23526	1.68957	1.29985	10.63610	6.65350	3.44727
111350	0.49300	0.44589	0.27481	2.73411	2.23161	1.79563	10.64825	6.41283	2.96425	0.94821	0.86271	0.75134	2.23649	1.70883	1.29765	10.65929	6.66567	3.44973
111510	0.49257	0.44131	0.28685	2.72164	2.22470	1.80432	10.66452	6.40741	2.97056	0.96079	0.84222	0.76148	2.24184	1.71373	1.31907	10.65415	6.69072	3.48273	25.81	6.1	0.00	7.24	0.01271	0.01289	0.01660	0.00770	0.00575	0.00630	0.00467	0.01264	0.01684	0.00672	0.00691	0.00886	0.01488	0.01095	0.01196	0.00214	0.00608	0.00857
111680	0.48897	0.43100	0.26826	2.73343	2.27184	1.91798	10.64300	6.40046	2.97383	0.95767	0.87272	0.74936	2.24885	1.70129	1.30800	10.62779	6.66392	3.45016
111840	0.47966	0.43164	0.26309	2.72823	2.22693	1.77444	10.62451	6.40586	2.96899	0.94563	0.83393	0.73858	2.22199	1.69591	1.30600	10.62107	6.64270	3.46477
112000	0.48152	0.42668	0.26680	2.69173	2.21066	1.77378	10.63375	6.39946	2.96552	0.93313	0.84392	0.72110	2.22915	1.71184	1.30797	10.62701	6.65591	3.43622
112170	0.48479	0.42628	0.26677	2.69893	2.23287	1.82076	10.62697	6.40207	2.95913	0.93932	0.85320	0.71351	2.23018	1.69771	1.31272	10.63429	6.64745	3.43268
112340	0.47827	0.43361	0.26096	2.69662	2.24530	1.80408	10.65172	6.40464	2.96613	0.96462	0.87028	0.75740	2.22342	1.69655	1.29545	10.65680	6.67649	3.46568
112500	0.48414	0.43458	0.27341	2.72530	2.25296	1.82272	10.65392	6.40531	2.96666	0.96598	0.86559	0.72028	2.22660	1.71320	1.31161	10.66089	6.68088	3.44142
112660	0.51722	0.43415	0.27278	2.73464	2.24852	1.78848	10.65459	6.41302	2.98030	0.97062	0.84880	0.74036	2.23650	1.70405	1.29574	10.64212	6.65922	3.53739
112830	0.48157	0.43481	0.27133	2.69741	2.19112	1.77532	10.63043	6.39349	2.95967	0.93318	0.86888	0.72456	2.22658	1.69852	1.29898	10.65305	6.67919	3.43129
112990	0.48901	0.42569	0.27277	2.68851	2.23484	1.80706	10.65319	6.40473	2.96634	0.95674	0.84188	0.73609	2.22412	1.69504	1.30656	10.64653	6.65889	3.43897
113160	0.49414	0.42901	0.26731	2.70276	2.21860	1.78962	10.65406	6.40605	2.97843	0.96032	0.87994	0.71647	2.25217	1.71003	1.31366	10.66113	6.67510	3.44327	25.81	6.1	0.00	7.29	0.01271	0.01289	0.01660	0.00770	0.00575	0.00630	0.00467	0.01264	0.01684	0.00672	0.00691	0.00886	0.01488	0.01095	0.01196	0.00214	0.00608	0.00857
113320	0.48578	0.43384	0.26436	2.70954	2.22371	1.80766	10.63695	6.40880	2.97416	0.94116	0.86648	0.73971	2.23114	1.70486	1.30060	10.67596	6.65688	3.45538
113480	0.48002	0.43373	0.26297	2.70946	2.22594	1.81991	10.62771	6.40083	2.97167	0.93882	0.84924	0.73100	2.22838	1.71005	1.30414	10.62834	6.66009	3.41637
113650	0.49710	0.45111	0.27205	2.69635	2.23296	1.79841	10.63562	6.40397	2.96553	0.94415	0.84488	0.72274	2.24391	1.69610	1.29002	10.64257	6.65480	3.42889
113810	0.48174	0.42817	0.27683	2.72122	2.22545	1.79938	10.63622	6.43299	2.98346	0.93865	0.87110	0.73291	2.22862	1.69297	1.29316	10.64103	6.65129	3.41621
113970	0.47697	0.42396	0.25822	2.69484	2.19937	1.78903	10.63848	6.39764	2.95980	0.94259	0.83347	0.71434	2.21853	1.68921	1.29963	10.64456	6.66333	3.42589
114140	0.48145	0.41921	0.25866	2.66464	2.19658	1.76356	10.64407	6.40669	2.96673	0.93434	0.83695	0.71789	2.22554	1.68834	1.28820	10.63231	6.63563	3.40992
114300	0.47446	0.42381	0.26402	2.69201	2.22858	1.79749	10.65432	6.39893	2.96948	0.95323	0.83941	0.72100	2.22265	1.69691	1.29708	10.64809	6.69788	3.45492
114470	0.48266	0.42720	0.25936	2.70966	2.23653	1.83045	10.66426	6.54541	2.96551	0.95078	0.85398	0.74688	2.36045	1.69648	1.29505	10.64588	6.68075	3.44060
114630	0.50652	0.43068	0.25855	2.69442	2.22686	1.80221	10.66019	6.40444	2.97588	0.94574	0.85284	0.72486	2.23045	1.70521	1.31360	10.66069	6.69623	3.43300
114800	0.49206	0.42909	0.26820	2.73286	2.23196	1.81689	10.65193	6.41370	2.96944	0.93885	0.88597	0.72263	2.23087	1.69888	1.29881	10.66730	6.68910	3.43139	25.81	5.9	0.00	7.26	0.01271	0.01289	0.01660	0.00770	0.00575	0.00630	0.00467	0.01264	0.01684	0.00672	0.00691	0.00886	0.01488	0.01095	0.01196	0.00214	0.00608	0.00857
114960	0.47817	0.42724	0.26914	2.69861	2.22485	1.81125	10.66900	6.42108	2.98765	0.95226	0.84428	0.72582	2.24466	1.70780	1.30123	10.65901	6.67398	3.43906
115120	0.48012	0.43509	0.26925	2.69039	2.22832	1.80042	10.66806	6.41988	2.99240	0.93275	0.86910	0.71638	2.22683	1.71164	1.29851	10.64819	6.65831	3.43753
115290	0.47973	0.44563	0.27065	2.69919	2.22194	1.79360	10.67727	6.42566	2.98786	0.94635	0.85166	0.71664	2.22871	1.69451	1.29932	10.67051	6.67704	3.43817
115450	0.48677	0.43854	0.26864	2.69085	2.20870	1.79305	10.66800	6.41447	2.96820	0.93932	0.82857	0.72466	2.22759	1.69977	1.29962	10.66343	6.67835	3.47976
115610	0.48973	0.44138	0.26883	2.70740	2.24880	1.78085	10.67060	6.41714	2.98004	0.94636	0.87499	0.75069	2.23965	1.69662	1.31153	10.67560	6.66884	3.47147
115780	0.48616	0.42308	0.27020	2.74736	2.21953	1.81582	10.67093	6.42939	2.98348	0.95402	0.87595	0.74894	2.23489	1.70040	1.29361	10.66332	6.67087	3.46254
115940	0.48019	0.42803	0.26044	2.69451	2.20247	1.79965	10.66813	6.40412	2.96704	0.93377	0.82990	0.72491	2.22393	1.69240	1.29403	10.65272	6.64164	3.41473
116110	0.47923	0.42200	0.26594	2.69122	2.20168	1.77825	10.67747	6.40716	2.96969	0.91408	0.82143	0.72779	2.22894	1.69701	1.28712	10.64124	6.64346	3.41250
116270	0.49481	0.42633	0.27326	2.70138	2.20408	1.76515	10.65113	6.40286	2.96887	0.93036	0.83721	0.72594	2.22662	1.68913	1.28393	10.62723	6.65072	3.42112
116440	0.47406	0.42312	0.25628	2.70444	2.19878	1.77830	10.64222	6.40819	2.97578	0.93013	0.83544	0.74816	2.21851	1.68842	1.29094	10.64722	6.65917	3.40541	25.81	6.2	0.00	7.27	0.01271	0.01289	0.01660	0.00770	0.00575	0.00630	0.00467	0.01264	0.01684	0.00672	0.00691	0.00886	0.01488	0.01095	0.01196	0.00214	0.00608	0.00857
116600	0.48493	0.42186	0.25851	2.69749	2.17988	1.79491	10.65873	6.39834	2.97149	0.92937	0.83134	0.71261	2.22812	1.70330	1.31316	10.70888	6.82132	3.56392
116770	0.49041	0.42793	0.27217	2.81787	2.37943	1.85657	10.69105	6.42015	2.98363	0.93753	0.83583	0.72159	2.23659	1.70762	1.29705	10.66213	6.66775	3.44875
116930	0.49118	0.43671	0.29012	2.73489	2.22887	1.80828	10.68249	6.43046	2.98514	0.95625	0.88786	0.76676	2.24939	1.70801	1.31769	10.69124	6.71267	3.48812
117090	0.50040	0.45186	0.29451	2.73545	2.25077	1.82462	10.69640	6.42703	2.98252	0.98623	0.88194	0.78616	2.24060	1.72112	1.33707	10.72777	6.71704	3.46754
117260	0.49149	0.44081	0.27123	2.73302	2.29276	1.85690	10.66573	6.43180	2.98873	0.97370	0.88324	0.77030	2.26040	1.71514	1.29609	10.68780	6.66251	3.43776
117420	0.50167	0.43274	0.27654	2.74630	2.24380	1.80560	10.67347	6.41398	2.97940	0.95607	0.87407	0.72903	2.22694	1.69303	1.29849	10.65583	6.66554	3.47358
117590	0.50112	0.44216	0.26547	2.70820	2.21526	1.80123	10.66827	6.41257	2.97539	0.93033	0.85952	0.73924	2.23554	1.70791	1.29650	10.65174	6.70687	3.46243
117750	0.49204	0.42474	0.25940	2.71351	2.24576	1.80822	10.67121	6.41682	2.98487	0.95767	0.85964	0.73958	2.23860	1.69750	1.30346	10.67363	6.67890	3.44360
117920	0.49169	0.43510	0.28135	2.71196	2.22982	1.79354	10.65807	6.42350	2.98524	0.95803	0.84354	0.72194	2.23247	1.70619	1.29105	10.68381	6.66629	3.42571
118080	0.48739	0.43480	0.26947	2.68914	2.21233	1.77628	10.66124	6.42041	2.96588	0.93957	0.83914	0.71387	2.24772	1.69983	1.29453	10.65789	6.66509	3.44131	25.81	5.9	0.00	7.22	0.01271	0.01289	0.01660	0.00770	0.00575	0.00630	0.00467	0.01264	0.01684	0.00672	0.00691	0.00886	0.01488	0.01095	0.01196	0.00214	0.00608	0.00857
118250	0.48639	0.43373	0.27031	2.69165	2.21233	1.78866	10.66664	6.42192	2.99628	0.93763	0.84942	0.75725	2.23650	1.69815	1.29528	10.65756	6.67092	3.47609
118410	0.48210	0.43204	0.26844	2.71265	2.24590	1.81274	10.66104	6.42545	2.96606	0.93531	0.84644	0.72726	2.23188	1.70283	1.29480	10.65811	6.66501	3.43326
118570	0.47526	0.43167	0.27357	2.68907	2.24364	1.79686	10.66758	6.42094	2.98017	0.92981	0.87890	0.74207	2.25871	1.71382	1.30173	10.67991	6.68431	3.50106
118740	0.48910	0.43333	0.26255	2.73384	2.23545	1.80203	10.66945	6.43445	2.98066	0.96175	0.88402	0.74674	2.24924	1.71176	1.31588	10.66563	6.72262	3.44796
118900	0.48906	0.42994	0.27508	2.72708	2.24442	1.82396	10.65471	6.40685	2.97671	0.96134	0.86924	0.72459	2.22968	1.71487	1.31132	10.68090	6.70822	3.50086
119060	0.49075	0.42976	0.27546	2.69250	2.25165	1.79082	10.65358	6.41564	2.98211	1.00928	0.86972	0.74984	2.24788	1.72420	1.31340	10.66662	6.70698	3.49312
119230	0.50405	0.43759	0.27995	2.75887	2.22433	1.84496	10.67212	6.41255	2.98483	0.94914	0.89497	0.75450	2.24587	1.73927	1.30166	10.68212	6.67490	3.46960
119390	0.50440	0.44752	0.30069	2.71951	2.26498	1.83907	10.67479	6.41324	2.98818	0.95976	0.87291	0.75757	2.26406	1.72087	1.29845	10.67581	6.69827	3.44630
119560	0.50499	0.44455	0.27321	2.73700	2.22459	1.80598	10.64778	6.42133	2.99071	0.96545	0.88605	0.76280	2.23897	1.70612	1.30173	10.67072	6.69600	3.44981
119720	0.49555	0.43434	0.28266	2.71247	2.23524	1.83532	10.67148	6.41382	2.97400	0.96989	0.92096	0.77400	2.24339	1.72288	1.31868	10.68227	6.72006	3.45640	25.81	5.9	0.00	7.21	0.01272	0.01289	0.01660	0.00771	0.00575	0.00630	0.00467	0.01264	0.01684	0.00672	0.00691	0.00886	0.01488	0.01095	0.01196	0.00214	0.00608	0.00857
119880	0.49199	0.45911	0.29574	2.71559	2.23531	1.80988	10.69580	6.43053	2.99911	0.98324	0.90804	0.74521	2.24210	1.71307	1.31736	10.71888	6.72321	3.49647
120050	0.49852	0.44527	0.29168	2.78039	2.28757	1.86096	10.67562	6.41853	2.98662	0.99410	0.89656	0.80648	2.23727	1.70743	1.29789	10.72900	6.70164	3.48205
120210	0.49349	0.43539	0.27024	2.74442	2.28959	1.81323	10.69032	6.44543	2.99941	0.97207	0.87836	0.76067	2.27135	1.73736	1.32771	10.68681	6.73409	3.48766
120370	0.51401	0.44543	0.29268	2.79123	2.28029	1.81733	10.65941	6.41542	2.98935	0.98374	0.90499	0.79815	2.25126	1.73657	1.31548	10.66821	6.70901	3.47376
120540	0.50824	0.45963	0.29098	2.71552	2.26038	1.79541	10.64675	6.42823	3.00114	0.98781	0.88877	0.77686	2.22374	1.70897	1.30412	10.65639	6.66192	3.43125
120700	0.49901	0.43505	0.25897	2.73039	2.24224	1.78272	10.64036	6.40324	2.96589	0.93286	0.87374	0.76384	2.23827	1.70355	1.32632	10.65031	6.65586	3.46157
120870	0.48700	0.43254	0.26125	2.70219	2.23312	1.77351	10.64455	6.39594	2.95699	0.94421	0.84089	0.72146	2.22713	1.69759	1.28808	10.65263	6.65930	3.41523
121030	0.48361	0.41938	0.25981	2.69983	2.23535	1.78074	10.63823	6.41193	2.96331	0.94537	0.85632	0.71817	2.24554	1.70036	1.29800	10.68127	6.64429	3.42662
121200	0.49812	0.43480	0.26948	2.70406	2.24922	1.78914	10.65521	6.40123	2.96398	0.93831	0.85928	0.77038	2.23941	1.71281	1.32701	10.65915	6.66543	3.47595
121360	0.49586	0.46029	0.28300	2.71390	2.25192	1.82233	10.65185	6.40413	2.97689	0.94596	0.85645	0.74735	2.22984	1.69707	1.29496	10.67805	6.67336	3.47682	25.81	5.9	0.00	7.24	0.01272	0.01289	0.01660	0.00771	0.00575	0.00630	0.00467	0.01264	0.01684	0.00672	0.00691	0.00886	0.01488	0.01095	0.01196	0.00214	0.00608	0.00857
121530	0.49586	0.44340	0.27644	2.74707	2.24957	1.83346	10.67212	6.42838	2.98201	0.97387	0.88236	0.73486	2.23650	1.70486	1.29927	10.61427	6.65210	3.42434
121690	0.48929	0.43179	0.26812	2.70759	2.24085	1.77328	10.64719	6.40133	2.96344	0.94227	0.85903	0.70588	2.22227	1.68866	1.28527	10.63927	6.65780	3.44125
121850	0.49021	0.42975	0.26097	2.71214	2.21879	1.79334	10.63448	6.39628	2.96586	0.94183	0.85096	0.75423	2.24025	1.69382	1.28946	10.63993	6.66632	3.44752
122020	0.48807	0.42238	0.26233	2.67638	2.19918	1.78167	10.66919	6.39997	2.97201	0.95508	0.86839	0.72395	2.22483	1.68681	1.28233	10.65593	6.66283	3.42823
122180	0.48075	0.42404	0.27640	2.73596	2.22855	1.82448	10.64293	6.41272	2.97686	0.96139	0.85300	0.74519	2.23701	1.70369	1.30922	10.68326	6.69045	3.46423
122350	0.48946	0.44299	0.30065	2.71932	2.24035	1.83422	10.67412	6.43762	2.99670	0.97910	0.87330	0.76710	2.23584	1.72176	1.33058	10.68259	6.73202	3.46652
122510	0.49265	0.42888	0.28023	2.73733	2.24242	1.82255	10.66005	6.43254	3.01272	0.98375	0.88543	0.81005	2.24474	1.72508	1.29976	10.71132	6.73266	3.48477
122670	0.49915	0.44195	0.28062	2.75511	2.24596	1.81299	10.66718	6.42715	2.98410	0.98158	0.85634	0.73127	2.23232	1.70867	1.29633	10.67849	6.68386	3.44115
122840	0.48660	0.42983	0.26665	2.71778	2.21549	1.80413	10.68575	6.42547	2.98606	0.95209	0.86632	0.72829	2.22682	1.69564	1.29358	10.65980	6.67123	3.44367
123000	0.50768	0.42964	0.25837	2.70203	2.22607	1.77778	10.68697	6.42658	2.97077	0.95001	0.84432	0.72984	2.24047	1.70208	1.28867	10.66984	6.65772	3.43801	25.75	6.1	0.00	7.26	0.01272	0.01289	0.01660	0.00770	0.00575	0.00630	0.00467	0.01264	0.01684	0.00672	0.00691	0.00886	0.01488	0.01095	0.01196	0.00214	0.00608	0.00857
123160	0.48318	0.42765	0.26743	2.69539	2.21270	1.77780	10.67768	6.42879	2.96675	0.93655	0.86837	0.75434	2.24567	1.72010	1.30634	10.66984	6.68672	3.44842
123330	0.49871	0.45320	0.28245	2.70974	2.22082	1.79155	10.69854	6.43889	2.98682	0.95058	0.84864	0.74614	2.24080	1.71764	1.32575	10.72223	6.70668	3.45170
123490	0.48836	0.44964	0.27005	2.74193	2.25281	1.81994	10.69051	6.44848	2.98229	0.98374	0.89458	0.74613	2.23656	1.70286	1.30519	10.69933	6.67252	3.47158
123660	0.50630	0.43469	0.27639	2.74046	2.23805	1.79386	10.69292	6.44913	2.98273	0.98390	0.88216	0.74618	2.25611	1.70926	1.30661	10.67272	6.69115	3.45343
123820	0.50816	0.43395	0.28182	2.74200	2.22715	1.77905	10.69600	6.44049	2.98157	0.94280	0.87671	0.72473	2.24469	1.71175	1.30497	10.65700	6.68621	3.45136
123990	0.48987	0.43087	0.27085	2.68663	2.22143	1.78929	10.70048	6.42314	2.97441	0.93319	0.84710	0.70434	2.24174	1.69474	1.30523	10.64606	6.63658	3.42492
124150	0.48574	0.42152	0.26338	2.69666	2.20940	1.76618	10.70356	6.41239	2.97590	0.93284	0.84005	0.72395	2.23079	1.70192	1.30065	10.68069	6.68384	3.44578
124310	0.48663	0.42030	0.26319	2.68432	2.21554	1.78926	10.68470	6.42858	2.97106	0.91935	0.87072	0.76335	2.24476	1.71663	1.30899	10.69212	6.69572	3.43979
124480	0.48857	0.43228	0.26513	2.70336	2.23758	1.80311	10.67695	6.41579	2.98833	0.92528	0.84200	0.70229	2.24103	1.70738	1.31287	10.67670	6.69203	3.43863
124640	0.48487	0.43016	0.26523	2.69429	2.21114	1.80155	10.65733	6.42504	2.97270	0.97918	0.85686	0.71611	2.23019	1.69900	1.30460	10.66002	6.67345	3.44758	25.81	6.2	0.00	7.42	0.01272	0.01289	0.01660	0.00770	0.00574	0.00630	0.00467	0.01264	0.01684	0.00672	0.00691	0.00886	0.01488	0.01095	0.01196	0.00214	0.00607	0.00857
124800	0.48686	0.42917	0.28373	2.70931	2.26396	1.81822	10.67647	6.44097	2.98979	0.96445	0.86751	0.74146	2.24983	1.72433	1.33433	10.68939	6.71738	3.46368
124970	0.48681	0.44040	0.27804	2.72997	2.26543	1.83014	10.65913	6.43122	2.98246	0.93092	0.85864	0.74643	2.23811	1.71271	1.31086	10.71672	6.70318	3.43001
125130	0.50112	0.44468	0.28696	2.70302	2.25367	1.80173	10.66186	6.42799	2.98742	0.98585	0.85823	0.74562	2.24405	1.70031	1.31507	10.66855	6.71203	3.45105
125300	0.48759	0.43447	0.26920	2.70270	2.22217	1.82241	10.66880	6.41235	2.97304	0.95092	0.88376	0.73550	2.23479	1.70438	1.32835	10.66157	6.73297	3.44326
125460	0.49331	0.45283	0.27668	2.72027	2.22933	1.79814	10.69305	6.42504	2.98452	0.94348	0.88288	0.70561	2.22601	1.69263	1.29049	10.66434	6.65366	3.44144
125620	0.49693	0.42937	0.25652	2.70551	2.23772	1.78039	10.66680	6.42314	2.98617	0.95503	0.83338	0.71896	2.25732	1.69970	1.30170	10.64830	6.66013	3.44369
125790	0.47466	0.42836	0.28141	2.70444	2.20737	1.79581	10.64960	6.42510	2.97893	0.90915	0.85019	0.72674	2.23221	1.68554	1.28798	10.65980	6.65525	3.43315
125950	0.48489	0.41927	0.26129	2.70522	2.24029	1.82813	10.68690	6.43176	2.97422	0.94154	0.84427	0.70596	2.24588	1.70504	1.29313	10.63869	6.67067	3.45393
126110	0.48266	0.42554	0.26898	2.68062	2.20162	1.78130	10.68155	6.41430	2.96916	0.93026	0.83260	0.72223	2.23400	1.71338	1.29453	10.63924	6.66358	3.41704
126280	0.49706	0.43620	0.28838	2.71449	2.25917	1.82005	10.68342	6.44844	3.00657	0.98808	0.92130	0.83798	2.30280	1.75486	1.34081	10.78053	6.78054	3.52392	25.81	6.2	0.00	6.39	0.01271	0.01288	0.01660	0.00770	0.00574	0.00630	0.00467	0.01264	0.01684	0.00672	0.00691	0.00886	0.01488	0.01095	0.01196	0.00213	0.00607	0.00857
126440	0.52753	0.48825	0.30827	2.82149	2.29542	1.86041	10.72319	6.44890	3.00238	1.01042	0.94087	0.80772	2.27826	1.74161	1.31715	10.73883	6.76015	3.50631
126610	0.53728	0.49160	0.31453	2.76945	2.27292	1.84110	10.71923	6.47518	3.01438	1.01308	0.91260	0.79450	2.27388	1.70461	1.31200	10.70031	6.70960	3.47969
126770	0.52211	0.44333	0.29263	2.72284	2.25872	1.84307	10.68756	6.44726	2.98725	0.96492	0.87387	0.74581	2.26377	1.71533	1.31204	10.69953	6.70065	3.44380
126930	0.49133	0.42703	0.28048	2.73900	2.24765	1.81368	10.71669	6.44716	2.97715	0.93776	0.86747	0.73708	2.25942	1.72000	1.31942	10.68454	6.69175	3.45272
127100	0.49010	0.45419	0.27526	2.72336	2.23336	1.81479	10.72205	6.44370	2.98747	0.97196	0.88759	0.73779	2.25525	1.72328	1.31550	10.71365	6.71787	3.45720
127260	0.49787	0.44092	0.26536	2.72242	2.22635	1.81720	10.69097	6.44107	2.98399	0.96173	0.85499	0.75510	2.24856	1.71604	1.31774	10.68731	6.72601	3.45876
127430	0.50347	0.43950	0.27546	2.73518	2.24715	1.81901	10.71588	6.44496	2.98232	0.96618	0.85574	0.75290	2.23657	1.70703	1.30939	10.69520	6.69652	3.49137
127590	0.49473	0.43147	0.27639	2.72386	2.22448	1.82099	10.75154	6.45224	2.99766	0.95683	0.89201	0.75108	2.24241	1.71975	1.31459	10.71710	6.69137	3.46061
127760	0.48664	0.42816	0.27650	2.70514	2.23559	1.83075	10.74146	6.45341	3.00611	0.99229	0.85227	0.75022	2.25905	1.71563	1.32332	10.73727	6.72123	3.50625
127920	0.49121	0.43553	0.28316	2.73259	2.26754	1.84612	10.69430	6.46260	3.00724	0.96799	0.86013	0.74762	2.24395	1.71537	1.31668	10.72321	6.74033	3.47327	25.81	6.2	0.00	7.35	0.01271	0.01288	0.01660	0.00770	0.00574	0.00630	0.00467	0.01264	0.01683	0.00672	0.00691	0.00886	0.01488	0.01094	0.01196	0.00213	0.00607	0.00856
128080	0.49454	0.43006	0.28793	2.75412	2.24901	1.80489	10.72902	6.45127	2.98915	0.93952	0.89307	0.75580	2.24702	1.70287	1.30970	10.71463	6.70896	3.45228
128250	0.48866	0.43755	0.27686	2.70271	2.21886	1.79608	10.69029	6.43255	2.98644	0.93303	0.83968	0.73558	2.24916	1.69960	1.30196	10.67607	6.69152	3.45109
128410	0.49258	0.42322	0.27191	2.71872	2.24359	1.80180	10.70802	6.44170	2.98710	0.96044	0.88023	0.72636	2.24772	1.70861	1.30613	10.69227	6.70561	3.44770
128570	0.49226	0.42925	0.26396	2.70142	2.22009	1.80264	10.70026	6.43058	2.98854	0.97326	0.89861	0.74203	2.24896	1.72051	1.30474	10.68295	6.69299	3.43829
128740	0.49723	0.43785	0.27665	2.75150	2.22760	1.79235	10.69798	6.43107	3.00197	0.96096	0.86531	0.72827	2.25108	1.69760	1.31177	10.68739	6.70589	3.46385
128900	0.48381	0.42435	0.26236	2.71171	2.22802	1.77804	10.71359	6.43534	2.97521	0.94921	0.87772	0.72279	2.24119	1.70350	1.29848	10.69550	6.69549	3.46957
129070	0.48389	0.42679	0.26479	2.69914	2.21551	1.79598	10.70173	6.43810	2.98467	0.93463	0.86734	0.72546	2.23566	1.69800	1.30743	10.67773	6.67847	3.43405
129230	0.48301	0.42944	0.26854	2.72287	2.20903	1.80266	10.73916	6.45170	2.99395	0.96370	0.85799	0.72639	2.24064	1.70486	1.30409	10.66719	6.66805	3.44392
129400	0.48340	0.41838	0.26300	2.69990	2.21167	1.78611	10.70046	6.42558	2.97567	0.94155	0.85098	0.70453	2.23832	1.70748	1.30638	10.66398	6.68985	3.44523
129560	0.48338	0.41984	0.26260	2.74314	2.22879	1.78933	10.70339	6.42144	2.98842	0.96931	0.85658	0.71782	2.24590	1.70193	1.30748	10.69237	6.68113	3.43773	25.81	6.1	0.00	7.42	0.01271	0.01288	0.01660	0.00770	0.00574	0.00630	0.00467	0.01264	0.01683	0.00672	0.00691	0.00885	0.01488	0.01094	0.01196	0.00214	0.00607	0.00856
129720	0.49093	0.43922	0.28053	2.74572	2.26242	1.78941	10.68306	6.43435	2.98156	0.92684	0.84183	0.73199	2.23560	1.69831	1.30696	10.68249	6.69000	3.45326
129890	0.48592	0.43361	0.27102	2.70364	2.23960	1.81106	10.69697	6.42808	2.97766	0.95301	0.86240	0.73665	2.23329	1.69397	1.30240	10.71493	6.73629	3.47661
130050	0.49281	0.42968	0.26100	2.75211	2.27471	1.82336	10.70252	6.43304	2.97703	0.96665	0.84424	0.72759	2.24673	1.71223	1.31304	10.66409	6.68003	3.46384
130210	0.49102	0.42608	0.27151	2.72183	2.23557	1.79380	10.68219	6.44152	2.98194	0.92471	0.84894	0.71861	2.24183	1.69450	1.30285	10.66985	6.68404	3.46887
130380	0.48529	0.42171	0.26082	2.72130	2.22471	1.80547	10.67824	6.42262	2.97909	0.92101	0.82612	0.71025	2.23689	1.69530	1.28953	10.65800	6.67740	3.42767
130540	0.48024	0.41939	0.25628	2.68599	2.21675	1.77010	10.66263	6.43956	2.98595	0.92331	0.82901	0.74109	2.24413	1.70735	1.31257	10.73532	6.72376	3.51245
130710	0.49826	0.43599	0.28244	2.76186	2.25169	1.82870	10.70688	6.43997	2.99110	0.94828	0.89986	0.75539	2.24520	1.71352	1.30521	10.68182	6.71420	3.46179
130870	0.51107	0.44386	0.28536	2.73090	2.25341	1.79300	10.73082	6.43709	2.98722	0.95335	0.86291	0.73397	2.26671	1.74236	1.32904	10.70359	6.69631	3.43952
131040	0.49257	0.44694	0.26336	2.71655	2.23307	1.80164	10.69081	6.43778	2.97889	0.92407	0.86086	0.72611	2.24061	1.70116	1.29790	10.67705	6.66688	3.43691
131200	0.48688	0.42603	0.26484	2.70163	2.20212	1.77620	10.69605	6.41905	2.97092	0.95295	0.86234	0.71333	2.22151	1.70247	1.29514	10.66862	6.69172	3.45392	25.81	6.2	0.00	7.38	0.01271	0.01288	0.01660	0.00770	0.00574	0.00630	0.00467	0.01264	0.01683	0.00672	0.00691	0.00885	0.01488	0.01094	0.01196	0.00213	0.00607	0.00856
131360	0.48700	0.42113	0.25641	2.69733	2.21738	1.79276	10.69397	6.41516	2.96515	0.93691	0.83052	0.71741	2.23022	1.70098	1.29977	10.66962	6.67727	3.42411
131530	0.48778	0.42486	0.26104	2.69426	2.23713	1.77636	10.68976	6.42642	2.99903	0.94034	0.85991	0.71337	2.25180	1.70948	1.30834	10.70158	6.69760	3.48875
131690	0.48841	0.43137	0.27047	2.72446	2.22715	1.80915	10.67379	6.44018	2.98766	0.92068	0.86460	0.75360	2.24068	1.71636	1.31880	10.68514	6.69762	3.43268
131850	0.50227	0.43802	0.27115	2.72989	2.26013	1.80581	10.70616	6.45264	2.98508	0.94809	0.86145	0.72559	2.23675	1.70537	1.31256	10.68492	6.71068	3.47055
132020	0.49920	0.44617	0.27692	2.72628	2.24836	1.81910	10.70401	6.43462	3.00601	0.99060	0.89721	0.76219	2.25598	1.71887	1.32438	10.80089	6.73573	3.51898
132180	0.50240	0.44175	0.27227	2.83016	2.31774	1.84218	10.71829	6.45276	2.99057	0.99838	0.89812	0.77335	2.25304	1.72180	1.33132	10.72495	6.69618	3.49607
132350	0.49824	0.44748	0.28089	2.73950	2.26556	1.83862	10.70576	6.44213	2.98716	0.97278	0.86348	0.72552	2.23782	1.70134	1.29545	10.70069	6.70152	3.44108
132510	0.48519	0.42456	0.26610	2.71538	2.21470	1.80215	10.69632	6.44110	2.98058	0.92684	0.85411	0.72047	2.23864	1.70314	1.29772	10.69636	6.68453	3.44726
132670	0.49107	0.42631	0.26607	2.69385	2.20685	1.77640	10.69899	6.44624	2.97931	0.93454	0.83511	0.71531	2.24490	1.70188	1.29417	10.67638	6.68250	3.43681
132840	0.47540	0.43099	0.26798	2.72857	2.23159	1.79901	10.71302	6.44992	3.00504	0.98181	0.91063	0.75818	2.26720	1.72197	1.34209	10.75419	6.73235	3.51691	25.81	6.3	0.00	7.40	0.01271	0.01288	0.01660	0.00770	0.00574	0.00630	0.00467	0.01264	0.01683	0.00672	0.00691	0.00885	0.01488	0.01094	0.01196	0.00213	0.00607	0.00856
133000	0.53564	0.45753	0.33129	2.78077	2.36583	1.90683	10.76766	6.51472	3.07024	1.04885	1.03775	0.86262	2.36622	1.84148	1.43375	10.98026	7.00022	3.73301
133170	0.60888	0.66099	0.40832	2.99568	2.58261	2.10851	10.87594	6.61244	3.18924	1.27663	1.19502	1.19739	2.38829	1.87478	1.47053	10.88826	7.01032	3.78390
133330	0.61627	0.59245	0.46511	3.01006	2.58383	2.05274	10.89135	6.57172	3.05128	1.24607	1.08048	1.00712	2.31411	1.78698	1.39289	10.98026	6.95895	3.70810
133490	0.54998	0.51100	0.34229	2.92810	2.45470	1.97404	10.75136	6.49042	3.05286	1.07845	0.99795	0.83341	2.29844	1.74095	1.34123	10.80183	6.80128	3.53147
133660	0.53895	0.46484	0.29356	2.80673	2.28719	1.88023	10.73798	6.47730	3.01354	0.99706	0.92143	0.77546	2.28320	1.75716	1.37453	10.71713	6.73864	3.50182
133820	0.52625	0.45208	0.28436	2.74373	2.29028	1.80861	10.73153	6.45789	3.00492	0.97094	0.90933	0.77307	2.25385	1.72061	1.30572	10.68399	6.73056	3.48835
133990	0.49463	0.45428	0.29285	2.72927	2.26479	1.82152	10.72831	6.45057	3.02919	0.98643	0.87549	0.75086	2.26403	1.71741	1.30747	10.71791	6.74099	3.46068
134150	0.50229	0.45981	0.29069	2.75291	2.24339	1.81445	10.74746	6.45844	3.00934	1.01040	0.90806	0.81034	2.26000	1.71321	1.32749	10.76650	6.71805	3.51155
134310	0.52175	0.45852	0.29648	2.76118	2.27707	1.81995	10.74033	6.45990	3.00673	0.99987	0.89438	0.75944	2.25163	1.71233	1.30675	10.71791	6.71725	3.49158
134480	0.49747	0.45107	0.27158	2.77070	2.22988	1.81443	10.70039	6.43625	2.98836	0.97008	0.91801	0.75650	2.24376	1.70349	1.31183	10.71742	6.75010	3.48434	25.81	6.1	0.00	7.27	0.01271	0.01288	0.01660	0.00770	0.00574	0.00630	0.00467	0.01264	0.01683	0.00672	0.00691	0.00885	0.01488	0.01094	0.01196	0.00213	0.00607	0.00856
134640	0.49410	0.44206	0.28441	2.72249	2.27842	1.80690	10.72566	6.45304	3.00921	0.97303	0.87795	0.73076	2.24466	1.71856	1.31191	10.69017	6.69032	3.48431
134800	0.49724	0.43492	0.28485	2.72861	2.27881	1.81844	10.70769	6.44635	2.99970	0.96255	0.87557	0.76156	2.24270	1.70989	1.30786	10.70907	6.73022	3.45489
134970	0.49029	0.45135	0.27620	2.73937	2.24687	1.80001	10.71145	6.46104	3.00625	0.94911	0.86050	0.70619	2.23781	1.69662	1.29831	10.69795	6.68355	3.45260
135130	0.48495	0.42531	0.27799	2.72278	2.22656	1.79934	10.71198	6.44004	2.98427	0.94848	0.88810	0.77011	2.25035	1.70152	1.31656	10.70184	6.71297	3.48349
135300	0.47829	0.43382	0.27944	2.73639	2.28977	1.81739	10.72318	6.45506	3.01234	0.97789	0.87018	0.73273	2.27272	1.73230	1.32312	10.72032	6.69643	3.48772
135460	0.50674	0.44534	0.27993	2.73204	2.24338	1.81393	10.71835	6.45910	3.00669	0.97564	0.91095	0.75463	2.27381	1.72393	1.32191	10.73760	6.72365	3.48394
135620	0.51254	0.44548	0.27537	2.77189	2.26496	1.81622	10.71460	6.47098	3.02426	1.03286	0.94287	0.79511	2.27518	1.72942	1.33409	10.75748	6.71499	3.48089
135790	0.51132	0.45671	0.29849	2.74793	2.27998	1.84541	10.73097	6.45024	3.00395	0.98042	0.88745	0.78906	2.25297	1.74382	1.33102	10.78963	6.77926	3.52203
135950	0.52478	0.46642	0.30663	2.80347	2.32509	1.82170	10.72426	6.46849	2.99704	1.00241	0.89302	0.78909	2.25396	1.72777	1.30834	10.71920	6.72939	3.46342
136120	0.50600	0.44481	0.28147	2.76542	2.25574	1.84126	10.70272	6.45405	3.00882	0.95720	0.88946	0.73218	2.24723	1.70852	1.30887	10.73815	6.74379	3.47815	25.75	6.1	0.00	7.30	0.01271	0.01288	0.01660	0.00770	0.00574	0.00630	0.00467	0.01264	0.01683	0.00672	0.00691	0.00885	0.01488	0.01094	0.01195	0.00213	0.00607	0.00856
136280	0.49603	0.43122	0.27981	2.71249	2.25209	1.82087	10.72451	6.47690	2.99752	0.93885	0.86784	0.74617	2.25348	1.69841	1.30490	10.72155	6.70870	3.44478
136440	0.49737	0.44146	0.27538	2.72244	2.24774	1.83050	10.72189	6.44870	3.00007	0.97604	0.89197	0.78581	2.25343	1.70554	1.33277	10.78400	6.73276	3.52112
136610	0.51155	0.45172	0.31597	2.74717	2.26571	1.85329	10.74554	6.47968	3.02680	0.98636	0.86440	0.74592	2.25285	1.71255	1.31631	10.74418	6.78475	3.48398
136770	0.49068	0.44909	0.29164	2.75523	2.30018	1.83983	10.72068	6.46183	3.00523	0.96627	0.87712	0.76766	2.24767	1.72833	1.31753	10.71798	6.75735	3.46793
136930	0.48215	0.44885	0.28652	2.72890	2.22177	1.78914	10.69823	6.43892	2.98830	0.96855	0.85538	0.74925	2.26246	1.71299	1.31032	10.70819	6.74778	3.50048
137100	0.50466	0.45908	0.28999	2.75692	2.30485	1.85518	10.72102	6.49014	3.02675	1.04899	0.96096	0.82983	2.29111	1.77062	1.33967	10.74641	6.80445	3.56213
137260	0.51894	0.47909	0.29888	2.81683	2.37052	1.92742	10.78010	6.48554	3.04311	1.04446	0.96376	0.84858	2.28782	1.77456	1.37846	10.80284	6.80790	3.57649
137430	0.54022	0.49997	0.32229	2.83202	2.33174	1.87428	10.74789	6.47772	3.02116	0.98382	0.93787	0.83837	2.24920	1.71700	1.32200	10.82949	6.76142	3.53152
137590	0.52067	0.45564	0.28873	2.80614	2.30054	1.83042	10.72384	6.46216	3.02480	0.96635	0.87310	0.74903	2.28063	1.72195	1.31562	10.72946	6.72469	3.44977
137760	0.49169	0.42520	0.27379	2.71669	2.25698	1.83721	10.73740	6.45077	3.00390	0.96665	0.89505	0.74104	2.25227	1.72205	1.30694	10.74688	6.74053	3.50570	25.87	5.9	0.00	7.28	0.01271	0.01288	0.01660	0.00770	0.00574	0.00630	0.00467	0.01264	0.01683	0.00672	0.00691	0.00885	0.01488	0.01095	0.01195	0.00214	0.00607	0.00856
137920	0.49988	0.44682	0.27508	2.75973	2.26772	1.82596	10.72041	6.46675	3.00149	0.96905	0.89794	0.72548	2.25518	1.72689	1.31714	10.74922	6.75493	3.48339
138080	0.49055	0.42951	0.27453	2.73286	2.22698	1.81095	10.74688	6.45307	2.99257	0.93327	0.86657	0.72551	2.24276	1.70318	1.30064	10.73628	6.71834	3.46134
138250	0.49042	0.42864	0.26729	2.73987	2.28225	1.79730	10.74661	6.45760	2.98601	0.94217	0.85524	0.72119	2.24263	1.70587	1.29562	10.70056	6.67852	3.43498
138410	0.48079	0.42308	0.26359	2.71739	2.20977	1.77672	10.68599	6.44390	2.98432	0.94537	0.85941	0.72319	2.24929	1.70415	1.30086	10.71679	6.69831	3.45596
138570	0.48132	0.42497	0.25476	2.70962	2.21184	1.76903	10.71820	6.44687	2.97995	0.91602	0.81065	0.70845	2.22802	1.69628	1.29422	10.68801	6.69333	3.42730
138740	0.47960	0.42749	0.26552	2.68847	2.21147	1.78503	10.72665	6.44604	2.99291	0.90961	0.82310	0.69259	2.24858	1.72166	1.30148	10.71712	6.69630	3.44598
138900	0.47964	0.42730	0.25801	2.71519	2.19930	1.78473	10.73827	6.45173	2.98525	0.94535	0.84391	0.71366	2.23980	1.70129	1.31056	10.72959	6.72425	3.46553
139060	0.48735	0.42979	0.26727	2.72669	2.24264	1.79734	10.74036	6.46089	2.99057	0.96437	0.84207	0.72546	2.25100	1.71220	1.30665	10.72636	6.73602	3.47740
139230	0.49673	0.42620	0.25854	2.73265	2.24730	1.81211	10.71578	6.45499	2.98709	0.93618	0.83145	0.71033	2.24091	1.71268	1.30064	10.73227	6.71291	3.47440
139390	0.48697	0.42753	0.27515	2.74167	2.26829	1.81603	10.73861	6.47384	3.02079	0.97043	0.88821	0.77614	2.25865	1.72651	1.30953	10.78269	6.80446	3.52835	25.81	6.2	0.00	7.30	0.01271	0.01288	0.01660	0.00770	0.00574	0.00630	0.00467	0.01264	0.01683	0.00672	0.00691	0.00885	0.01488	0.01094	0.01195	0.00214	0.00607	0.00856
139550	0.52988	0.46253	0.32046	2.82216	2.36522	1.93260	10.74439	6.50372	3.06048	1.06744	0.94403	0.82474	2.29418	1.81374	1.36269	10.86610	6.90780	3.59862
139720	0.56896	0.50427	0.34157	2.84724	2.34171	1.92324	10.79698	6.52204	3.05086	1.09564	0.97191	0.85330	2.28611	1.79668	1.39800	10.84986	6.76305	3.54087
139880	0.56049	0.47756	0.32268	2.81382	2.30431	1.83746	10.81431	6.52400	3.06951	1.02925	0.94281	0.81271	2.28529	1.74681	1.34463	10.76222	6.77126	3.51963
140050	0.53820	0.46709	0.31483	2.78024	2.27291	1.84931	10.75792	6.46666	3.00452	0.97383	0.90911	0.75801	2.27599	1.71119	1.31662	10.74960	6.70920	3.48586
140210	0.49624	0.43695	0.26999	2.72415	2.22750	1.83441	10.73599	6.46023	3.00185	0.93420	0.86059	0.73331	2.25350	1.71708	1.31656	10.74871	6.75319	3.49765
140380	0.48832	0.44699	0.27792	2.78213	2.27394	1.84637	10.75825	6.49183	3.01099	1.01964	0.90649	0.76096	2.26598	1.73223	1.34392	10.80824	6.75781	3.51082
140540	0.51092	0.46318	0.29453	2.77376	2.28073	1.84082	10.75859	6.47653	2.99855	1.00541	0.89015	0.73954	2.26034	1.72183	1.31333	10.76893	6.73451	3.48362
140700	0.49308	0.43978	0.27913	2.72819	2.24855	1.81169	10.74170	6.47430	3.00133	0.93820	0.86784	0.73373	2.25485	1.72549	1.32112	10.82307	6.70340	3.46305
140870	0.49651	0.43209	0.27760	2.73148	2.26340	1.83936	10.73055	6.45544	3.02551	0.93678	0.83934	0.72439	2.25552	1.71279	1.29961	10.72765	6.71610	3.46026
141030	0.48930	0.43985	0.27815	2.72398	2.23232	1.82244	10.75312	6.47621	3.01438	0.95351	0.86913	0.72493	2.24310	1.70656	1.32056	10.77826	6.74142	3.47991	25.75	6.2	0.00	7.29	0.01271	0.01288	0.01660	0.00770	0.00574	0.00630	0.00467	0.01264	0.01683	0.00672	0.00690	0.00885	0.01488	0.01094	0.01195	0.00214	0.00607	0.00856
141200	0.49950	0.44261	0.26740	2.72517	2.23844	1.84469	10.76006	6.47636	3.01756	1.00044	0.89499	0.76803	2.25751	1.71543	1.31427	10.78744	6.78816	3.51717
141360	0.50950	0.45618	0.28169	2.74472	2.26836	1.80735	10.77954	6.49799	3.02110	0.95341	0.85865	0.74071	2.25379	1.72148	1.31280	10.76674	6.73942	3.47844
141530	0.48324	0.42885	0.27409	2.70036	2.26978	1.84594	10.76086	6.47128	3.00239	0.97274	0.86684	0.73878	2.26150	1.72275	1.32525	10.76227	6.74997	3.50348
141690	0.50375	0.43350	0.26833	2.73864	2.28035	1.83231	10.77387	6.48250	3.00956	0.96457	0.85419	0.71230	2.26261	1.71341	1.30003	10.76965	6.73753	3.47471
141850	0.48588	0.43394	0.26192	2.71266	2.21286	1.78780	10.74572	6.46238	2.99235	0.93642	0.83061	0.73140	2.24653	1.70778	1.32513	10.76685	6.71722	3.46188
142020	0.47627	0.42855	0.26570	2.71583	2.24402	1.79060	10.83714	6.54285	2.99399	0.93094	0.83371	0.69680	2.25962	1.71858	1.30262	10.75903	6.71883	3.46020
142180	0.48625	0.43537	0.26583	2.71170	2.23105	1.78598	10.75312	6.47713	3.01050	0.97270	0.87852	0.71181	2.25389	1.71562	1.30484	10.77076	6.71689	3.46187
142340	0.50038	0.43599	0.27742	2.71488	2.22439	1.78990	10.77529	6.49088	3.00536	0.94890	0.84375	0.77759	2.26543	1.71673	1.31053	10.83684	6.76811	3.51397
142510	0.50008	0.44798	0.28188	2.79840	2.29600	1.81816	10.78967	6.50011	3.02111	0.98507	0.93184	0.77664	2.26842	1.74005	1.31336	10.77882	6.73005	3.51322
142670	0.49780	0.45991	0.29718	2.77656	2.29817	1.85426	10.79128	6.51894	3.04216	0.99997	0.90210	0.78250	2.27621	1.73432	1.33532	10.78136	6.77601	3.52360	25.81	6.3	0.00	7.26	0.01271	0.01288	0.01660	0.00770	0.00574	0.00630	0.00467	0.01264	0.01683	0.00672	0.00690	0.00885	0.01488	0.01094	0.01195	0.00214	0.00607	0.00856
142830	0.52664	0.46193	0.28823	2.74895	2.25234	1.81858	10.79608	6.51695	3.01087	0.96847	0.88032	0.73328	2.27313	1.72864	1.31697	10.78707	6.75832	3.46076
143000	0.50276	0.44030	0.27940	2.73592	2.27716	1.83595	10.78128	6.47980	3.01179	0.98423	0.90543	0.78958	2.27118	1.74296	1.32874	10.80243	6.77297	3.51539
143160	0.50226	0.44567	0.28571	2.74058	2.24376	1.79231	10.77723	6.51411	3.02081	0.97944	0.87162	0.73957	2.25838	1.72024	1.33146	10.83863	6.74976	3.48439
143330	0.49323	0.44816	0.27734	2.72233	2.25264	1.83410	10.81834	6.49391	3.02548	0.95232	0.86052	0.76856	2.28322	1.73390	1.35789	10.79234	6.74859	3.47755
143490	0.51230	0.44489	0.28060	2.75376	2.24499	1.81600	10.79384	6.49809	3.02733	0.97133	0.84961	0.77388	2.27906	1.73755	1.32200	10.78483	6.74530	3.48921
143650	0.51062	0.45014	0.28617	2.78381	2.28585	1.82497	10.79040	6.49763	3.00006	0.96484	0.87090	0.77588	2.25570	1.71495	1.31596	10.76670	6.74247	3.49377
143820	0.49019	0.45269	0.28722	2.77861	2.30638	1.82867	10.78972	6.50140	3.01044	0.98147	0.91634	0.75576	2.27322	1.72320	1.30600	10.82422	6.74369	3.46805
143980	0.49636	0.44266	0.28735	2.76446	2.28865	1.84317	10.78999	6.48467	3.00529	0.94842	0.85617	0.75948	2.26043	1.70784	1.30689	10.77386	6.73224	3.48695
144140	0.48658	0.43446	0.26172	2.74507	2.23605	1.79717	10.76941	6.48035	2.99996	0.93362	0.84125	0.70489	2.24907	1.70504	1.30594	10.75105	6.73703	3.49230
144310	0.50147	0.43493	0.28188	2.73411	2.24747	1.81072	10.77584	6.47049	2.99803	0.98096	0.86501	0.73178	2.25639	1.71437	1.30517	10.79922	6.75523	3.47243	25.87	6.0	0.00	7.27	0.01271	0.01288	0.01660	0.00770	0.00574	0.00630	0.00467	0.01263	0.01683	0.00672	0.00690	0.00885	0.01488	0.01094	0.01195	0.00214	0.00607	0.00856
144470	0.49515	0.43066	0.27580	2.72598	2.24600	1.82461	10.78144	6.47102	3.00462	0.95461	0.88606	0.74536	2.26973	1.71111	1.31355	10.79182	6.73568	3.46067
144630	0.49419	0.44282	0.27630	2.71373	2.21718	1.82172	10.76747	6.48625	2.99952	0.95789	0.85837	0.72180	2.25315	1.70424	1.30005	10.78096	6.74517	3.48158
144800	0.48079	0.43398	0.26692	2.71721	2.22899	1.81609	10.76741	6.47960	3.00895	0.95822	0.83733	0.72451	2.25081	1.71503	1.30217	10.77134	6.71925	3.48483
144960	0.48632	0.43011	0.26245	2.71647	2.22259	1.79757	10.78299	6.46955	2.99513	0.91936	0.85139	0.70808	2.24737	1.71620	1.30873	10.78141	6.71251	3.45965
145120	0.47915	0.42647	0.26153	2.71395	2.22444	1.78797	10.76586	6.48342	3.00486	0.96226	0.87843	0.71700	2.25250	1.71367	1.32022	10.76776	6.74392	3.45890
145290	0.48866	0.43627	0.27654	2.74249	2.25375	1.80549	10.78698	6.48730	2.99538	0.96455	0.86410	0.73651	2.26420	1.71170	1.31474	10.77861	6.74631	3.47642
145450	0.49188	0.43538	0.27919	2.70989	2.22655	1.80815	10.77651	6.48354	3.01357	0.95298	0.86168	0.75791	2.25942	1.71930	1.31816	10.77928	6.74335	3.47905
145610	0.50765	0.45059	0.27933	2.73422	2.24715	1.81387	10.79056	6.51028	3.02212	0.97805	0.87691	0.76597	2.27747	1.72633	1.32759	10.80371	6.75318	3.51882
145780	0.49828	0.43851	0.27655	2.75171	2.28709	1.82733	10.79934	6.48513	3.00151	0.98535	0.85384	0.73509	2.25849	1.72642	1.31256	10.82606	6.76343	3.51592
145940	0.49928	0.43497	0.28175	2.75407	2.28316	1.82495	10.80197	6.47498	3.00860	0.97842	0.85415	0.74810	2.26993	1.72152	1.32135	10.79215	6.74169	3.47766	25.81	6.1	0.00	7.30	0.01271	0.01288	0.01660	0.00770	0.00574	0.00630	0.00467	0.01263	0.01683	0.00672	0.00690	0.00885	0.01488	0.01094	0.01195	0.00214	0.00607	0.00856
146100	0.50352	0.44644	0.27773	2.73292	2.25402	1.80742	10.78250	6.48606	3.00403	0.97745	0.83116	0.74267	2.26204	1.71702	1.31095	10.78184	6.74047	3.47429
146270	0.47538	0.43470	0.26121	2.72185	2.23843	1.78388	10.78379	6.49264	3.00894	0.92277	0.82873	0.74919	2.24709	1.70536	1.30845	10.79103	6.76252	3.46265
146430	0.49754	0.42255	0.26823	2.70747	2.23836	1.77118	10.78716	6.48792	3.01752	0.92419	0.83466	0.70602	2.24981	1.71107	1.31669	10.76619	6.74724	3.46383
