WetView ver 7.1	07-18-2018	19:21:15
AC9 Absorption and Attenuation Meter
00000266		; Serial number
2	; structure version number
Reserved
0.000000	0.000000		; Depth calibration
19200			; Baud rate
0.100000			; Path length (meters)
31			; number of temperature calibration bins
				12.59339	13.44920	14.48425	15.49668	16.50852	17.49564	18.50545	19.52458	20.50176	21.48889	22.47318	23.48707	24.50962	25.49370	26.49784	27.51372	28.50746	29.47237	30.47938	31.50214	32.50470	33.49235	34.50337	35.50914	36.50618	37.52058	38.51018	39.51308	40.49994	41.49866	42.47204	; temperature bins
a650	Blue	20.34952		-0.00383	-0.00415	-0.00430	-0.00391	-0.00363	-0.00317	-0.00269	-0.00237	-0.00179	-0.00130	-0.00099	-0.00071	-0.00015	0.00000	0.00004	-0.00001	0.00015	0.00036	0.00058	0.00101	0.00161	0.00132	0.00160	0.00169	0.00242	0.00273	0.00336	0.00365	0.00427	0.00566	0.00670		; offset and temperature correction info
a676	Green	20.51193		-0.00398	-0.00384	-0.00360	-0.00306	-0.00302	-0.00255	-0.00235	-0.00212	-0.00163	-0.00136	-0.00118	-0.00089	-0.00029	0.00000	0.00068	0.00082	0.00099	0.00137	0.00145	0.00212	0.00260	0.00252	0.00321	0.00354	0.00457	0.00535	0.00617	0.00648	0.00742	0.00887	0.01002		; offset and temperature correction info
a715	Brown	20.23230		-0.00421	-0.00394	-0.00391	-0.00291	-0.00264	-0.00192	-0.00204	-0.00179	-0.00188	-0.00239	-0.00180	-0.00187	-0.00099	0.00000	0.00084	0.00162	0.00188	0.00224	0.00321	0.00381	0.00466	0.00528	0.00588	0.00696	0.00859	0.01041	0.01148	0.01282	0.01333	0.01456	0.01617		; offset and temperature correction info
c510	Red	20.40042		-0.00261	-0.00247	-0.00258	-0.00225	-0.00203	-0.00197	-0.00199	-0.00203	-0.00154	-0.00103	-0.00069	-0.00019	-0.00007	0.00000	0.00011	-0.00021	-0.00042	-0.00056	-0.00040	0.00011	0.00036	0.00050	0.00077	0.00079	0.00050	0.00042	0.00043	0.00092	0.00147	0.00200	0.00232		; offset and temperature correction info
c532	Magenta	20.40760		-0.00248	-0.00265	-0.00278	-0.00279	-0.00296	-0.00292	-0.00238	-0.00206	-0.00129	-0.00096	-0.00092	-0.00052	-0.00009	0.00000	0.00007	-0.00049	-0.00136	-0.00107	-0.00079	-0.00065	-0.00074	-0.00105	-0.00152	-0.00192	-0.00236	-0.00269	-0.00252	-0.00233	-0.00172	-0.00128	-0.00067		; offset and temperature correction info
c555	Black	20.50654		-0.00053	-0.00063	-0.00106	-0.00094	-0.00068	-0.00055	-0.00053	-0.00039	-0.00028	-0.00025	-0.00011	-0.00035	-0.00007	0.00000	-0.00037	-0.00055	-0.00036	-0.00014	0.00019	0.00044	0.00032	0.00040	0.00050	0.00028	0.00014	0.00013	0.00030	0.00073	0.00117	0.00176	0.00241		; offset and temperature correction info
a412	LtBlue	17.15231		-0.01972	-0.01823	-0.01612	-0.01381	-0.01272	-0.01080	-0.00959	-0.00866	-0.00710	-0.00532	-0.00354	-0.00148	-0.00028	0.00000	0.00176	0.00297	0.00394	0.00440	0.00453	0.00487	0.00804	0.00856	0.01065	0.01248	0.01388	0.01439	0.01659	0.01881	0.02256	0.02450	0.02719		; offset and temperature correction info
a440	LtGreen	18.00171		-0.00729	-0.00642	-0.00581	-0.00502	-0.00426	-0.00349	-0.00244	-0.00218	-0.00179	-0.00101	-0.00046	-0.00006	0.00036	0.00000	0.00040	0.00045	0.00030	-0.00015	-0.00024	-0.00035	0.00012	-0.00013	-0.00033	-0.00089	-0.00142	-0.00189	-0.00231	-0.00205	-0.00140	-0.00140	-0.00146		; offset and temperature correction info
a488	Yellow	18.86491		-0.00113	-0.00102	-0.00106	-0.00064	-0.00027	-0.00020	-0.00030	-0.00037	-0.00047	-0.00059	-0.00052	-0.00012	0.00008	0.00000	0.00025	0.00012	-0.00013	-0.00043	-0.00065	-0.00076	-0.00025	0.00010	0.00090	0.00111	0.00113	0.00104	0.00073	0.00068	0.00120	0.00186	0.00258		; offset and temperature correction info
c650	Blue	20.46075		-0.00145	-0.00097	-0.00092	-0.00139	-0.00185	-0.00196	-0.00237	-0.00266	-0.00238	-0.00163	-0.00083	-0.00041	-0.00010	0.00000	0.00005	-0.00001	0.00015	0.00034	0.00029	0.00065	0.00101	0.00164	0.00126	0.00156	0.00175	0.00270	0.00287	0.00371	0.00407	0.00473	0.00534		; offset and temperature correction info
c676	Green	20.10118		-0.00170	-0.00144	-0.00149	-0.00177	-0.00188	-0.00194	-0.00198	-0.00196	-0.00177	-0.00156	-0.00140	-0.00091	-0.00033	0.00000	0.00050	0.00092	0.00110	0.00141	0.00167	0.00199	0.00216	0.00265	0.00269	0.00289	0.00315	0.00374	0.00367	0.00408	0.00486	0.00561	0.00646		; offset and temperature correction info
c715	Brown	19.91219		-0.01201	-0.01097	-0.00859	-0.00680	-0.00651	-0.00592	-0.00535	-0.00440	-0.00387	-0.00303	-0.00222	-0.00153	-0.00028	0.00000	0.00093	0.00149	0.00247	0.00322	0.00330	0.00427	0.00373	0.00464	0.00536	0.00551	0.00643	0.00733	0.00779	0.00884	0.00899	0.01021	0.01120		; offset and temperature correction info
a510	Red	19.21192		0.00201	0.00193	0.00158	0.00098	0.00089	0.00049	0.00011	-0.00016	-0.00016	-0.00005	0.00028	0.00025	0.00006	0.00000	0.00035	-0.00022	-0.00023	-0.00080	-0.00144	-0.00154	-0.00153	-0.00204	-0.00220	-0.00219	-0.00190	-0.00128	-0.00069	-0.00018	0.00068	0.00152	0.00241		; offset and temperature correction info
a532	Magenta	19.41084		-0.00097	-0.00072	-0.00060	-0.00081	-0.00062	-0.00071	-0.00040	0.00020	0.00028	0.00043	0.00000	-0.00035	0.00007	0.00000	-0.00011	-0.00059	-0.00080	-0.00098	-0.00137	-0.00162	-0.00163	-0.00130	-0.00073	-0.00018	0.00090	0.00185	0.00175	0.00247	0.00291	0.00327	0.00349		; offset and temperature correction info
a555	Black	19.69776		0.00171	0.00183	0.00183	0.00186	0.00191	0.00170	0.00115	0.00131	0.00097	0.00073	0.00060	0.00013	0.00015	0.00000	0.00014	-0.00029	-0.00066	-0.00082	-0.00116	-0.00139	-0.00134	-0.00167	-0.00119	-0.00093	-0.00048	0.00053	0.00111	0.00095	0.00178	0.00206	0.00273		; offset and temperature correction info
c412	LtBlue	19.91180		-0.02051	-0.01853	-0.01589	-0.01311	-0.01059	-0.00877	-0.00705	-0.00581	-0.00413	-0.00231	-0.00098	-0.00066	-0.00011	0.00000	-0.00013	-0.00085	-0.00170	-0.00170	-0.00302	-0.00330	-0.00429	-0.00551	-0.00626	-0.00775	-0.00978	-0.01181	-0.01113	-0.01108	-0.01116	-0.01192	-0.01291		; offset and temperature correction info
c440	LtGreen	20.06241		-0.01064	-0.00992	-0.00892	-0.00766	-0.00639	-0.00531	-0.00478	-0.00384	-0.00287	-0.00187	-0.00102	-0.00063	-0.00023	0.00000	-0.00007	-0.00053	-0.00090	-0.00119	-0.00169	-0.00197	-0.00226	-0.00257	-0.00260	-0.00289	-0.00394	-0.00470	-0.00481	-0.00493	-0.00520	-0.00580	-0.00620		; offset and temperature correction info
c488	Yellow	20.35984		-0.01125	-0.01082	-0.00966	-0.00833	-0.00726	-0.00661	-0.00579	-0.00500	-0.00389	-0.00278	-0.00167	-0.00113	-0.00041	0.00000	0.00055	0.00121	0.00187	0.00226	0.00222	0.00251	0.00281	0.00359	0.00414	0.00427	0.00401	0.00404	0.00486	0.00563	0.00638	0.00684	0.00718		; offset and temperature correction info
0.003500	0.004000	0.015000	0.020000	0.015000	0.020000	2500.000000	2000.000000	1000.000000	; maxANoise	maxCNoise	maxADifference	maxCDifference	minACounts	minCCounts	minRCounts	maxTempSdev	maxDepthSdev
0			; auxilliary capabilities
1			; acquisition binsize
0	0.10778	0.10678	0.06875	0.41592	0.41964	0.33408	1.99004	1.14489	0.53660	0.25601	0.25492	0.24779	0.40372	0.33263	0.25174	1.29269	0.82140	0.50976	31.75	6.2	0.00	7.57	0.01266	0.01290	0.01624	0.00787	0.00585	0.00641	0.00468	0.01266	0.01680	0.00680	0.00703	0.00878	0.01488	0.01093	0.01195	0.00220	0.00624	0.00874
170	0.10523	0.10614	0.06615	0.41308	0.41601	0.33018	1.97569	1.14316	0.53518	0.25536	0.25307	0.24581	0.40420	0.33124	0.25415	1.29269	0.82521	0.51183
330	0.10900	0.10757	0.06943	0.41503	0.41875	0.33424	1.98405	1.14414	0.53892	0.25669	0.25520	0.24782	0.40334	0.32930	0.25103	1.29336	0.82026	0.50930
490	0.10338	0.10546	0.06600	0.41160	0.41473	0.32932	1.97119	1.13996	0.53536	0.25369	0.25166	0.24545	0.40336	0.33399	0.25242	1.29379	0.82376	0.51167
660	0.10609	0.10908	0.06729	0.41326	0.41653	0.33142	1.98377	1.14403	0.53653	0.25671	0.25451	0.24682	0.40365	0.32982	0.25000	1.29244	0.82004	0.50922
820	0.10454	0.10613	0.06772	0.41122	0.41404	0.32902	1.98579	1.14085	0.53434	0.25321	0.25143	0.24444	0.40220	0.33198	0.24982	1.29248	0.82374	0.51171
990	0.10672	0.11166	0.06978	0.41420	0.41661	0.33245	1.98394	1.14372	0.53721	0.25604	0.25270	0.24719	0.40042	0.32986	0.24830	1.29210	0.81896	0.50754
1150	0.10555	0.10991	0.07099	0.41190	0.41591	0.33174	1.98766	1.14386	0.53712	0.25534	0.25243	0.24616	0.40025	0.32988	0.25011	1.29374	0.81944	0.50900
1310	0.10504	0.10855	0.06980	0.41185	0.41615	0.33099	1.97622	1.14113	0.53724	0.25541	0.25249	0.24561	0.40074	0.33034	0.24947	1.29130	0.81804	0.50739
1480	0.10620	0.10868	0.06987	0.41300	0.41673	0.33242	1.98688	1.14441	0.53842	0.25652	0.25353	0.24748	0.40468	0.33206	0.25016	1.29256	0.82321	0.50984
1640	0.10786	0.10977	0.07175	0.41660	0.41996	0.33528	1.98077	1.14239	0.53764	0.25877	0.25617	0.24856	0.40291	0.32999	0.24704	1.29718	0.82272	0.51137	31.75	6.0	0.00	7.69	0.01267	0.01290	0.01624	0.00787	0.00586	0.00641	0.00468	0.01266	0.01681	0.00680	0.00703	0.00878	0.01488	0.01093	0.01195	0.00220	0.00625	0.00875
1800	0.10730	0.11173	0.07284	0.41795	0.42266	0.33727	1.98416	1.14585	0.54272	0.26113	0.25709	0.25196	0.40433	0.33356	0.25360	1.30043	0.82766	0.51398
1970	0.10850	0.11053	0.06975	0.41586	0.41929	0.33401	1.98323	1.14360	0.53771	0.25796	0.25599	0.24818	0.40304	0.33165	0.25124	1.29482	0.82350	0.51115
2130	0.10965	0.10984	0.07371	0.41754	0.42265	0.33754	1.98917	1.14995	0.54308	0.26082	0.25809	0.25118	0.40744	0.33665	0.25294	1.29904	0.82776	0.51434
2290	0.10888	0.10887	0.07028	0.41654	0.42058	0.33432	1.98254	1.14446	0.53733	0.25775	0.25416	0.24860	0.40241	0.33038	0.24957	1.29811	0.82222	0.51076
2460	0.10812	0.11137	0.07177	0.41651	0.42160	0.33635	1.98981	1.14426	0.53992	0.26063	0.25717	0.25086	0.40437	0.33466	0.25261	1.29971	0.82599	0.51332
2620	0.10723	0.10968	0.06949	0.41489	0.41889	0.33497	1.98757	1.14628	0.53833	0.25780	0.25563	0.24867	0.40344	0.33201	0.25264	1.29621	0.82405	0.51124
2780	0.10619	0.10686	0.06839	0.41191	0.41603	0.33112	1.97770	1.13989	0.53535	0.25544	0.25217	0.24635	0.40375	0.33309	0.25460	1.29980	0.82691	0.51497
2950	0.10903	0.11052	0.07112	0.41645	0.42016	0.33462	1.98833	1.14389	0.53945	0.25791	0.25419	0.24784	0.40502	0.33263	0.25121	1.29550	0.82482	0.51311
3110	0.10931	0.11095	0.06966	0.41576	0.41932	0.33539	1.98343	1.14328	0.53888	0.25817	0.25515	0.24938	0.40287	0.33363	0.25103	1.29689	0.82453	0.51185
3270	0.10914	0.11029	0.06926	0.41742	0.42110	0.33429	1.97888	1.14149	0.53634	0.25792	0.25500	0.24900	0.40510	0.33429	0.25531	1.30375	0.83020	0.51703	31.80	6.0	0.00	7.61	0.01267	0.01291	0.01624	0.00788	0.00586	0.00642	0.00468	0.01267	0.01681	0.00680	0.00703	0.00878	0.01489	0.01093	0.01195	0.00220	0.00625	0.00875
3440	0.10966	0.11261	0.07258	0.42070	0.42460	0.33743	1.98774	1.14755	0.54169	0.26152	0.25775	0.25072	0.40403	0.33345	0.25094	1.29961	0.82725	0.51570
3600	0.10977	0.11051	0.07053	0.41865	0.42235	0.33551	1.97919	1.14239	0.53807	0.26002	0.25686	0.24955	0.40665	0.33823	0.25475	1.30134	0.83117	0.51846
3760	0.11112	0.11308	0.07387	0.42071	0.42466	0.33876	1.97986	1.14755	0.54188	0.26217	0.25828	0.25236	0.40530	0.33626	0.25364	1.30168	0.82823	0.51626
3930	0.10751	0.10920	0.07128	0.41650	0.42181	0.33450	1.97556	1.14240	0.53731	0.25866	0.25656	0.24896	0.40540	0.33520	0.25340	1.30181	0.83130	0.51880
4090	0.11172	0.11149	0.07357	0.42196	0.42497	0.33942	1.98856	1.14994	0.54240	0.26252	0.25994	0.25282	0.40657	0.33471	0.25153	1.30122	0.82988	0.51654
4250	0.10973	0.11124	0.07238	0.41752	0.42213	0.33541	1.97966	1.14618	0.53798	0.25853	0.25548	0.24920	0.40716	0.33558	0.25379	1.30236	0.83099	0.51791
4420	0.10976	0.10996	0.07424	0.41943	0.42381	0.33705	1.98749	1.14533	0.54055	0.26007	0.25650	0.25106	0.40369	0.33129	0.24902	1.29746	0.82550	0.51439
4580	0.10859	0.11092	0.06872	0.41611	0.42061	0.33382	1.98254	1.14078	0.53701	0.25785	0.25462	0.24847	0.40267	0.32900	0.24978	1.29397	0.82291	0.51033
4740	0.10978	0.11234	0.07274	0.41946	0.42485	0.33923	1.99102	1.14934	0.54377	0.26288	0.25910	0.25326	0.40776	0.33517	0.25526	1.30046	0.83032	0.51794
4910	0.10961	0.11086	0.07216	0.42206	0.42422	0.33898	1.98301	1.14599	0.53935	0.26216	0.25699	0.25299	0.40341	0.33323	0.25263	1.29992	0.82848	0.51627	31.75	6.0	0.00	7.60	0.01267	0.01291	0.01624	0.00788	0.00586	0.00642	0.00468	0.01267	0.01681	0.00680	0.00704	0.00879	0.01489	0.01093	0.01195	0.00220	0.00625	0.00875
5070	0.10930	0.11006	0.07471	0.42230	0.42749	0.34211	1.98952	1.14854	0.54458	0.26431	0.25893	0.25450	0.40696	0.33803	0.25370	1.30136	0.83148	0.52007
5230	0.10980	0.11156	0.07174	0.42134	0.42448	0.33925	1.98466	1.14602	0.54131	0.26178	0.25663	0.25240	0.40420	0.33244	0.24983	1.30018	0.82789	0.51604
5390	0.10816	0.11007	0.07219	0.41776	0.42117	0.33502	1.98734	1.14188	0.53692	0.25932	0.25535	0.24992	0.40720	0.33594	0.25697	1.30018	0.83178	0.52115
5560	0.11335	0.11037	0.07406	0.42366	0.42576	0.33877	1.97680	1.14593	0.53920	0.26269	0.25769	0.25255	0.40563	0.33252	0.25246	1.29996	0.82891	0.51826
5720	0.10903	0.11015	0.07118	0.42033	0.42327	0.33698	1.97923	1.14413	0.53730	0.26024	0.25549	0.24984	0.40695	0.33497	0.25579	1.30026	0.83334	0.52049
5890	0.11202	0.11244	0.07403	0.42251	0.42597	0.34007	1.98469	1.14641	0.54047	0.26313	0.25806	0.25209	0.40514	0.33372	0.25276	1.30258	0.82857	0.51797
6050	0.10819	0.11092	0.07034	0.41947	0.42371	0.33536	1.97820	1.14510	0.53812	0.26048	0.25704	0.25033	0.40642	0.33676	0.25723	1.30591	0.83370	0.52237
6210	0.11226	0.11500	0.07603	0.42368	0.42792	0.34022	1.99017	1.14875	0.54166	0.26443	0.26008	0.25402	0.40679	0.33289	0.25273	1.30266	0.83077	0.51843
6380	0.11149	0.11253	0.07543	0.42398	0.42844	0.34241	1.98919	1.15143	0.54313	0.26539	0.26252	0.25561	0.40989	0.33888	0.25667	1.30481	0.83436	0.52110
6540	0.11119	0.11471	0.07193	0.42519	0.42820	0.34312	1.99427	1.14746	0.54247	0.26576	0.26111	0.25532	0.40497	0.33324	0.25205	1.30405	0.83202	0.51986	31.75	6.0	0.00	7.58	0.01267	0.01291	0.01624	0.00788	0.00586	0.00642	0.00468	0.01267	0.01681	0.00680	0.00704	0.00879	0.01489	0.01093	0.01195	0.00220	0.00625	0.00875
6700	0.10903	0.11473	0.07430	0.42532	0.42923	0.34402	1.99035	1.15084	0.54593	0.26689	0.26237	0.25704	0.40804	0.33786	0.25208	1.30822	0.83468	0.52224
6870	0.10999	0.11071	0.07091	0.42370	0.42731	0.34153	1.98448	1.14742	0.54155	0.26414	0.26086	0.25466	0.40530	0.33437	0.25114	1.30637	0.83490	0.52270
7030	0.11002	0.11254	0.07184	0.42492	0.42826	0.34295	1.98264	1.15010	0.54363	0.26535	0.26140	0.25614	0.40567	0.33504	0.25562	1.30645	0.83352	0.52108
7190	0.10794	0.11198	0.07260	0.42293	0.42645	0.34086	1.98747	1.14659	0.53900	0.26443	0.26039	0.25414	0.40141	0.33161	0.25180	1.30342	0.83010	0.51840
7350	0.10570	0.11052	0.07245	0.42243	0.42789	0.34275	1.98817	1.14783	0.54321	0.26531	0.26136	0.25587	0.40727	0.33559	0.25460	1.30776	0.83485	0.52302
7520	0.10964	0.11337	0.07272	0.42375	0.42620	0.34130	1.98300	1.14574	0.53996	0.26442	0.26028	0.25408	0.40423	0.33217	0.24964	1.30270	0.83057	0.51919
7680	0.10826	0.11189	0.07062	0.42171	0.42545	0.33803	1.98423	1.14401	0.53698	0.26314	0.25876	0.25248	0.40878	0.33629	0.25564	1.30835	0.83724	0.52462
7840	0.11232	0.11433	0.07496	0.42862	0.43026	0.34444	1.98812	1.15179	0.54580	0.26754	0.26247	0.25773	0.40991	0.33557	0.25682	1.30751	0.83748	0.52328
8010	0.11116	0.11176	0.07295	0.42538	0.42841	0.34360	1.98591	1.14966	0.54397	0.26554	0.26220	0.25624	0.40605	0.33251	0.25221	1.30717	0.83347	0.52120
8170	0.11023	0.11071	0.07230	0.42392	0.42781	0.34352	1.99071	1.14715	0.54158	0.26422	0.26017	0.25500	0.40571	0.33246	0.25439	1.30480	0.83384	0.52058	31.75	6.3	0.00	7.57	0.01267	0.01291	0.01624	0.00788	0.00586	0.00642	0.00468	0.01267	0.01681	0.00680	0.00704	0.00879	0.01489	0.01093	0.01195	0.00220	0.00625	0.00875
8330	0.10999	0.11147	0.07114	0.42348	0.42679	0.34014	1.97995	1.14494	0.53941	0.26313	0.26008	0.25411	0.40673	0.33856	0.25565	1.30632	0.83704	0.52362
8500	0.11051	0.11179	0.07171	0.42604	0.43012	0.34446	1.97900	1.14941	0.54218	0.26560	0.26250	0.25619	0.40788	0.33424	0.25658	1.30501	0.83471	0.52233
8660	0.10939	0.11018	0.07186	0.42399	0.42768	0.34228	1.99122	1.14542	0.54091	0.26419	0.26098	0.25513	0.40755	0.33579	0.25513	1.30725	0.83646	0.52470
8820	0.11038	0.11132	0.07395	0.42583	0.42983	0.34428	1.98487	1.14822	0.54198	0.26659	0.26277	0.25675	0.40791	0.33471	0.25526	1.30548	0.83391	0.52197
8990	0.10796	0.11047	0.06995	0.42339	0.42659	0.34048	1.98616	1.14542	0.53915	0.26372	0.26085	0.25383	0.41044	0.33728	0.25934	1.31079	0.83906	0.52649
9150	0.11443	0.11430	0.07677	0.42898	0.43148	0.34585	1.99242	1.15119	0.54438	0.26883	0.26398	0.25740	0.40915	0.33457	0.25433	1.30712	0.83635	0.52324
9320	0.11114	0.11304	0.07625	0.42835	0.43249	0.34643	1.99337	1.15003	0.54367	0.26973	0.26528	0.25932	0.41002	0.33847	0.25492	1.30965	0.83833	0.52497
9480	0.11197	0.11251	0.07255	0.42768	0.43123	0.34414	1.98629	1.15080	0.54251	0.26754	0.26296	0.25651	0.40475	0.33616	0.25544	1.30434	0.83476	0.52186
9640	0.11091	0.11346	0.07447	0.42757	0.43206	0.34678	1.99399	1.15139	0.54484	0.26838	0.26475	0.25827	0.40641	0.33612	0.25550	1.30763	0.83684	0.52453
9810	0.11156	0.11022	0.07476	0.42668	0.43115	0.34431	1.98614	1.14579	0.54089	0.26789	0.26363	0.25733	0.40612	0.33449	0.25451	1.30265	0.83377	0.52142	31.75	6.2	0.00	7.53	0.01267	0.01291	0.01624	0.00788	0.00586	0.00642	0.00468	0.01267	0.01681	0.00681	0.00704	0.00879	0.01489	0.01093	0.01195	0.00220	0.00625	0.00876
9970	0.10881	0.10944	0.07132	0.42423	0.42857	0.34206	1.97776	1.14504	0.53931	0.26575	0.26173	0.25598	0.40782	0.33604	0.25886	1.30969	0.83996	0.52676
10130	0.11253	0.11262	0.07506	0.42955	0.43227	0.34603	1.98827	1.14943	0.54248	0.26882	0.26572	0.25885	0.40795	0.33508	0.25443	1.30779	0.83709	0.52352
10300	0.11133	0.11109	0.07196	0.42551	0.42947	0.34257	1.98142	1.14670	0.53786	0.26621	0.26278	0.25542	0.41088	0.33877	0.25574	1.31294	0.83974	0.52797
10460	0.11437	0.11290	0.07567	0.43009	0.43246	0.34781	1.99398	1.15158	0.54303	0.26988	0.26541	0.25990	0.40715	0.33610	0.25554	1.30952	0.83682	0.52463
10620	0.10891	0.11087	0.07305	0.42576	0.42943	0.34286	1.98653	1.14439	0.54055	0.26618	0.26282	0.25684	0.40814	0.33748	0.25761	1.31458	0.84212	0.52871
10790	0.11392	0.11436	0.07551	0.43040	0.43365	0.34762	1.99204	1.14918	0.54413	0.26888	0.26562	0.26008	0.40939	0.33783	0.25560	1.31159	0.83979	0.52722
10950	0.11170	0.11575	0.07650	0.43006	0.43501	0.34835	1.99165	1.15418	0.54460	0.26911	0.26593	0.25998	0.40641	0.33771	0.25630	1.30939	0.83793	0.52604
11110	0.10857	0.11025	0.07220	0.42739	0.43007	0.34505	1.98402	1.14644	0.53973	0.26664	0.26321	0.25695	0.40575	0.33068	0.24924	1.30551	0.83294	0.52086
11280	0.10964	0.11256	0.07546	0.42513	0.43283	0.34750	1.99344	1.15359	0.54699	0.27066	0.26703	0.26129	0.41020	0.33941	0.25477	1.31108	0.83960	0.52667
11440	0.11376	0.11127	0.07286	0.42992	0.43387	0.34567	1.98292	1.14747	0.54293	0.26823	0.26585	0.25926	0.40637	0.33276	0.25360	1.30920	0.83629	0.52396	31.80	6.3	0.00	7.91	0.01267	0.01291	0.01624	0.00788	0.00586	0.00642	0.00468	0.01267	0.01681	0.00681	0.00704	0.00879	0.01489	0.01093	0.01195	0.00220	0.00625	0.00876
11600	0.11048	0.11023	0.07182	0.42488	0.42923	0.34191	1.97797	1.14223	0.53903	0.26621	0.26386	0.25748	0.40785	0.33779	0.25734	1.31376	0.84177	0.52903
11760	0.11368	0.11573	0.07610	0.43152	0.43663	0.34896	1.99676	1.15176	0.54461	0.27124	0.26754	0.26173	0.40812	0.33640	0.25553	1.31055	0.83965	0.52588
11930	0.11097	0.11179	0.07314	0.42756	0.43191	0.34393	1.98742	1.14769	0.54242	0.26801	0.26482	0.25915	0.40877	0.33761	0.25729	1.31038	0.84096	0.52734
12090	0.11179	0.11175	0.07457	0.43028	0.43527	0.34718	1.99072	1.15087	0.54346	0.26970	0.26677	0.26031	0.40605	0.33634	0.25227	1.30891	0.83808	0.52491
12250	0.10951	0.11414	0.07323	0.42772	0.43351	0.34511	1.98518	1.14785	0.54201	0.26904	0.26580	0.25941	0.40576	0.33263	0.25142	1.30574	0.83560	0.52299
12410	0.10900	0.11238	0.07514	0.42955	0.43461	0.34792	1.98901	1.15110	0.54565	0.27115	0.26705	0.26175	0.40904	0.33542	0.25433	1.30869	0.83895	0.52547
12580	0.10923	0.11254	0.07267	0.42789	0.43265	0.34600	1.99175	1.15023	0.54224	0.26954	0.26602	0.26103	0.40480	0.33594	0.25392	1.30983	0.83667	0.52438
12740	0.10887	0.11175	0.07157	0.42611	0.43022	0.34354	1.98476	1.14741	0.53630	0.26664	0.26395	0.25738	0.40984	0.33787	0.25824	1.31173	0.84139	0.52910
12910	0.11372	0.11379	0.07554	0.43090	0.43475	0.34791	1.99150	1.14887	0.54258	0.27057	0.26733	0.26140	0.40536	0.33574	0.25627	1.30958	0.83941	0.52609
13070	0.11229	0.11203	0.07599	0.43071	0.43489	0.34922	1.98671	1.14857	0.54437	0.27101	0.26711	0.26182	0.40802	0.33638	0.25358	1.31196	0.83987	0.52665	31.75	6.1	0.00	7.68	0.01267	0.01291	0.01624	0.00788	0.00586	0.00642	0.00468	0.01267	0.01681	0.00681	0.00704	0.00879	0.01489	0.01093	0.01195	0.00220	0.00626	0.00876
13230	0.11153	0.11271	0.07356	0.42904	0.43336	0.34795	1.98444	1.14772	0.54357	0.27027	0.26664	0.26012	0.40666	0.33675	0.25380	1.30787	0.83891	0.52577
13400	0.11419	0.11334	0.07525	0.43100	0.43608	0.34867	1.99079	1.15145	0.54532	0.27117	0.26761	0.26181	0.41017	0.33655	0.25605	1.30968	0.84138	0.52740
13560	0.11238	0.11419	0.07389	0.42863	0.43348	0.34658	1.99009	1.14697	0.54175	0.26997	0.26640	0.25963	0.40674	0.33503	0.25226	1.30643	0.83789	0.52516
13720	0.11423	0.11463	0.07505	0.42995	0.43592	0.34872	1.99373	1.15084	0.54660	0.27233	0.26897	0.26262	0.41153	0.33681	0.25471	1.31247	0.84095	0.52816
13890	0.11101	0.11135	0.07469	0.42954	0.43314	0.34643	1.98444	1.14663	0.54262	0.26957	0.26522	0.25958	0.40857	0.33144	0.25382	1.30804	0.83745	0.52488
14050	0.11082	0.11523	0.07568	0.43127	0.43595	0.34953	1.99003	1.15390	0.54472	0.27230	0.26846	0.26301	0.40876	0.33452	0.25691	1.31424	0.84242	0.52899
14210	0.11178	0.11285	0.07373	0.42928	0.43449	0.34765	1.98914	1.14908	0.54300	0.26994	0.26665	0.26038	0.40742	0.33525	0.25302	1.30829	0.83806	0.52543
14380	0.11238	0.11591	0.07589	0.43160	0.43616	0.35009	1.98601	1.15243	0.54623	0.27310	0.26910	0.26267	0.40881	0.33806	0.25782	1.31044	0.84210	0.52878
14540	0.11182	0.11353	0.07386	0.42969	0.43316	0.34685	1.98615	1.14777	0.54103	0.26898	0.26592	0.26051	0.40583	0.33506	0.25240	1.30884	0.83872	0.52562
14700	0.11084	0.10996	0.07172	0.42705	0.43091	0.34440	1.98856	1.14668	0.53919	0.26758	0.26419	0.25829	0.41059	0.33830	0.25906	1.31450	0.84281	0.53139	31.80	6.1	0.00	7.54	0.01267	0.01291	0.01624	0.00788	0.00586	0.00642	0.00468	0.01267	0.01681	0.00681	0.00704	0.00879	0.01489	0.01093	0.01195	0.00220	0.00626	0.00876
14870	0.11484	0.11512	0.07435	0.43257	0.43474	0.34822	1.98845	1.15074	0.54388	0.27174	0.26772	0.26072	0.41262	0.33783	0.25577	1.31154	0.84196	0.52898
15030	0.11114	0.11352	0.07419	0.43074	0.43493	0.34838	1.99474	1.15006	0.54565	0.27235	0.26768	0.26185	0.40975	0.33597	0.25479	1.31201	0.84086	0.52779
15190	0.11274	0.11172	0.07287	0.42926	0.43372	0.34591	1.98873	1.14926	0.54146	0.27043	0.26575	0.26062	0.41003	0.33541	0.25754	1.31108	0.84237	0.52940
15360	0.11310	0.11344	0.07251	0.43208	0.43471	0.34769	1.98414	1.14968	0.54328	0.27079	0.26793	0.26121	0.40749	0.33547	0.25812	1.31070	0.83961	0.52777
15520	0.11172	0.11246	0.07477	0.42935	0.43456	0.34575	1.98330	1.14882	0.54115	0.26997	0.26668	0.26038	0.40540	0.33395	0.25276	1.30425	0.83778	0.52479
15680	0.10959	0.11499	0.07537	0.42847	0.43616	0.34941	1.98881	1.15331	0.54713	0.27396	0.27150	0.26441	0.40964	0.33838	0.25839	1.31521	0.84461	0.53148
15850	0.11333	0.11384	0.07534	0.43247	0.43580	0.34793	1.98934	1.15255	0.54465	0.27210	0.26869	0.26192	0.40894	0.33607	0.25809	1.31171	0.84205	0.52917
16010	0.11310	0.11114	0.07534	0.43088	0.43427	0.34764	1.99018	1.14970	0.54199	0.27239	0.26695	0.26148	0.40728	0.33607	0.25468	1.31091	0.84025	0.52657
16170	0.11168	0.11192	0.07328	0.42903	0.43285	0.34702	1.98138	1.14766	0.54091	0.27049	0.26665	0.26055	0.40590	0.33289	0.25467	1.30733	0.83918	0.52612
16340	0.11215	0.11567	0.07612	0.43263	0.43746	0.35059	1.99060	1.15466	0.54578	0.27451	0.27173	0.26404	0.41049	0.33921	0.25925	1.31492	0.84449	0.53079	31.80	6.1	0.00	7.56	0.01267	0.01291	0.01624	0.00788	0.00586	0.00642	0.00468	0.01267	0.01681	0.00681	0.00704	0.00879	0.01489	0.01094	0.01195	0.00220	0.00626	0.00876
16500	0.11028	0.11365	0.07166	0.43048	0.43491	0.34663	1.98442	1.14552	0.54144	0.27186	0.26758	0.26136	0.40645	0.33323	0.25422	1.30855	0.83949	0.52635
16660	0.11090	0.11292	0.07387	0.43154	0.43571	0.34853	1.98820	1.15053	0.54480	0.27318	0.26958	0.26295	0.40937	0.33603	0.25532	1.31057	0.84151	0.52895
16830	0.11068	0.11198	0.07530	0.42951	0.43353	0.34645	1.99052	1.15039	0.54185	0.27229	0.26756	0.26182	0.40662	0.33690	0.25322	1.30619	0.83935	0.52642
16990	0.11070	0.11356	0.07350	0.43129	0.43674	0.34900	1.98143	1.15066	0.54521	0.27337	0.27023	0.26299	0.40951	0.33741	0.25758	1.31171	0.84175	0.52896
17150	0.11093	0.11135	0.07392	0.43017	0.43452	0.34715	1.99267	1.14893	0.54059	0.27247	0.26899	0.26152	0.40659	0.33555	0.25380	1.30868	0.83807	0.52633
17320	0.11216	0.11335	0.07420	0.43117	0.43659	0.34931	1.99267	1.15108	0.54538	0.27418	0.27059	0.26331	0.41031	0.33798	0.25431	1.31281	0.84235	0.52881
17480	0.10815	0.11170	0.07470	0.43037	0.43499	0.34697	1.99287	1.14957	0.54286	0.27262	0.26945	0.26334	0.40889	0.33430	0.25613	1.31028	0.84027	0.52694
17640	0.11113	0.11328	0.07563	0.43092	0.43680	0.34854	1.99396	1.15150	0.54428	0.27339	0.26957	0.26423	0.40748	0.33713	0.25665	1.31133	0.84170	0.52859
17810	0.11252	0.11523	0.07367	0.43013	0.43434	0.34815	1.98286	1.14743	0.54022	0.27220	0.26896	0.26233	0.40600	0.33328	0.25451	1.31070	0.83922	0.52636
17970	0.11183	0.11189	0.07152	0.42768	0.43279	0.34498	1.98133	1.14539	0.54178	0.27048	0.26735	0.26128	0.41048	0.33800	0.25961	1.31427	0.84500	0.53294	31.80	6.1	0.00	7.66	0.01267	0.01291	0.01624	0.00788	0.00586	0.00642	0.00468	0.01267	0.01681	0.00681	0.00704	0.00879	0.01489	0.01094	0.01196	0.00220	0.00626	0.00876
18130	0.11245	0.11552	0.07698	0.43323	0.43836	0.35002	1.99484	1.15396	0.54368	0.27493	0.27079	0.26565	0.40982	0.33986	0.25702	1.31313	0.84216	0.53050
18300	0.11410	0.11401	0.07637	0.43347	0.43833	0.35054	1.99224	1.15290	0.54688	0.27587	0.27146	0.26672	0.40896	0.33609	0.25575	1.31174	0.84337	0.53196
18460	0.11037	0.11341	0.07292	0.43105	0.43498	0.34803	1.99498	1.14920	0.54293	0.27305	0.26822	0.26400	0.40580	0.33530	0.25222	1.30929	0.84001	0.52798
18620	0.11164	0.11388	0.07574	0.43170	0.43701	0.35033	1.99132	1.15183	0.54430	0.27456	0.26984	0.26551	0.40986	0.33537	0.25641	1.31089	0.84161	0.52964
18790	0.11059	0.11251	0.07336	0.42987	0.43457	0.34806	1.98928	1.14916	0.54238	0.27263	0.26882	0.26319	0.40657	0.33766	0.25590	1.31304	0.84143	0.52961
18950	0.11057	0.11254	0.07258	0.43102	0.43513	0.34927	1.98570	1.14791	0.54428	0.27468	0.26936	0.26504	0.40846	0.33724	0.25679	1.31110	0.84107	0.52993
19110	0.11121	0.11040	0.07299	0.43006	0.43372	0.34733	1.98438	1.14720	0.54129	0.27370	0.26770	0.26377	0.40838	0.33284	0.25308	1.30782	0.83754	0.52629
19280	0.10796	0.11088	0.07516	0.42991	0.43548	0.34986	1.99591	1.15160	0.54609	0.27667	0.27098	0.26641	0.40949	0.33767	0.25838	1.31169	0.84319	0.53143
19440	0.11343	0.11224	0.07262	0.43093	0.43470	0.34723	1.98075	1.14869	0.54121	0.27376	0.26845	0.26306	0.40663	0.33401	0.25509	1.30752	0.83820	0.52661
19600	0.10759	0.11073	0.07487	0.42945	0.43522	0.34979	1.98616	1.15295	0.54553	0.27589	0.26982	0.26569	0.41017	0.33833	0.25853	1.31360	0.84422	0.53008	31.80	6.1	0.00	7.61	0.01267	0.01291	0.01624	0.00788	0.00586	0.00642	0.00468	0.01267	0.01681	0.00681	0.00704	0.00879	0.01489	0.01094	0.01196	0.00220	0.00626	0.00876
19770	0.11072	0.11113	0.07433	0.43095	0.43424	0.34766	1.98016	1.14814	0.54212	0.27429	0.26779	0.26383	0.40698	0.33384	0.25535	1.31335	0.83984	0.52660
19930	0.10900	0.11179	0.07465	0.42952	0.43523	0.34981	1.99215	1.15136	0.54407	0.27577	0.27024	0.26610	0.40956	0.33739	0.25435	1.31504	0.84307	0.53171
20090	0.11070	0.11248	0.07370	0.43094	0.43453	0.34864	1.99106	1.14910	0.54188	0.27308	0.26785	0.26419	0.40651	0.33459	0.25412	1.31462	0.83941	0.52741
20260	0.11034	0.11403	0.07522	0.43166	0.43638	0.35119	1.99198	1.15108	0.54711	0.27535	0.26938	0.26579	0.40853	0.33479	0.25781	1.31432	0.84331	0.53058
20420	0.11268	0.11378	0.07332	0.43097	0.43450	0.34885	1.98323	1.14751	0.54279	0.27357	0.26804	0.26298	0.40493	0.33269	0.25336	1.31044	0.84020	0.52787
20580	0.11258	0.11398	0.07401	0.43282	0.43534	0.35104	1.99419	1.15100	0.54525	0.27541	0.26979	0.26429	0.40934	0.33494	0.25468	1.31466	0.84183	0.52914
20750	0.11288	0.11428	0.07509	0.43068	0.43440	0.34868	1.99428	1.15065	0.54188	0.27392	0.26648	0.26390	0.40609	0.33591	0.25457	1.31225	0.83992	0.52733
20910	0.11291	0.11510	0.07290	0.43189	0.43567	0.35072	1.99125	1.15271	0.54541	0.27651	0.27006	0.26516	0.40922	0.33546	0.25761	1.31289	0.84211	0.53010
21070	0.11171	0.11191	0.07283	0.43204	0.43526	0.34822	1.98877	1.14969	0.54303	0.27450	0.26804	0.26317	0.40601	0.33362	0.25461	1.31398	0.84093	0.52827
21240	0.11286	0.11572	0.07635	0.43429	0.43672	0.35208	1.98668	1.15144	0.54389	0.27648	0.26985	0.26574	0.41018	0.33725	0.25625	1.31571	0.84294	0.53034	31.80	6.1	0.00	7.57	0.01267	0.01291	0.01624	0.00788	0.00586	0.00642	0.00468	0.01267	0.01681	0.00681	0.00704	0.00879	0.01489	0.01094	0.01195	0.00220	0.00626	0.00876
21400	0.11123	0.11365	0.07365	0.43218	0.43457	0.34838	1.98568	1.14989	0.54400	0.27443	0.26863	0.26326	0.40561	0.33288	0.25378	1.31103	0.84088	0.52721
21560	0.11372	0.11502	0.07493	0.43239	0.43654	0.35106	1.99004	1.15074	0.54499	0.27541	0.26936	0.26500	0.40809	0.33568	0.25756	1.31525	0.84244	0.52925
21730	0.11209	0.11317	0.07340	0.43182	0.43465	0.34844	1.98260	1.14908	0.54185	0.27450	0.26795	0.26316	0.40530	0.33470	0.25318	1.31196	0.84006	0.52718
21890	0.11093	0.11139	0.07315	0.42967	0.43345	0.34627	1.98724	1.14693	0.53982	0.27187	0.26638	0.26090	0.41053	0.33933	0.25866	1.31470	0.84619	0.53269
22050	0.11673	0.11543	0.07459	0.43428	0.43672	0.35119	1.98761	1.15197	0.54476	0.27493	0.26962	0.26430	0.40922	0.33637	0.25533	1.31537	0.84310	0.52950
22220	0.11617	0.11634	0.07652	0.43396	0.43766	0.35185	1.99312	1.15441	0.54661	0.27628	0.26898	0.26531	0.40936	0.33839	0.25673	1.31508	0.84411	0.53021
22380	0.11341	0.11298	0.07461	0.43227	0.43468	0.34970	1.99186	1.14775	0.54460	0.27308	0.26745	0.26236	0.41036	0.33730	0.25727	1.31289	0.84107	0.52887
22540	0.11462	0.11557	0.07517	0.43285	0.43642	0.35004	1.99555	1.14885	0.54343	0.27522	0.26962	0.26426	0.41014	0.33649	0.25487	1.31483	0.84199	0.52932
22710	0.11345	0.11321	0.07451	0.43212	0.43542	0.35117	1.98294	1.14936	0.54402	0.27311	0.26796	0.26290	0.40804	0.33832	0.25696	1.31778	0.84360	0.53051
22870	0.11519	0.11525	0.07597	0.43385	0.43693	0.35022	1.98930	1.14994	0.54216	0.27373	0.26836	0.26359	0.41029	0.33568	0.25410	1.31314	0.84222	0.53001	31.75	6.2	0.00	7.65	0.01267	0.01291	0.01624	0.00788	0.00586	0.00642	0.00468	0.01267	0.01681	0.00681	0.00704	0.00879	0.01489	0.01094	0.01195	0.00220	0.00626	0.00876
23030	0.11168	0.11206	0.07228	0.43067	0.43484	0.34791	1.98536	1.14757	0.54162	0.27116	0.26562	0.26103	0.40638	0.33478	0.25291	1.30846	0.83911	0.52734
23200	0.10822	0.11398	0.07579	0.42975	0.43616	0.35048	1.98304	1.15289	0.54562	0.27524	0.26908	0.26461	0.41296	0.33783	0.25891	1.31681	0.84402	0.53204
23360	0.11339	0.11375	0.07423	0.43286	0.43663	0.34868	1.98684	1.15019	0.54320	0.27187	0.26704	0.26159	0.40774	0.33373	0.25457	1.31040	0.83971	0.52808
23520	0.11073	0.11430	0.07563	0.43013	0.43636	0.34996	1.98922	1.15081	0.54554	0.27454	0.26925	0.26431	0.40945	0.33845	0.25720	1.31584	0.84368	0.53187
23690	0.11212	0.11286	0.07377	0.43216	0.43480	0.34840	1.98069	1.14817	0.54238	0.27268	0.26704	0.26204	0.40584	0.33496	0.25717	1.31053	0.84055	0.52774
23850	0.11175	0.11147	0.07672	0.43024	0.43584	0.34990	1.98662	1.15095	0.54223	0.27459	0.26858	0.26528	0.40861	0.33678	0.25587	1.31407	0.84340	0.53030
24010	0.11119	0.11214	0.07548	0.43171	0.43575	0.34915	1.98242	1.14999	0.54039	0.27172	0.26702	0.26235	0.40909	0.33457	0.25341	1.31213	0.83982	0.52770
24180	0.11211	0.11607	0.07575	0.43190	0.43749	0.35048	1.98656	1.15180	0.54281	0.27458	0.26833	0.26427	0.40753	0.33750	0.25647	1.31483	0.84297	0.53026
24340	0.11285	0.11386	0.07219	0.43115	0.43564	0.34898	1.98505	1.14785	0.54240	0.27166	0.26755	0.26262	0.40878	0.33692	0.25521	1.31171	0.83979	0.52758
24500	0.11378	0.11351	0.07403	0.43184	0.43624	0.35006	1.99154	1.15264	0.54293	0.27259	0.26823	0.26329	0.40838	0.33574	0.25854	1.31440	0.84219	0.53005	31.75	6.1	0.00	7.55	0.01267	0.01291	0.01624	0.00788	0.00586	0.00642	0.00468	0.01267	0.01681	0.00681	0.00704	0.00879	0.01489	0.01094	0.01196	0.00220	0.00626	0.00876
24670	0.11036	0.11342	0.07380	0.43078	0.43541	0.34905	1.99577	1.14486	0.54144	0.27098	0.26525	0.26149	0.40639	0.33505	0.25538	1.31196	0.84017	0.52811
24830	0.11182	0.11792	0.07746	0.43293	0.43770	0.35187	1.98659	1.15181	0.54558	0.27358	0.26901	0.26345	0.41176	0.33752	0.25646	1.31377	0.84261	0.53074
24990	0.11255	0.11383	0.07380	0.43248	0.43437	0.34785	1.98410	1.14950	0.54216	0.27095	0.26613	0.26187	0.40884	0.33524	0.25533	1.31196	0.84032	0.52789
25160	0.11437	0.11700	0.07653	0.43455	0.43818	0.35227	1.99459	1.15517	0.54676	0.27618	0.26978	0.26429	0.41173	0.34217	0.25738	1.31997	0.84609	0.53267
25320	0.11424	0.11473	0.07464	0.43329	0.43564	0.34850	1.98424	1.15141	0.54271	0.27309	0.26706	0.26166	0.40455	0.33640	0.25541	1.31394	0.84011	0.52805
25480	0.11119	0.11490	0.07596	0.43259	0.43713	0.35099	1.98687	1.15118	0.54465	0.27479	0.27009	0.26409	0.40933	0.33865	0.25846	1.31419	0.84340	0.53141
25640	0.11060	0.11368	0.07399	0.43179	0.43488	0.34912	1.98315	1.15155	0.54379	0.27120	0.26747	0.26127	0.40752	0.33829	0.25463	1.31487	0.83950	0.52811
25810	0.11049	0.11121	0.07150	0.42779	0.43341	0.34561	1.98547	1.14842	0.54018	0.27023	0.26635	0.26010	0.40802	0.33870	0.25951	1.31617	0.84429	0.53223
25970	0.11213	0.11502	0.07495	0.43325	0.43513	0.34842	1.99017	1.15088	0.54336	0.27372	0.26806	0.26204	0.40722	0.33512	0.25538	1.31200	0.84077	0.52908
26140	0.11015	0.11063	0.07225	0.43038	0.43353	0.34646	1.98790	1.14882	0.54058	0.27088	0.26585	0.25927	0.40652	0.33918	0.25663	1.31578	0.84389	0.53169	31.80	6.1	0.00	7.57	0.01267	0.01291	0.01624	0.00788	0.00586	0.00642	0.00468	0.01267	0.01681	0.00681	0.00704	0.00879	0.01489	0.01094	0.01195	0.00220	0.00626	0.00876
26300	0.11109	0.11345	0.07485	0.43281	0.43640	0.34880	1.98497	1.15149	0.54363	0.27359	0.26858	0.26149	0.40847	0.33858	0.25690	1.31207	0.84257	0.53038
26460	0.11113	0.11212	0.07273	0.43021	0.43312	0.34750	1.98846	1.14896	0.53963	0.27034	0.26587	0.25982	0.40931	0.34041	0.26165	1.31633	0.84445	0.53326
26630	0.11446	0.11649	0.07471	0.43343	0.43660	0.34989	1.97971	1.15250	0.54373	0.27341	0.26839	0.26187	0.41183	0.33993	0.25613	1.31574	0.84413	0.53259
26790	0.11452	0.11403	0.07632	0.43386	0.43755	0.35247	1.99677	1.15318	0.54711	0.27393	0.26990	0.26408	0.41003	0.33998	0.25550	1.31430	0.84260	0.53051
26950	0.11261	0.11207	0.07287	0.43103	0.43410	0.34735	1.98908	1.14788	0.54342	0.27203	0.26685	0.26113	0.40937	0.33726	0.25753	1.31717	0.84420	0.53234
27120	0.11456	0.11531	0.07534	0.43367	0.43689	0.35074	1.99333	1.15044	0.54683	0.27380	0.26798	0.26247	0.40764	0.33871	0.25656	1.31127	0.84166	0.53008
27280	0.11082	0.11210	0.07266	0.43033	0.43373	0.34729	1.98690	1.14592	0.54090	0.27081	0.26575	0.26009	0.40786	0.33788	0.25646	1.31384	0.84263	0.53038
27440	0.11123	0.11347	0.07525	0.43308	0.43624	0.34938	1.99557	1.15030	0.54334	0.27306	0.26853	0.26148	0.40853	0.33655	0.25560	1.31388	0.84113	0.52949
27610	0.10967	0.11105	0.07362	0.43086	0.43447	0.34824	1.98773	1.14708	0.54056	0.27139	0.26762	0.26085	0.41139	0.33691	0.25875	1.31363	0.84360	0.53118
27770	0.11440	0.11401	0.07483	0.43414	0.43658	0.35024	1.98662	1.15143	0.54441	0.27237	0.26772	0.26254	0.40786	0.33765	0.25625	1.31328	0.84198	0.52823	31.75	6.3	0.00	7.56	0.01267	0.01291	0.01624	0.00788	0.00586	0.00642	0.00468	0.01267	0.01681	0.00681	0.00704	0.00879	0.01489	0.01094	0.01195	0.00220	0.00626	0.00876
27930	0.10945	0.11106	0.07394	0.43084	0.43445	0.34685	1.98240	1.14724	0.54072	0.27001	0.26501	0.26179	0.41056	0.33852	0.25874	1.31678	0.84566	0.53180
28100	0.11212	0.11439	0.07499	0.43339	0.43634	0.34996	1.99104	1.15120	0.54435	0.27152	0.26804	0.26277	0.40854	0.33683	0.25660	1.31451	0.84127	0.52844
28260	0.11075	0.11204	0.07115	0.43011	0.43313	0.34638	1.98609	1.14704	0.53967	0.26976	0.26570	0.26009	0.40934	0.33871	0.25857	1.31653	0.84595	0.53239
28430	0.11351	0.11487	0.07357	0.43431	0.43774	0.35090	1.99104	1.15183	0.54397	0.27320	0.26832	0.26284	0.40658	0.33746	0.25538	1.31345	0.84208	0.52869
28590	0.11216	0.11485	0.07423	0.43366	0.43776	0.35166	1.99642	1.15222	0.54724	0.27352	0.26921	0.26395	0.41090	0.33903	0.25885	1.31438	0.84308	0.53036
28750	0.11156	0.11336	0.07370	0.43103	0.43582	0.34827	1.98827	1.15172	0.54356	0.27188	0.26665	0.26148	0.40830	0.33503	0.25555	1.31071	0.83975	0.52764
28920	0.11158	0.11517	0.07481	0.43455	0.43834	0.35244	1.99496	1.15333	0.54632	0.27454	0.27042	0.26440	0.41090	0.33807	0.25699	1.31510	0.84390	0.53011
29080	0.11208	0.11297	0.07508	0.43253	0.43589	0.34970	1.98229	1.15083	0.54364	0.27052	0.26583	0.26168	0.40462	0.33441	0.25522	1.31320	0.84050	0.52715
29240	0.11108	0.11569	0.07470	0.43270	0.43736	0.35127	1.99211	1.15167	0.54497	0.27358	0.26820	0.26367	0.40782	0.33759	0.25616	1.31510	0.84209	0.52947
29410	0.10966	0.11148	0.07306	0.43209	0.43620	0.35001	1.98429	1.15222	0.54167	0.27155	0.26630	0.26135	0.40750	0.33551	0.25709	1.31352	0.83960	0.52616	31.80	6.2	0.00	7.54	0.01267	0.01291	0.01624	0.00788	0.00586	0.00642	0.00468	0.01267	0.01681	0.00681	0.00704	0.00879	0.01489	0.01094	0.01195	0.00220	0.00626	0.00876
29570	0.10911	0.11006	0.07034	0.42965	0.43390	0.34593	1.97540	1.14589	0.53933	0.26989	0.26489	0.25967	0.41024	0.33936	0.25858	1.32019	0.84566	0.53214
29730	0.11307	0.11345	0.07454	0.43472	0.43932	0.35068	1.98890	1.15112	0.54583	0.27245	0.26801	0.26278	0.41111	0.33842	0.25622	1.31331	0.84181	0.52747
29900	0.11104	0.11549	0.07255	0.43318	0.43739	0.35155	1.98661	1.15476	0.54646	0.27294	0.26714	0.26285	0.40916	0.33833	0.25774	1.31336	0.84208	0.52826
30060	0.11184	0.11395	0.07308	0.43143	0.43568	0.34897	1.97761	1.15111	0.54307	0.27018	0.26678	0.26125	0.40810	0.33271	0.25671	1.31319	0.83868	0.52582
30220	0.10810	0.11252	0.07191	0.42833	0.43271	0.34641	1.98250	1.14841	0.54149	0.26945	0.26425	0.25903	0.40764	0.33896	0.25878	1.31618	0.84360	0.53055
30390	0.11405	0.11458	0.07512	0.43334	0.43670	0.35000	1.98465	1.14918	0.54515	0.27179	0.26679	0.26231	0.40968	0.33615	0.25713	1.31424	0.84283	0.52892
30550	0.11253	0.11517	0.07408	0.43227	0.43644	0.35121	1.99374	1.14979	0.54429	0.27167	0.26622	0.26276	0.40941	0.33677	0.25363	1.31534	0.84113	0.52808
30710	0.11110	0.11233	0.07295	0.43064	0.43382	0.34802	1.98323	1.14954	0.54097	0.26919	0.26505	0.25996	0.40962	0.33984	0.25813	1.31681	0.84298	0.52902
30880	0.11356	0.11366	0.07533	0.43294	0.43724	0.35023	1.98689	1.15146	0.54438	0.27054	0.26738	0.26150	0.40829	0.33678	0.25568	1.31656	0.84162	0.52839
31040	0.11229	0.11281	0.07305	0.43158	0.43450	0.34793	1.98921	1.15011	0.54254	0.27121	0.26586	0.25982	0.41065	0.33976	0.25643	1.31743	0.84281	0.52984	31.75	6.1	0.00	7.57	0.01267	0.01291	0.01624	0.00788	0.00586	0.00642	0.00468	0.01267	0.01681	0.00681	0.00704	0.00879	0.01489	0.01094	0.01195	0.00220	0.00626	0.00876
31200	0.11507	0.11450	0.07597	0.43385	0.43769	0.35014	1.99195	1.15292	0.54337	0.27270	0.26706	0.26177	0.40847	0.33636	0.25374	1.31098	0.83955	0.52695
31370	0.11085	0.11322	0.07330	0.43149	0.43500	0.34873	1.98219	1.14971	0.54031	0.26967	0.26660	0.25940	0.41004	0.33866	0.25790	1.31591	0.84426	0.53068
31530	0.11601	0.11502	0.07670	0.43459	0.43819	0.35158	1.98834	1.15099	0.54526	0.27263	0.26896	0.26190	0.40938	0.33841	0.25588	1.31406	0.84260	0.52828
31690	0.11229	0.11251	0.07168	0.43143	0.43327	0.34782	1.98789	1.14890	0.54196	0.26909	0.26604	0.25970	0.40974	0.33873	0.25881	1.31710	0.84399	0.53047
31860	0.11514	0.11469	0.07512	0.43274	0.43565	0.34981	1.98943	1.15245	0.54438	0.27084	0.26748	0.26047	0.40597	0.33804	0.25233	1.31570	0.84005	0.52692
32020	0.11018	0.11251	0.07285	0.43024	0.43276	0.34691	1.98689	1.14767	0.54095	0.26822	0.26563	0.25822	0.40979	0.33703	0.25848	1.31360	0.84390	0.52960
32180	0.11173	0.11460	0.07403	0.43264	0.43595	0.34958	1.99167	1.15114	0.54346	0.27078	0.26747	0.26124	0.40827	0.33682	0.25448	1.31558	0.84154	0.52716
32350	0.10999	0.11433	0.07237	0.43069	0.43280	0.34709	1.98295	1.14697	0.54034	0.26876	0.26532	0.25768	0.40997	0.33808	0.25820	1.31545	0.84397	0.53080
32510	0.11414	0.11298	0.07393	0.43294	0.43696	0.34999	1.98921	1.15380	0.54417	0.27126	0.26751	0.26153	0.40965	0.33599	0.25785	1.31338	0.84031	0.52714
32680	0.11250	0.11573	0.07617	0.43203	0.43665	0.35021	1.99246	1.15322	0.54407	0.27061	0.26697	0.26037	0.40958	0.33814	0.25637	1.31528	0.84196	0.52813	31.80	6.1	0.00	7.54	0.01267	0.01291	0.01624	0.00788	0.00586	0.00642	0.00468	0.01267	0.01681	0.00681	0.00704	0.00879	0.01489	0.01094	0.01195	0.00220	0.00626	0.00876
32840	0.11237	0.11290	0.07767	0.43062	0.43560	0.34931	1.99094	1.15099	0.54473	0.26999	0.26690	0.25979	0.40840	0.33442	0.25502	1.31343	0.84029	0.52703
33000	0.11343	0.11416	0.07645	0.43256	0.43749	0.35153	1.99394	1.15342	0.54605	0.27243	0.26821	0.26156	0.41106	0.33899	0.25894	1.31701	0.84328	0.52855
33170	0.11379	0.11608	0.07468	0.43128	0.43636	0.34830	1.99293	1.14819	0.54393	0.26980	0.26753	0.25946	0.40750	0.33569	0.25497	1.31457	0.83980	0.52647
33330	0.11480	0.11450	0.07660	0.43310	0.43864	0.35178	1.98862	1.15439	0.54830	0.27301	0.27035	0.26229	0.41182	0.34001	0.25961	1.31748	0.84331	0.52978
33490	0.11453	0.11386	0.07556	0.43143	0.43580	0.34894	1.98639	1.14969	0.54365	0.27046	0.26639	0.26009	0.40945	0.33597	0.25575	1.31258	0.84015	0.52525
33660	0.11186	0.11504	0.07579	0.43175	0.43697	0.35011	1.98798	1.15414	0.54618	0.27187	0.26866	0.26129	0.40896	0.33866	0.25520	1.31558	0.84185	0.52799
33820	0.11269	0.11248	0.07289	0.42989	0.43449	0.34692	1.98158	1.14783	0.54217	0.26793	0.26518	0.25837	0.40737	0.33564	0.25408	1.31145	0.83726	0.52442
33980	0.11053	0.10978	0.07006	0.42661	0.43206	0.34494	1.97887	1.14634	0.53889	0.26634	0.26283	0.25710	0.40875	0.33926	0.25649	1.31258	0.84139	0.52794
34140	0.11138	0.11243	0.07441	0.42986	0.43549	0.34894	1.99187	1.14960	0.54416	0.26904	0.26559	0.25952	0.40781	0.33674	0.25525	1.31178	0.83857	0.52528
34310	0.11067	0.11224	0.07201	0.42752	0.43121	0.34573	1.98198	1.14847	0.54023	0.26616	0.26461	0.25656	0.41203	0.33789	0.25553	1.31175	0.83919	0.52822	31.75	6.1	0.00	7.68	0.01267	0.01291	0.01624	0.00788	0.00586	0.00642	0.00468	0.01267	0.01681	0.00680	0.00704	0.00879	0.01489	0.01094	0.01195	0.00220	0.00625	0.00876
34470	0.11391	0.11329	0.07337	0.43022	0.43537	0.34901	1.98724	1.14885	0.54313	0.26840	0.26673	0.25849	0.41143	0.33885	0.25952	1.31424	0.84103	0.52807
34640	0.11509	0.11417	0.07456	0.43123	0.43550	0.34895	1.99423	1.14794	0.54237	0.26875	0.26756	0.26061	0.41019	0.33810	0.25934	1.31179	0.84185	0.52722
34800	0.11434	0.11473	0.07374	0.43121	0.43459	0.34905	1.98494	1.14928	0.54426	0.26879	0.26596	0.25915	0.41025	0.33919	0.25961	1.31820	0.84423	0.53088
34960	0.11417	0.11508	0.07628	0.43472	0.43765	0.35096	1.98746	1.15020	0.54495	0.27125	0.26853	0.26247	0.41134	0.34017	0.25844	1.31588	0.84139	0.52856
35130	0.11350	0.11369	0.07536	0.43155	0.43568	0.35107	1.99538	1.15105	0.54537	0.26996	0.26727	0.26054	0.40880	0.34027	0.25694	1.31504	0.84025	0.52739
35290	0.11205	0.11310	0.07319	0.43006	0.43634	0.34870	1.98897	1.15121	0.54425	0.26920	0.26681	0.25996	0.40748	0.33602	0.25679	1.31133	0.83778	0.52594
35450	0.11262	0.11546	0.07546	0.43102	0.43659	0.35163	1.99154	1.15261	0.54397	0.27070	0.26745	0.26140	0.40939	0.33890	0.25757	1.31690	0.83846	0.52607
35620	0.11361	0.11256	0.07397	0.42950	0.43449	0.34792	1.99040	1.15277	0.54230	0.26804	0.26758	0.25993	0.40884	0.33558	0.25620	1.31120	0.83689	0.52462
35780	0.11112	0.11148	0.07022	0.42731	0.43157	0.34576	1.98553	1.14646	0.54009	0.26632	0.26553	0.25759	0.41272	0.34086	0.25884	1.31799	0.84369	0.53084
35950	0.11415	0.11541	0.07482	0.43130	0.43623	0.35010	1.98716	1.15212	0.54548	0.27002	0.26876	0.26146	0.41307	0.33678	0.25744	1.31271	0.84130	0.52703	31.80	6.1	0.00	7.54	0.01267	0.01291	0.01624	0.00788	0.00586	0.00642	0.00468	0.01267	0.01681	0.00681	0.00704	0.00879	0.01489	0.01094	0.01196	0.00220	0.00626	0.00876
36110	0.11493	0.11469	0.07383	0.42986	0.43667	0.35066	1.99144	1.15086	0.54447	0.27089	0.26808	0.26154	0.40944	0.33865	0.25781	1.31659	0.84073	0.52757
36270	0.11300	0.11067	0.07236	0.42894	0.43530	0.35034	1.98803	1.14913	0.54439	0.26954	0.26671	0.25973	0.40919	0.33574	0.25543	1.31537	0.83804	0.52543
36440	0.11353	0.11334	0.07344	0.43131	0.43690	0.35150	1.99656	1.15397	0.54571	0.27142	0.26938	0.26155	0.41021	0.33835	0.25649	1.31646	0.84215	0.52868
36600	0.11183	0.11405	0.07187	0.42937	0.43521	0.34836	1.98845	1.14817	0.54336	0.26905	0.26691	0.26015	0.40861	0.33496	0.25811	1.31035	0.83671	0.52537
36760	0.11277	0.11467	0.07423	0.42952	0.43595	0.35171	1.99121	1.15146	0.54567	0.27026	0.26896	0.26161	0.40825	0.34089	0.25590	1.31414	0.83998	0.52774
36930	0.11205	0.11425	0.07246	0.42975	0.43468	0.34887	1.98861	1.14944	0.54222	0.26857	0.26704	0.25938	0.40787	0.33819	0.25620	1.31073	0.83741	0.52552
37090	0.11296	0.11343	0.07459	0.43066	0.43613	0.35145	1.98945	1.15373	0.54570	0.27041	0.26842	0.26124	0.41147	0.33969	0.26032	1.31718	0.83908	0.52765
37250	0.11292	0.11343	0.07357	0.43006	0.43504	0.34836	1.98531	1.14972	0.54279	0.26954	0.26735	0.25927	0.40903	0.33629	0.25403	1.31119	0.83639	0.52522
37420	0.11232	0.11477	0.07434	0.43081	0.43620	0.35033	1.99088	1.15215	0.54431	0.27058	0.26856	0.26055	0.41053	0.33848	0.25923	1.31423	0.83985	0.52742
37580	0.11190	0.11174	0.07363	0.43012	0.43528	0.34915	1.99415	1.15140	0.54388	0.26989	0.26855	0.26100	0.40824	0.33730	0.25465	1.30664	0.83665	0.52529	31.80	6.2	0.00	7.71	0.01267	0.01291	0.01624	0.00788	0.00586	0.00642	0.00468	0.01267	0.01681	0.00681	0.00704	0.00879	0.01489	0.01094	0.01195	0.00220	0.00625	0.00876
37740	0.11076	0.11251	0.07139	0.42703	0.43222	0.34721	1.98137	1.14574	0.53994	0.26781	0.26634	0.25873	0.40914	0.34093	0.25991	1.31423	0.84269	0.52956
37910	0.11414	0.11347	0.07463	0.43233	0.43713	0.35092	1.98257	1.15103	0.54476	0.27134	0.27061	0.26265	0.40952	0.34039	0.25811	1.31330	0.84157	0.52943
38070	0.11136	0.11383	0.07443	0.43248	0.43694	0.35091	1.99449	1.15535	0.54565	0.27136	0.26987	0.26321	0.40989	0.33838	0.25746	1.31398	0.83971	0.52737
38230	0.11075	0.11271	0.07202	0.42903	0.43421	0.34827	1.98688	1.14483	0.54116	0.26826	0.26619	0.26044	0.40828	0.33935	0.25549	1.31136	0.84022	0.52804
38400	0.11323	0.11389	0.07398	0.43022	0.43586	0.34925	1.98934	1.15087	0.54352	0.27092	0.26805	0.26232	0.40918	0.33634	0.25832	1.31132	0.83860	0.52562
38560	0.10827	0.11156	0.07415	0.42849	0.43359	0.34931	1.98179	1.15006	0.54231	0.26940	0.26764	0.26168	0.40729	0.33585	0.25437	1.30824	0.83661	0.52517
38720	0.10933	0.11300	0.07523	0.42772	0.43681	0.35222	1.98869	1.15442	0.54895	0.27590	0.27079	0.26630	0.41283	0.33961	0.25872	1.31896	0.84421	0.53223
38890	0.11456	0.11596	0.07347	0.43255	0.43677	0.35034	1.98467	1.14901	0.54423	0.27437	0.26797	0.26424	0.40938	0.33935	0.26064	1.31790	0.84341	0.53157
39050	0.11386	0.11338	0.07421	0.43314	0.43773	0.35081	1.99102	1.15115	0.54329	0.27566	0.26871	0.26636	0.40965	0.33688	0.25631	1.31440	0.84213	0.52975
39210	0.11071	0.11160	0.07426	0.43090	0.43604	0.34997	1.99086	1.14725	0.54206	0.27696	0.26993	0.26661	0.40759	0.33272	0.25445	1.31104	0.83986	0.52926	31.80	6.0	0.00	7.56	0.01267	0.01291	0.01624	0.00788	0.00586	0.00642	0.00468	0.01267	0.01681	0.00681	0.00704	0.00879	0.01489	0.01094	0.01195	0.00220	0.00625	0.00876
39380	0.11431	0.11485	0.07467	0.43575	0.44054	0.35384	1.99158	1.15499	0.54827	0.28190	0.27320	0.27250	0.41170	0.34211	0.25871	1.31847	0.84518	0.53532
39540	0.11199	0.11269	0.07322	0.43499	0.43909	0.35202	1.98518	1.14813	0.54496	0.28061	0.27040	0.26981	0.40752	0.33606	0.25342	1.31378	0.84131	0.53025
39700	0.11276	0.11566	0.07487	0.43504	0.44164	0.35359	1.98336	1.15131	0.54562	0.28204	0.27190	0.27202	0.41033	0.33926	0.25908	1.31463	0.84271	0.53236
39860	0.11154	0.11061	0.07217	0.43378	0.43812	0.35141	1.98767	1.14900	0.54454	0.27865	0.27095	0.26973	0.40590	0.33764	0.25475	1.31214	0.84064	0.52896
40030	0.10817	0.10976	0.07242	0.43041	0.43471	0.34856	1.98624	1.14427	0.54016	0.27568	0.26778	0.26698	0.41079	0.34022	0.25798	1.31615	0.84483	0.53352
40190	0.11277	0.11533	0.07472	0.43517	0.43951	0.35286	1.99273	1.15266	0.54693	0.27816	0.27110	0.26938	0.41114	0.33912	0.25868	1.31404	0.84080	0.52958
40360	0.11127	0.11362	0.07406	0.43256	0.43812	0.35264	1.98669	1.15112	0.54493	0.27711	0.27144	0.26713	0.40974	0.33969	0.25649	1.31109	0.84054	0.52858
40520	0.11124	0.11167	0.07308	0.43052	0.43675	0.34877	1.99248	1.14882	0.54398	0.27367	0.26949	0.26390	0.40862	0.33712	0.25672	1.31100	0.83820	0.52675
40680	0.10919	0.10939	0.07067	0.42866	0.43377	0.34700	1.98498	1.14641	0.53854	0.26933	0.26606	0.26000	0.40980	0.33904	0.26083	1.31454	0.84273	0.53158
40850	0.11575	0.11409	0.07655	0.43437	0.43735	0.35091	1.98842	1.15250	0.54458	0.27292	0.26986	0.26417	0.41133	0.33915	0.25815	1.30764	0.83979	0.52766	31.75	6.0	0.00	7.56	0.01267	0.01291	0.01624	0.00788	0.00586	0.00642	0.00468	0.01267	0.01681	0.00681	0.00704	0.00879	0.01489	0.01094	0.01195	0.00220	0.00625	0.00876
41010	0.11211	0.11504	0.07417	0.43325	0.43653	0.35225	1.99245	1.15284	0.54438	0.27459	0.27206	0.26407	0.40978	0.33942	0.25825	1.31291	0.84081	0.52965
41170	0.11093	0.11147	0.07293	0.43171	0.43620	0.35007	1.99094	1.14960	0.54249	0.27254	0.27017	0.26208	0.40893	0.33667	0.25660	1.30899	0.83809	0.52615
41340	0.11231	0.11540	0.07363	0.43246	0.43827	0.35184	1.99027	1.15432	0.54767	0.27352	0.27089	0.26435	0.41309	0.34030	0.25724	1.31456	0.84144	0.52931
41500	0.11138	0.11014	0.07419	0.43077	0.43551	0.34874	1.98521	1.14892	0.54390	0.27128	0.26857	0.26166	0.40876	0.33610	0.25309	1.31009	0.83720	0.52546
41660	0.10826	0.10978	0.07104	0.42680	0.43152	0.34581	1.97828	1.14480	0.54068	0.26924	0.26578	0.25938	0.41138	0.34191	0.25863	1.31380	0.84438	0.53173
41830	0.11527	0.11323	0.07295	0.43342	0.43765	0.35126	1.99198	1.15187	0.54496	0.27266	0.26918	0.26345	0.41059	0.34013	0.25828	1.31219	0.84226	0.53010
41990	0.11479	0.11390	0.07449	0.43237	0.43681	0.35075	1.99016	1.15298	0.54522	0.27300	0.26918	0.26291	0.41070	0.33813	0.25639	1.31338	0.84049	0.52918
42150	0.10956	0.11172	0.07119	0.42987	0.43419	0.34917	1.99016	1.14960	0.54232	0.27082	0.26801	0.26135	0.40733	0.33757	0.25409	1.30878	0.83729	0.52634
42320	0.11014	0.11341	0.07550	0.42815	0.43539	0.35136	1.99444	1.15374	0.54790	0.27402	0.27013	0.26408	0.41168	0.34115	0.25960	1.31228	0.84255	0.53031
42480	0.11194	0.11377	0.07430	0.43269	0.43503	0.34901	1.98267	1.14848	0.54193	0.27128	0.26711	0.26082	0.40711	0.33331	0.25378	1.30265	0.83624	0.52682	31.80	6.0	0.00	7.93	0.01267	0.01291	0.01624	0.00788	0.00586	0.00642	0.00468	0.01267	0.01681	0.00680	0.00704	0.00879	0.01489	0.01094	0.01195	0.00220	0.00625	0.00876
42640	0.10884	0.11266	0.07248	0.43056	0.43506	0.35007	1.98944	1.15083	0.54394	0.27247	0.26998	0.26240	0.41232	0.33871	0.25833	1.30830	0.83898	0.52869
42810	0.11189	0.11378	0.07219	0.43097	0.43492	0.34772	1.99400	1.15085	0.54136	0.27102	0.26814	0.26181	0.40723	0.33676	0.25709	1.30236	0.83566	0.52463
42970	0.10861	0.11282	0.07374	0.42824	0.43432	0.35027	1.99352	1.15428	0.54726	0.27398	0.27016	0.26315	0.41049	0.34015	0.25766	1.30383	0.83813	0.52810
43130	0.11165	0.11154	0.07506	0.43051	0.43328	0.34848	1.98443	1.14917	0.54336	0.27170	0.26808	0.26037	0.40668	0.33599	0.25549	1.30535	0.83635	0.52469
43300	0.11297	0.11360	0.07471	0.43231	0.43607	0.35100	1.99652	1.15324	0.54626	0.27402	0.27144	0.26359	0.40991	0.33928	0.25592	1.31012	0.84081	0.52810
43460	0.11278	0.11237	0.07413	0.42930	0.43422	0.34887	1.98779	1.15078	0.54407	0.27264	0.26877	0.26204	0.40896	0.33587	0.25547	1.30915	0.83764	0.52598
43620	0.11373	0.11458	0.07356	0.43115	0.43646	0.35057	1.99098	1.15453	0.54609	0.27277	0.27016	0.26351	0.41098	0.33917	0.25837	1.31349	0.84156	0.52817
43790	0.11317	0.11384	0.07241	0.43013	0.43385	0.34740	1.99419	1.15044	0.54226	0.27020	0.26796	0.26060	0.40790	0.33782	0.25689	1.30813	0.83833	0.52607
43950	0.11010	0.10997	0.07106	0.42783	0.43065	0.34576	1.98572	1.14608	0.54139	0.26874	0.26645	0.25955	0.41179	0.34253	0.26118	1.31484	0.84472	0.53310
44110	0.11376	0.11633	0.07559	0.43388	0.43618	0.35085	1.99703	1.15193	0.54631	0.27225	0.27004	0.26151	0.41078	0.33884	0.25709	1.31396	0.84079	0.52841	31.80	6.0	0.00	7.53	0.01267	0.01291	0.01624	0.00788	0.00586	0.00642	0.00468	0.01267	0.01681	0.00680	0.00704	0.00879	0.01489	0.01094	0.01195	0.00220	0.00625	0.00876
44280	0.11178	0.11562	0.07505	0.43146	0.43669	0.35098	1.98413	1.14736	0.54663	0.27148	0.26887	0.26201	0.41018	0.33584	0.25739	1.30957	0.84193	0.52883
44440	0.11355	0.11294	0.07371	0.42989	0.43438	0.34979	1.98751	1.14895	0.54336	0.27040	0.26864	0.26087	0.40937	0.33541	0.25540	1.31118	0.83917	0.52613
44600	0.11122	0.11336	0.07528	0.43076	0.43490	0.34900	1.99510	1.14838	0.54467	0.27101	0.26961	0.26211	0.41037	0.33622	0.25598	1.31371	0.84278	0.52926
44770	0.11220	0.11290	0.07313	0.43135	0.43436	0.34978	1.98617	1.14966	0.54234	0.27084	0.26964	0.26021	0.40723	0.33381	0.25471	1.30890	0.84104	0.52733
44930	0.10964	0.11153	0.07076	0.42841	0.43278	0.34762	1.98916	1.14767	0.54118	0.26993	0.26784	0.25948	0.40861	0.33991	0.25918	1.31746	0.84742	0.53488
45090	0.11479	0.11659	0.07484	0.43578	0.43864	0.35271	1.98919	1.15193	0.54499	0.27278	0.27150	0.26291	0.41283	0.33836	0.25629	1.31253	0.84601	0.53144
45260	0.11467	0.11593	0.07574	0.43607	0.44243	0.35600	2.00761	1.15575	0.54811	0.27513	0.27313	0.26442	0.41080	0.33929	0.25867	1.31877	0.84819	0.53324
45420	0.11130	0.11431	0.07452	0.43546	0.43937	0.35216	1.99426	1.14861	0.54311	0.27254	0.27099	0.26317	0.40504	0.33457	0.25500	1.30991	0.84394	0.53010
45580	0.11306	0.11207	0.07451	0.43528	0.44008	0.35316	1.99269	1.15099	0.54436	0.27416	0.27356	0.26524	0.40959	0.33778	0.25698	1.31434	0.84654	0.53254
45750	0.11150	0.11360	0.07263	0.43308	0.43747	0.35238	1.98396	1.14589	0.54145	0.27265	0.27000	0.26263	0.40836	0.33506	0.25098	1.31019	0.84180	0.52837	31.75	6.3	0.00	7.61	0.01267	0.01291	0.01624	0.00788	0.00586	0.00642	0.00468	0.01267	0.01681	0.00680	0.00704	0.00879	0.01489	0.01093	0.01195	0.00220	0.00625	0.00876
45910	0.11072	0.10953	0.06978	0.43017	0.43535	0.34895	1.97339	1.14369	0.53930	0.26957	0.26875	0.26041	0.40680	0.33522	0.25616	1.31293	0.84317	0.53057
46070	0.11208	0.11423	0.07344	0.43381	0.43787	0.35237	1.98027	1.14956	0.54299	0.27381	0.27257	0.26422	0.40965	0.33662	0.25436	1.31154	0.84175	0.52895
46240	0.11200	0.11489	0.07403	0.43252	0.43855	0.35422	1.99593	1.15333	0.54692	0.27580	0.27387	0.26665	0.41316	0.34242	0.25850	1.31690	0.84502	0.53273
46400	0.11128	0.11457	0.07306	0.43377	0.43743	0.35179	1.98650	1.14605	0.54190	0.27230	0.27073	0.26267	0.41180	0.33734	0.25753	1.31559	0.84349	0.53024
46560	0.11365	0.11484	0.07412	0.43407	0.43834	0.35123	1.99319	1.14929	0.54459	0.27184	0.27064	0.26247	0.41151	0.33696	0.25753	1.31344	0.84106	0.52931
46730	0.11402	0.11268	0.07253	0.43160	0.43672	0.34929	1.98460	1.14595	0.54279	0.27127	0.27015	0.26113	0.41133	0.33810	0.25719	1.31471	0.84346	0.53080
46890	0.11366	0.11575	0.07690	0.43431	0.43821	0.35142	1.98720	1.15018	0.54606	0.27247	0.27080	0.26362	0.41074	0.33910	0.25689	1.31525	0.84110	0.52820
47050	0.11279	0.11280	0.07285	0.43025	0.43400	0.34694	1.98583	1.14743	0.54217	0.26871	0.26779	0.25981	0.41131	0.34076	0.26085	1.31652	0.84566	0.53171
47220	0.11466	0.11508	0.07678	0.43467	0.43781	0.34992	1.98924	1.15158	0.54390	0.27196	0.27036	0.26239	0.40829	0.33534	0.25908	1.31361	0.84230	0.52793
47380	0.11225	0.11404	0.07203	0.43023	0.43264	0.34668	1.98207	1.14770	0.54032	0.26775	0.26664	0.25980	0.40888	0.33949	0.26093	1.31658	0.84518	0.53130	31.80	6.1	0.00	7.58	0.01267	0.01291	0.01624	0.00788	0.00586	0.00642	0.00468	0.01267	0.01681	0.00680	0.00704	0.00879	0.01489	0.01093	0.01195	0.00220	0.00625	0.00876
47550	0.11458	0.11468	0.07440	0.43308	0.43598	0.35097	1.98402	1.15216	0.54534	0.27187	0.27003	0.26302	0.40998	0.33695	0.25764	1.31321	0.84199	0.52781
47710	0.11513	0.11714	0.07536	0.43150	0.43542	0.35040	1.99049	1.15291	0.54586	0.27194	0.26967	0.26324	0.40928	0.33931	0.25628	1.31278	0.84245	0.52822
47870	0.11421	0.11378	0.07437	0.42984	0.43390	0.34944	1.98565	1.14931	0.54244	0.27100	0.26738	0.26232	0.40781	0.33726	0.25781	1.31287	0.83909	0.52683
48040	0.11048	0.11242	0.07338	0.42769	0.43222	0.34721	1.98341	1.14413	0.54060	0.26865	0.26703	0.26020	0.41301	0.33775	0.26052	1.31882	0.84593	0.53251
48200	0.11572	0.11667	0.07525	0.43472	0.43851	0.35182	1.98844	1.15182	0.54536	0.27300	0.27022	0.26337	0.40818	0.33768	0.25916	1.31515	0.84370	0.52995
48360	0.11269	0.11403	0.07600	0.43297	0.43785	0.35240	1.98931	1.15223	0.54517	0.27362	0.27192	0.26485	0.41111	0.34001	0.25679	1.31646	0.84225	0.52959
48530	0.11270	0.11177	0.07444	0.43215	0.43600	0.35012	1.98254	1.14832	0.54260	0.27331	0.26918	0.26293	0.40954	0.33645	0.25493	1.31308	0.84009	0.52800
48690	0.11398	0.11517	0.07473	0.43340	0.43724	0.35282	1.98847	1.15012	0.54646	0.27547	0.27075	0.26529	0.41128	0.34085	0.25776	1.31819	0.84454	0.53034
48850	0.11203	0.11606	0.07518	0.43244	0.43713	0.35015	1.98987	1.14919	0.54207	0.27245	0.26890	0.26311	0.40835	0.33778	0.25595	1.31198	0.84065	0.52661
49020	0.11411	0.11600	0.07754	0.43411	0.43725	0.35316	1.98746	1.15206	0.54547	0.27596	0.27234	0.26660	0.41217	0.33917	0.25689	1.31683	0.84617	0.53224	31.80	6.1	0.00	7.61	0.01267	0.01291	0.01624	0.00788	0.00586	0.00642	0.00468	0.01267	0.01681	0.00681	0.00704	0.00879	0.01489	0.01094	0.01195	0.00220	0.00625	0.00876
49180	0.11093	0.11288	0.07377	0.43295	0.43590	0.35018	1.98782	1.14759	0.54265	0.27351	0.26952	0.26454	0.40715	0.33707	0.25481	1.31236	0.84164	0.52817
49340	0.11203	0.11433	0.07493	0.43178	0.43764	0.35164	1.98978	1.15012	0.54736	0.27474	0.27110	0.26496	0.41029	0.33909	0.25717	1.31463	0.84370	0.52993
49510	0.11208	0.11321	0.07375	0.43142	0.43598	0.34958	1.98567	1.15193	0.54353	0.27286	0.27010	0.26370	0.41045	0.33735	0.25687	1.31358	0.84370	0.53091
49670	0.11001	0.11370	0.07389	0.43239	0.43597	0.35067	1.98687	1.15131	0.54520	0.27386	0.27037	0.26444	0.40872	0.33810	0.25667	1.31628	0.84259	0.52936
49830	0.11242	0.11370	0.07343	0.43057	0.43420	0.35036	1.98464	1.15017	0.54307	0.27189	0.26964	0.26242	0.40837	0.33695	0.25318	1.31261	0.84168	0.52792
50000	0.10956	0.11295	0.07655	0.42982	0.43676	0.35271	1.98564	1.15113	0.54814	0.27510	0.27135	0.26553	0.41103	0.33961	0.25775	1.31877	0.84503	0.53068
50160	0.11286	0.11598	0.07328	0.43182	0.43466	0.34963	1.99544	1.15120	0.54519	0.27238	0.26924	0.26316	0.40844	0.33584	0.25577	1.31236	0.84061	0.52719
50320	0.10990	0.11022	0.07513	0.42970	0.43626	0.35194	2.00230	1.14995	0.54679	0.27425	0.27167	0.26493	0.40954	0.33798	0.25715	1.31573	0.84323	0.53024
50490	0.11261	0.11471	0.07362	0.43167	0.43441	0.34938	1.98324	1.14997	0.54401	0.27253	0.26914	0.26269	0.40847	0.33867	0.25438	1.31143	0.84060	0.52800
50650	0.11107	0.11153	0.07508	0.43015	0.43513	0.35029	1.98920	1.15345	0.54516	0.27353	0.27233	0.26321	0.41181	0.33805	0.25513	1.31444	0.84310	0.53021	31.80	6.1	0.00	7.69	0.01267	0.01291	0.01624	0.00788	0.00586	0.00642	0.00468	0.01267	0.01681	0.00680	0.00704	0.00879	0.01489	0.01094	0.01195	0.00220	0.00626	0.00876
50810	0.11243	0.11355	0.07223	0.43090	0.43345	0.34877	1.98697	1.15015	0.54253	0.27147	0.26876	0.26231	0.40736	0.33591	0.25613	1.30971	0.84076	0.52717
50980	0.11141	0.11482	0.07526	0.43193	0.43794	0.35109	1.99374	1.15266	0.54768	0.27333	0.27139	0.26407	0.41184	0.33735	0.25684	1.31304	0.84355	0.53016
51140	0.11194	0.11424	0.07420	0.43075	0.43347	0.34809	1.98700	1.14952	0.54391	0.27019	0.26957	0.26197	0.40620	0.33559	0.25436	1.31220	0.83953	0.52662
51300	0.11125	0.11492	0.07501	0.43173	0.43547	0.35018	1.99290	1.15260	0.54594	0.27262	0.26980	0.26343	0.41084	0.33591	0.25736	1.31304	0.84323	0.52930
51470	0.11300	0.11145	0.07337	0.42991	0.43281	0.34777	1.98420	1.15056	0.54268	0.27013	0.26647	0.26174	0.40721	0.33581	0.25398	1.31195	0.84111	0.52675
51630	0.10861	0.11359	0.07525	0.43070	0.43592	0.34918	1.98957	1.15025	0.54556	0.27191	0.26924	0.26258	0.41205	0.33925	0.26020	1.31410	0.84395	0.52933
51790	0.11036	0.11244	0.07451	0.42954	0.43296	0.34751	1.99167	1.14840	0.54425	0.26899	0.26716	0.26054	0.40911	0.33572	0.25617	1.30988	0.84098	0.52696
51960	0.11410	0.11256	0.07313	0.43012	0.43437	0.34894	1.99659	1.15141	0.54357	0.27025	0.26964	0.26165	0.40987	0.33812	0.25669	1.31157	0.84349	0.52863
52120	0.11189	0.11434	0.07414	0.42958	0.43327	0.34754	1.98624	1.15119	0.54457	0.27013	0.26596	0.26064	0.40801	0.33819	0.25521	1.31131	0.84087	0.52748
52280	0.11024	0.11060	0.07100	0.42749	0.43099	0.34455	1.98380	1.14703	0.54099	0.26651	0.26310	0.25724	0.41071	0.34149	0.26044	1.31517	0.84507	0.53228	31.80	6.1	0.00	7.59	0.01267	0.01291	0.01624	0.00788	0.00586	0.00642	0.00468	0.01267	0.01681	0.00681	0.00704	0.00879	0.01489	0.01094	0.01195	0.00220	0.00625	0.00876
52450	0.11465	0.11630	0.07568	0.43278	0.43581	0.34959	1.98659	1.15191	0.54532	0.27078	0.26774	0.26136	0.40944	0.33845	0.25699	1.31078	0.84057	0.52756
52610	0.11362	0.11643	0.07527	0.43169	0.43610	0.35051	1.99320	1.15617	0.54706	0.27221	0.26875	0.26220	0.41110	0.33810	0.25772	1.31293	0.84276	0.52846
52770	0.11339	0.11338	0.07473	0.42915	0.43378	0.34807	1.98880	1.15022	0.54418	0.27059	0.26558	0.26007	0.41072	0.33417	0.25716	1.31010	0.83841	0.52574
52940	0.11508	0.11495	0.07507	0.43019	0.43517	0.34905	1.98603	1.15262	0.54636	0.27071	0.26817	0.26102	0.41023	0.33837	0.25732	1.30918	0.83987	0.52659
53100	0.11206	0.11457	0.07365	0.42854	0.43349	0.34615	1.98397	1.14951	0.54455	0.26973	0.26575	0.25949	0.41022	0.33587	0.25676	1.30859	0.83625	0.52388
53260	0.10962	0.11070	0.07254	0.42461	0.42960	0.34362	1.98520	1.14401	0.54087	0.26689	0.26373	0.25721	0.41171	0.34011	0.25745	1.31133	0.84182	0.52898
53430	0.11573	0.11523	0.07395	0.42977	0.43241	0.34672	1.99605	1.15285	0.54419	0.26944	0.26629	0.26005	0.41212	0.34113	0.25888	1.31314	0.83902	0.52670
53590	0.11231	0.11493	0.07506	0.42888	0.43211	0.34714	1.99594	1.15168	0.54568	0.27057	0.26758	0.25998	0.41092	0.33836	0.25990	1.30951	0.83896	0.52603
53750	0.11329	0.11359	0.07220	0.42854	0.43087	0.34676	1.98701	1.14804	0.54412	0.26937	0.26481	0.25849	0.41115	0.33947	0.25815	1.30888	0.83952	0.52779
53920	0.11326	0.11259	0.07384	0.42927	0.43267	0.34806	1.98960	1.14901	0.54539	0.27082	0.26570	0.25975	0.41034	0.33512	0.25689	1.31150	0.83754	0.52568	31.80	6.2	0.00	7.54	0.01267	0.01291	0.01624	0.00788	0.00586	0.00642	0.00468	0.01267	0.01681	0.00681	0.00704	0.00879	0.01489	0.01093	0.01195	0.00220	0.00625	0.00876
54080	0.11163	0.11226	0.07255	0.42720	0.43040	0.34601	1.98741	1.14813	0.54390	0.26921	0.26425	0.25853	0.41086	0.33934	0.25840	1.31150	0.84180	0.52845
54240	0.11264	0.11278	0.07485	0.42940	0.43348	0.34836	1.99307	1.15246	0.54535	0.27143	0.26557	0.26100	0.40929	0.33764	0.25681	1.31070	0.83904	0.52714
54410	0.11242	0.11488	0.07400	0.42841	0.43196	0.34711	1.99228	1.15095	0.54346	0.27035	0.26625	0.25898	0.41288	0.34148	0.26163	1.31551	0.84362	0.53127
54570	0.11397	0.11710	0.07643	0.43350	0.43572	0.35112	1.99321	1.15347	0.54764	0.27303	0.26784	0.26215	0.41161	0.33921	0.25653	1.31475	0.84141	0.52836
54730	0.11514	0.11498	0.07536	0.43014	0.43388	0.34935	1.99172	1.15192	0.54595	0.27182	0.26688	0.26111	0.41174	0.33770	0.25789	1.31420	0.83953	0.52687
54900	0.11291	0.11324	0.07309	0.42807	0.43155	0.34753	1.98613	1.14932	0.54447	0.27023	0.26590	0.25886	0.40935	0.33416	0.25514	1.31125	0.83878	0.52598
55060	0.11084	0.10985	0.07199	0.42671	0.42913	0.34500	1.98982	1.14520	0.54058	0.26674	0.26361	0.25666	0.41087	0.33968	0.26004	1.31209	0.84377	0.53043
55230	0.11410	0.11562	0.07485	0.42969	0.43450	0.34842	1.98979	1.15353	0.54648	0.27060	0.26805	0.26060	0.41159	0.34099	0.25761	1.31218	0.83824	0.52609
55390	0.11185	0.11382	0.07512	0.42883	0.43439	0.34861	1.99153	1.15270	0.54616	0.27078	0.26769	0.26091	0.41159	0.33976	0.25742	1.31091	0.83991	0.52693
55550	0.11238	0.11281	0.07374	0.42817	0.43259	0.34699	1.99259	1.15049	0.54454	0.26814	0.26497	0.25924	0.41100	0.33607	0.25637	1.31044	0.83874	0.52531	31.80	6.0	0.00	7.65	0.01267	0.01291	0.01624	0.00788	0.00586	0.00642	0.00468	0.01267	0.01681	0.00681	0.00704	0.00879	0.01489	0.01094	0.01195	0.00220	0.00625	0.00876
55720	0.11259	0.11377	0.07720	0.43022	0.43488	0.34990	1.98775	1.15473	0.54526	0.27072	0.26792	0.26202	0.41189	0.33851	0.25936	1.31495	0.84090	0.52753
55880	0.11212	0.11350	0.07371	0.42883	0.43175	0.34887	1.98495	1.15005	0.54342	0.26823	0.26616	0.25925	0.40907	0.33529	0.25652	1.31120	0.83828	0.52490
56040	0.11164	0.11570	0.07562	0.43016	0.43462	0.35015	1.98713	1.15392	0.54610	0.27004	0.26591	0.26157	0.41304	0.34225	0.26084	1.31128	0.84111	0.52768
56210	0.11368	0.11331	0.07316	0.42780	0.43178	0.34638	1.98951	1.15060	0.54457	0.26812	0.26415	0.25849	0.40729	0.33585	0.25624	1.30825	0.83663	0.52453
56370	0.11294	0.11513	0.07690	0.42910	0.43313	0.34910	1.99183	1.15034	0.54746	0.26867	0.26680	0.25997	0.41109	0.34013	0.26015	1.31015	0.83950	0.52656
56530	0.11378	0.11304	0.07528	0.42773	0.43044	0.34546	1.98185	1.15047	0.54175	0.26658	0.26346	0.25785	0.40796	0.33712	0.25669	1.30774	0.83537	0.52279
56700	0.11276	0.11395	0.07589	0.42887	0.43279	0.34830	1.99071	1.15132	0.54577	0.26830	0.26472	0.25948	0.40998	0.33971	0.25818	1.30901	0.83831	0.52602
56860	0.11310	0.11424	0.07539	0.42636	0.43061	0.34561	1.98420	1.14965	0.54469	0.26605	0.26250	0.25719	0.40797	0.33633	0.25689	1.30479	0.83569	0.52277
57020	0.10837	0.11317	0.07285	0.42409	0.42768	0.34220	1.98551	1.14595	0.54058	0.26449	0.26202	0.25502	0.41153	0.33887	0.26269	1.31023	0.84093	0.52918
57190	0.11596	0.11513	0.07475	0.42982	0.43396	0.34727	1.98906	1.15121	0.54500	0.26796	0.26506	0.25811	0.41091	0.33926	0.26070	1.30971	0.83936	0.52679	31.80	6.0	0.00	7.60	0.01267	0.01291	0.01624	0.00788	0.00586	0.00642	0.00468	0.01267	0.01681	0.00680	0.00704	0.00879	0.01489	0.01094	0.01195	0.00220	0.00625	0.00876
57350	0.11539	0.11749	0.07608	0.42951	0.43400	0.34849	1.98967	1.15488	0.54755	0.26863	0.26570	0.25880	0.41243	0.34084	0.26087	1.31021	0.83844	0.52541
57510	0.11352	0.11574	0.07555	0.42549	0.42959	0.34469	1.98450	1.15009	0.54347	0.26512	0.26207	0.25579	0.41202	0.34034	0.25763	1.31042	0.83712	0.52502
57680	0.11214	0.11731	0.07517	0.42769	0.43140	0.34546	1.98830	1.14981	0.54361	0.26629	0.26245	0.25617	0.40941	0.33559	0.25547	1.30945	0.83609	0.52320
57840	0.11113	0.11315	0.07554	0.42505	0.43016	0.34588	1.98939	1.15236	0.54260	0.26545	0.26197	0.25562	0.40624	0.33734	0.25773	1.30840	0.83518	0.52306
58000	0.11204	0.11464	0.07833	0.42515	0.43261	0.34926	1.99107	1.15752	0.54865	0.26882	0.26504	0.25893	0.41243	0.34021	0.26210	1.31312	0.83965	0.52680
58170	0.11674	0.11398	0.07396	0.42633	0.43155	0.34495	1.98226	1.15027	0.54351	0.26616	0.26119	0.25604	0.40927	0.33579	0.25926	1.30962	0.83493	0.52254
58330	0.11258	0.11543	0.07647	0.42524	0.43224	0.34766	1.98866	1.15728	0.54797	0.26916	0.26440	0.25870	0.41341	0.34031	0.25996	1.31418	0.83905	0.52590
58490	0.11338	0.11424	0.07477	0.42683	0.43061	0.34495	1.98699	1.14931	0.54252	0.26695	0.26241	0.25625	0.41019	0.33771	0.25543	1.30853	0.83499	0.52305
58660	0.11378	0.11525	0.07594	0.42877	0.43305	0.34870	1.99462	1.15446	0.54806	0.27004	0.26577	0.25946	0.41289	0.34097	0.26093	1.31266	0.83956	0.52702
58820	0.11354	0.11450	0.07366	0.42750	0.43043	0.34596	1.98399	1.14805	0.54508	0.26719	0.26242	0.25675	0.40895	0.33746	0.25684	1.30707	0.83494	0.52261	31.80	6.1	0.00	7.68	0.01267	0.01291	0.01624	0.00788	0.00586	0.00642	0.00468	0.01267	0.01681	0.00681	0.00704	0.00879	0.01489	0.01094	0.01196	0.00220	0.00625	0.00876
58980	0.11217	0.11460	0.07538	0.42708	0.43282	0.34737	1.99143	1.15444	0.54515	0.26791	0.26467	0.25859	0.41082	0.34047	0.26124	1.31066	0.83769	0.52497
59150	0.11358	0.11614	0.07422	0.42628	0.43172	0.34581	1.99029	1.14961	0.54342	0.26667	0.26234	0.25648	0.40947	0.33704	0.25819	1.30682	0.83472	0.52261
59310	0.11343	0.11707	0.07580	0.42819	0.43271	0.34762	1.99079	1.15540	0.54805	0.26875	0.26533	0.25864	0.40844	0.33937	0.25693	1.31264	0.83772	0.52414
59470	0.11571	0.11462	0.07481	0.42660	0.43106	0.34644	1.98704	1.15188	0.54573	0.26652	0.26354	0.25694	0.40663	0.33589	0.25617	1.31028	0.83617	0.52256
59640	0.11304	0.11565	0.07595	0.42838	0.43288	0.34694	1.98819	1.15476	0.54527	0.26903	0.26454	0.25817	0.41145	0.34026	0.25729	1.31534	0.83866	0.52540
59800	0.11237	0.11351	0.07456	0.42590	0.43038	0.34460	1.98402	1.15159	0.54312	0.26674	0.26228	0.25665	0.40912	0.33843	0.25403	1.30665	0.83451	0.52218
59960	0.11188	0.11776	0.07698	0.42667	0.43322	0.34657	1.99359	1.15268	0.54675	0.26709	0.26434	0.25767	0.40903	0.34033	0.25735	1.30893	0.83706	0.52389
60130	0.11271	0.11435	0.07419	0.42607	0.43088	0.34424	1.98620	1.15030	0.54371	0.26546	0.26250	0.25577	0.41043	0.33539	0.25803	1.30627	0.83472	0.52120
60290	0.11443	0.11706	0.07634	0.42791	0.43285	0.34737	1.99936	1.15324	0.54847	0.26810	0.26459	0.25772	0.41155	0.34009	0.25991	1.31070	0.83780	0.52497
60450	0.11371	0.11476	0.07498	0.42644	0.42995	0.34490	1.98823	1.14907	0.54578	0.26602	0.26283	0.25553	0.40935	0.33968	0.25781	1.30722	0.83464	0.52106	31.80	6.0	0.00	7.60	0.01267	0.01291	0.01624	0.00788	0.00586	0.00642	0.00468	0.01267	0.01681	0.00681	0.00704	0.00879	0.01489	0.01094	0.01195	0.00220	0.00625	0.00876
60620	0.11260	0.11406	0.07769	0.42843	0.43264	0.34693	1.98943	1.15272	0.54820	0.26787	0.26531	0.25801	0.41259	0.34102	0.26077	1.31046	0.83733	0.52452
60780	0.11360	0.11239	0.07392	0.42581	0.42962	0.34472	1.98333	1.14997	0.54520	0.26490	0.26242	0.25533	0.41021	0.33743	0.25587	1.30760	0.83397	0.52071
60940	0.11077	0.11157	0.07238	0.42223	0.42699	0.34125	1.98809	1.14552	0.54117	0.26140	0.26025	0.25299	0.41153	0.34069	0.26267	1.31004	0.84077	0.52647
61110	0.11502	0.11728	0.07609	0.42860	0.43249	0.34632	1.99357	1.15083	0.54644	0.26626	0.26322	0.25697	0.41277	0.34024	0.25681	1.30709	0.83829	0.52426
61270	0.11367	0.11487	0.07501	0.42699	0.43129	0.34639	1.98923	1.15283	0.54619	0.26605	0.26240	0.25600	0.41029	0.34021	0.25774	1.31038	0.83706	0.52288
61430	0.11427	0.11251	0.07387	0.42474	0.42867	0.34380	1.98328	1.15017	0.54321	0.26384	0.26104	0.25362	0.40666	0.33456	0.25562	1.30528	0.83283	0.51940
61600	0.10885	0.11369	0.07639	0.42332	0.43082	0.34685	1.99430	1.15536	0.54904	0.26819	0.26478	0.25801	0.41194	0.34391	0.26180	1.31434	0.84040	0.52592
61760	0.11354	0.11570	0.07607	0.42693	0.43057	0.34604	1.99615	1.15189	0.54404	0.26527	0.26169	0.25478	0.41141	0.33861	0.25683	1.30650	0.83498	0.52152
61920	0.11187	0.11373	0.07578	0.42510	0.43176	0.34785	1.99766	1.15496	0.54770	0.26748	0.26497	0.25726	0.41144	0.34243	0.25942	1.31287	0.83901	0.52574
62090	0.11271	0.11580	0.07726	0.42724	0.42961	0.34659	1.99009	1.15100	0.54515	0.26341	0.26201	0.25463	0.41186	0.33785	0.25490	1.30335	0.83503	0.52172	31.75	6.0	0.00	7.60	0.01267	0.01291	0.01624	0.00788	0.00586	0.00642	0.00468	0.01267	0.01681	0.00680	0.00704	0.00879	0.01489	0.01094	0.01195	0.00220	0.00626	0.00876
62250	0.10941	0.11368	0.07500	0.42448	0.42929	0.34764	1.98849	1.15584	0.54802	0.26703	0.26433	0.25668	0.41413	0.33910	0.25862	1.30828	0.83843	0.52474
62410	0.11325	0.11445	0.07424	0.42640	0.42950	0.34595	1.98248	1.14987	0.54328	0.26535	0.26187	0.25493	0.40940	0.33458	0.25667	1.30799	0.83497	0.52203
62580	0.11141	0.11264	0.07296	0.42303	0.42645	0.34306	1.98103	1.14732	0.54137	0.26250	0.26009	0.25196	0.41162	0.34168	0.26231	1.31086	0.84232	0.52829
62740	0.11337	0.11474	0.07583	0.42995	0.43306	0.34926	1.99568	1.15481	0.54707	0.26758	0.26426	0.25730	0.41208	0.33964	0.25876	1.30866	0.83692	0.52462
62900	0.11353	0.11596	0.07642	0.42783	0.43132	0.34726	1.98869	1.15746	0.54621	0.26632	0.26466	0.25624	0.41070	0.34163	0.25809	1.30938	0.83736	0.52450
63060	0.11040	0.11468	0.07597	0.42616	0.43056	0.34649	1.99165	1.15152	0.54405	0.26473	0.26217	0.25511	0.41000	0.33800	0.25788	1.30495	0.83460	0.52183
63230	0.11202	0.11244	0.07208	0.42500	0.42711	0.34330	1.98863	1.14979	0.54241	0.26239	0.26089	0.25233	0.41307	0.34351	0.26092	1.31153	0.84137	0.52783
63390	0.11478	0.11682	0.07784	0.42911	0.43217	0.34902	1.99490	1.15446	0.54628	0.26637	0.26429	0.25619	0.41299	0.33888	0.25839	1.30976	0.83793	0.52427
63560	0.11508	0.11563	0.07430	0.42789	0.43157	0.34881	1.99434	1.15443	0.54725	0.26634	0.26394	0.25603	0.41248	0.33988	0.25872	1.30660	0.83743	0.52544
63720	0.11252	0.11468	0.07327	0.42637	0.42927	0.34607	1.98649	1.15255	0.54450	0.26501	0.26060	0.25487	0.41063	0.33767	0.25694	1.30839	0.83502	0.52230	31.80	6.0	0.00	7.72	0.01267	0.01291	0.01624	0.00788	0.00586	0.00642	0.00468	0.01267	0.01681	0.00681	0.00704	0.00879	0.01489	0.01094	0.01195	0.00220	0.00626	0.00876
63880	0.11051	0.11520	0.07717	0.42802	0.43173	0.34819	1.98996	1.15383	0.54769	0.26729	0.26476	0.25676	0.41404	0.33878	0.25823	1.31109	0.83804	0.52459
64050	0.11191	0.11512	0.07414	0.42634	0.42988	0.34616	1.98434	1.15038	0.54635	0.26481	0.26138	0.25487	0.40894	0.33806	0.25718	1.30860	0.83509	0.52269
64210	0.11404	0.11584	0.07730	0.42827	0.43125	0.34863	1.98549	1.15321	0.54689	0.26724	0.26413	0.25758	0.41181	0.34111	0.26042	1.30970	0.83869	0.52567
64370	0.11304	0.11533	0.07628	0.42742	0.43002	0.34600	1.98526	1.15328	0.54495	0.26544	0.26089	0.25474	0.40789	0.33726	0.25875	1.30763	0.83598	0.52233
64540	0.11570	0.11452	0.07626	0.42819	0.43336	0.34832	1.99273	1.15595	0.54815	0.26807	0.26452	0.25837	0.41374	0.34196	0.25868	1.31337	0.84016	0.52739
64700	0.11590	0.11520	0.07533	0.42802	0.43177	0.34643	1.98884	1.15002	0.54450	0.26486	0.26335	0.25509	0.41063	0.33878	0.25715	1.30852	0.83490	0.52211
64860	0.11192	0.11462	0.07712	0.42722	0.43070	0.34798	1.98747	1.15572	0.54680	0.26673	0.26423	0.25744	0.41179	0.33986	0.25974	1.31219	0.83903	0.52526
65030	0.11299	0.11373	0.07361	0.42604	0.42889	0.34494	1.98205	1.15046	0.54445	0.26446	0.26204	0.25501	0.40873	0.33759	0.25591	1.30582	0.83545	0.52269
65190	0.10933	0.11277	0.07348	0.42285	0.42627	0.34166	1.97875	1.14605	0.53896	0.26196	0.26010	0.25222	0.40943	0.33619	0.25846	1.30532	0.83729	0.52352
65350	0.11230	0.11273	0.07494	0.42570	0.42874	0.34463	1.99482	1.15140	0.54304	0.26470	0.26141	0.25460	0.41153	0.33788	0.25988	1.30987	0.83712	0.52477	31.80	6.1	0.00	7.54	0.01267	0.01291	0.01624	0.00788	0.00586	0.00642	0.00468	0.01267	0.01681	0.00680	0.00704	0.00879	0.01489	0.01093	0.01195	0.00220	0.00626	0.00876
65520	0.11421	0.11517	0.07536	0.42714	0.43078	0.34651	1.98189	1.15236	0.54694	0.26449	0.26261	0.25565	0.41250	0.33849	0.25890	1.30978	0.83662	0.52312
65680	0.11555	0.11372	0.07323	0.42569	0.42906	0.34407	1.98541	1.15130	0.54412	0.26369	0.26191	0.25397	0.41358	0.34005	0.26140	1.31046	0.84069	0.52736
65850	0.11627	0.11744	0.07688	0.42960	0.43252	0.34763	1.99930	1.15589	0.54733	0.26659	0.26517	0.25812	0.41365	0.34060	0.25958	1.31206	0.83768	0.52495
66010	0.11367	0.11341	0.07751	0.42736	0.43154	0.34742	1.98927	1.15262	0.54663	0.26687	0.26340	0.25648	0.41239	0.33766	0.25998	1.31295	0.83881	0.52428
66170	0.11114	0.11180	0.07516	0.42610	0.43047	0.34463	1.99168	1.15096	0.54415	0.26480	0.26202	0.25428	0.40899	0.33411	0.25583	1.30578	0.83442	0.52121
66340	0.11249	0.11326	0.07601	0.42797	0.43173	0.34690	1.98941	1.15139	0.54552	0.26612	0.26484	0.25713	0.41064	0.33709	0.25923	1.31092	0.83849	0.52444
66500	0.11300	0.11324	0.07525	0.42589	0.43096	0.34584	1.98692	1.15073	0.54473	0.26508	0.26355	0.25499	0.40981	0.33654	0.25686	1.30991	0.83484	0.52168
66660	0.11249	0.11412	0.07397	0.42687	0.43162	0.34591	1.98863	1.15116	0.54647	0.26582	0.26481	0.25623	0.41019	0.33868	0.25817	1.30983	0.83776	0.52339
66830	0.11239	0.11243	0.07379	0.42588	0.42954	0.34447	1.98704	1.15057	0.54375	0.26438	0.26202	0.25548	0.40918	0.33804	0.25694	1.30709	0.83482	0.52145
66990	0.11362	0.11389	0.07610	0.42673	0.43204	0.34596	1.98785	1.15443	0.54685	0.26604	0.26472	0.25702	0.41249	0.33875	0.25806	1.31131	0.83710	0.52198	31.80	6.1	0.00	7.68	0.01267	0.01291	0.01624	0.00788	0.00586	0.00642	0.00468	0.01267	0.01681	0.00681	0.00704	0.00879	0.01489	0.01094	0.01195	0.00220	0.00626	0.00876
67150	0.11181	0.11302	0.07490	0.42506	0.43038	0.34429	1.98159	1.15087	0.54286	0.26400	0.26271	0.25580	0.40881	0.33529	0.25812	1.30916	0.83539	0.52122
67320	0.11391	0.11636	0.07600	0.42799	0.43239	0.34666	1.99197	1.15480	0.54691	0.26630	0.26458	0.25797	0.41576	0.33897	0.25840	1.31287	0.83919	0.52430
67480	0.11297	0.11484	0.07482	0.42761	0.43125	0.34542	1.98931	1.15279	0.54482	0.26450	0.26323	0.25595	0.41332	0.33750	0.25536	1.30882	0.83717	0.52164
67640	0.11246	0.11583	0.07593	0.42723	0.43227	0.34613	1.99266	1.15520	0.54815	0.26558	0.26360	0.25711	0.41220	0.34023	0.25980	1.31152	0.83766	0.52406
67810	0.11225	0.11445	0.07490	0.42680	0.43071	0.34437	1.98903	1.15453	0.54339	0.26479	0.26303	0.25639	0.41081	0.34050	0.25532	1.30743	0.83655	0.52180
67970	0.11231	0.11642	0.07520	0.42723	0.43187	0.34762	1.98945	1.15358	0.54745	0.26576	0.26430	0.25792	0.41214	0.34067	0.25561	1.31430	0.83889	0.52370
68130	0.11279	0.11571	0.07269	0.42650	0.43068	0.34479	1.98458	1.14991	0.54543	0.26419	0.26295	0.25602	0.40811	0.33790	0.25726	1.30785	0.83549	0.52047
68300	0.11043	0.11054	0.07296	0.42380	0.42786	0.34170	1.98542	1.15063	0.54080	0.26276	0.26165	0.25306	0.41198	0.34222	0.25955	1.31422	0.84001	0.52584
68460	0.11381	0.11484	0.07593	0.42995	0.43321	0.34635	1.98640	1.15561	0.54571	0.26626	0.26533	0.25688	0.41147	0.33890	0.26018	1.31261	0.83747	0.52234
68620	0.11354	0.11609	0.07565	0.42798	0.43274	0.34594	1.99478	1.15637	0.54600	0.26636	0.26639	0.25830	0.41244	0.34148	0.25924	1.31022	0.83767	0.52219	31.80	6.1	0.00	7.60	0.01267	0.01291	0.01624	0.00788	0.00586	0.00642	0.00468	0.01267	0.01681	0.00681	0.00704	0.00879	0.01489	0.01094	0.01195	0.00220	0.00626	0.00876
68790	0.11329	0.11475	0.07380	0.42718	0.43145	0.34470	1.99084	1.15129	0.54630	0.26475	0.26382	0.25624	0.41273	0.34276	0.25785	1.31005	0.83817	0.52359
68950	0.11411	0.11626	0.07503	0.42768	0.43195	0.34557	1.99050	1.15186	0.54631	0.26576	0.26526	0.25708	0.41206	0.34002	0.26005	1.30883	0.83700	0.52198
69110	0.11444	0.11254	0.07517	0.42572	0.42887	0.34313	1.98399	1.15069	0.54213	0.26437	0.26167	0.25504	0.40631	0.33648	0.25590	1.30782	0.83343	0.51938
69280	0.11160	0.11331	0.07603	0.42418	0.43217	0.34810	1.99602	1.15551	0.54836	0.26765	0.26713	0.25992	0.41223	0.34451	0.25953	1.31216	0.84047	0.52509
69440	0.11434	0.11394	0.07473	0.42773	0.43072	0.34529	1.98541	1.14993	0.54372	0.26497	0.26380	0.25634	0.40738	0.33815	0.25507	1.30537	0.83519	0.52092
69600	0.10951	0.11176	0.07583	0.42612	0.43090	0.34653	1.99635	1.15472	0.54729	0.26721	0.26530	0.25851	0.41134	0.34304	0.25939	1.30988	0.83839	0.52303
69760	0.11347	0.11404	0.07437	0.42757	0.43039	0.34575	1.98947	1.15274	0.54396	0.26556	0.26338	0.25572	0.40825	0.33730	0.25695	1.30499	0.83384	0.52008
69930	0.11057	0.11486	0.07444	0.42510	0.43063	0.34613	1.99235	1.15175	0.54435	0.26579	0.26417	0.25768	0.41095	0.33900	0.25901	1.30676	0.83679	0.52251
70090	0.11288	0.11267	0.07437	0.42723	0.43087	0.34511	1.99109	1.15185	0.54393	0.26536	0.26300	0.25631	0.40803	0.33770	0.25848	1.30419	0.83442	0.52020
70260	0.11312	0.11516	0.07554	0.42645	0.43103	0.34605	1.98600	1.15138	0.54585	0.26603	0.26363	0.25700	0.41086	0.33617	0.25414	1.30178	0.83562	0.52149	31.80	6.1	0.00	7.62	0.01267	0.01291	0.01624	0.00788	0.00586	0.00642	0.00468	0.01267	0.01681	0.00680	0.00704	0.00879	0.01489	0.01094	0.01196	0.00220	0.00625	0.00875
70420	0.11459	0.11380	0.07439	0.42693	0.42979	0.34550	1.98653	1.14979	0.54370	0.26570	0.26481	0.25589	0.41152	0.33641	0.25741	1.30321	0.83408	0.52005
70580	0.11381	0.11510	0.07630	0.42670	0.43097	0.34581	1.99019	1.15437	0.54723	0.26791	0.26595	0.25759	0.40970	0.33838	0.25935	1.30574	0.83608	0.52128
70750	0.11304	0.11339	0.07368	0.42579	0.42958	0.34339	1.98471	1.14974	0.54425	0.26439	0.26382	0.25661	0.40903	0.33596	0.25586	1.30174	0.83318	0.51935
70910	0.11428	0.11642	0.07698	0.42819	0.43231	0.34773	1.99058	1.15396	0.54812	0.26747	0.26608	0.25868	0.41139	0.33952	0.25863	1.30625	0.83843	0.52328
71070	0.11283	0.11382	0.07461	0.42717	0.43126	0.34511	1.99394	1.15333	0.54664	0.26577	0.26387	0.25651	0.40734	0.33822	0.25708	1.30414	0.83463	0.52027
71240	0.11290	0.11701	0.07685	0.42799	0.43215	0.34697	1.99120	1.15252	0.55036	0.26814	0.26593	0.25893	0.41226	0.33970	0.26178	1.30747	0.83803	0.52303
71400	0.11296	0.11445	0.07449	0.42700	0.43053	0.34449	1.99117	1.15046	0.54691	0.26442	0.26295	0.25671	0.40857	0.34051	0.25884	1.30452	0.83571	0.52139
71560	0.11424	0.11566	0.07624	0.42780	0.43106	0.34575	1.99268	1.15165	0.54811	0.26698	0.26386	0.25845	0.41165	0.33933	0.25808	1.30528	0.83701	0.52234
71730	0.11296	0.11422	0.07343	0.42575	0.42929	0.34475	1.98821	1.14783	0.54514	0.26509	0.26282	0.25620	0.40998	0.33760	0.25552	1.30229	0.83433	0.52017
71890	0.11105	0.11177	0.07259	0.42287	0.42679	0.34150	1.98801	1.14738	0.54109	0.26346	0.26125	0.25466	0.41264	0.34043	0.25949	1.30280	0.83843	0.52496	31.86	6.1	0.00	7.76	0.01267	0.01291	0.01624	0.00788	0.00586	0.00642	0.00468	0.01267	0.01681	0.00680	0.00704	0.00879	0.01489	0.01094	0.01195	0.00220	0.00625	0.00875
72050	0.11508	0.11553	0.07562	0.42847	0.43180	0.34412	1.98874	1.15210	0.54518	0.26767	0.26454	0.25695	0.41074	0.33902	0.25919	1.30335	0.83584	0.52138
72220	0.11328	0.11338	0.07338	0.42396	0.42745	0.34142	1.98753	1.14855	0.54209	0.26382	0.26183	0.25468	0.41205	0.34041	0.26273	1.30668	0.84060	0.52650
72380	0.11511	0.11737	0.07669	0.43023	0.43236	0.34657	1.99464	1.15710	0.54614	0.26810	0.26677	0.25840	0.41162	0.33866	0.25932	1.30592	0.83733	0.52229
72540	0.11438	0.11601	0.07678	0.42888	0.43137	0.34680	1.99758	1.15367	0.54687	0.26901	0.26660	0.25904	0.41089	0.34074	0.25845	1.30479	0.83669	0.52311
72710	0.11354	0.11355	0.07446	0.42579	0.43023	0.34360	1.99229	1.14794	0.54413	0.26603	0.26311	0.25683	0.41023	0.33959	0.26002	1.30744	0.83752	0.52420
72870	0.11358	0.11546	0.07546	0.42829	0.43232	0.34673	1.99439	1.15264	0.54699	0.26745	0.26493	0.25877	0.41158	0.33971	0.25891	1.30356	0.83666	0.52252
73030	0.11165	0.11189	0.07380	0.42478	0.42852	0.34338	1.98661	1.14680	0.54334	0.26502	0.26255	0.25550	0.40897	0.33778	0.25678	1.29960	0.83212	0.51834
73190	0.10851	0.11199	0.07472	0.42415	0.42990	0.34509	1.98655	1.15340	0.54774	0.26803	0.26532	0.25886	0.41132	0.34160	0.26036	1.30462	0.83789	0.52392
73360	0.11326	0.11395	0.07566	0.42621	0.42941	0.34336	1.98862	1.15016	0.54090	0.26604	0.26346	0.25661	0.41038	0.33764	0.25596	1.30154	0.83502	0.52062
73520	0.11175	0.11308	0.07189	0.42375	0.42847	0.34126	1.98558	1.14941	0.53938	0.26408	0.26235	0.25487	0.41020	0.34201	0.26126	1.31192	0.84095	0.52693	31.80	6.1	0.00	7.59	0.01267	0.01291	0.01624	0.00788	0.00586	0.00642	0.00468	0.01267	0.01681	0.00680	0.00704	0.00879	0.01489	0.01093	0.01195	0.00220	0.00625	0.00875
73680	0.11573	0.11711	0.07608	0.43119	0.43460	0.34767	1.99386	1.15488	0.54879	0.26892	0.26653	0.26019	0.41041	0.33916	0.25802	1.31011	0.83984	0.52385
73850	0.11257	0.11362	0.07576	0.42738	0.43231	0.34575	1.99277	1.15203	0.54755	0.26739	0.26513	0.25811	0.40914	0.33920	0.25584	1.30648	0.83578	0.52140
74010	0.11002	0.11149	0.07329	0.42519	0.42885	0.34219	1.98563	1.15143	0.54474	0.26610	0.26387	0.25711	0.40947	0.33758	0.25681	1.30455	0.83539	0.52108
74170	0.10902	0.10953	0.07434	0.42400	0.42783	0.34067	1.98927	1.14642	0.54137	0.26355	0.26225	0.25471	0.40925	0.33772	0.26087	1.30872	0.83883	0.52459
74340	0.11314	0.11520	0.07414	0.42893	0.43168	0.34524	1.98759	1.14970	0.54502	0.26716	0.26560	0.25754	0.40908	0.33730	0.25787	1.30636	0.83589	0.52196
74500	0.11300	0.11268	0.07466	0.42559	0.42950	0.34246	1.98041	1.14589	0.54318	0.26513	0.26214	0.25620	0.40911	0.34096	0.26089	1.30804	0.83769	0.52325
74660	0.11423	0.11486	0.07460	0.42754	0.43209	0.34481	1.98689	1.15233	0.54621	0.26713	0.26442	0.25799	0.41033	0.33760	0.25741	1.30463	0.83536	0.52082
74830	0.10950	0.11217	0.07265	0.42414	0.42800	0.34146	1.98001	1.14557	0.54228	0.26423	0.26188	0.25495	0.41263	0.34153	0.26135	1.31049	0.84091	0.52538
74990	0.11450	0.11537	0.07728	0.42874	0.43234	0.34570	1.98790	1.15273	0.54578	0.26786	0.26483	0.25800	0.40970	0.33908	0.25804	1.30573	0.83634	0.52214
75160	0.11527	0.11605	0.07517	0.42734	0.43141	0.34509	1.98499	1.15429	0.54767	0.26709	0.26588	0.25887	0.40897	0.34039	0.25755	1.30984	0.83735	0.52269	31.86	6.1	0.00	7.57	0.01267	0.01291	0.01624	0.00788	0.00586	0.00642	0.00468	0.01267	0.01681	0.00680	0.00704	0.00879	0.01489	0.01093	0.01195	0.00220	0.00625	0.00875
75320	0.11057	0.11295	0.07459	0.42594	0.42937	0.34315	1.98840	1.15074	0.54493	0.26561	0.26397	0.25735	0.40767	0.33646	0.25517	1.30651	0.83432	0.52006
