WetView ver 7.1	07-13-2018	16:38:57
AC9 Absorption and Attenuation Meter
00000266		; Serial number
2	; structure version number
Reserved
0.000000	0.000000		; Depth calibration
19200			; Baud rate
0.100000			; Path length (meters)
31			; number of temperature calibration bins
				12.59339	13.44920	14.48425	15.49668	16.50852	17.49564	18.50545	19.52458	20.50176	21.48889	22.47318	23.48707	24.50962	25.49370	26.49784	27.51372	28.50746	29.47237	30.47938	31.50214	32.50470	33.49235	34.50337	35.50914	36.50618	37.52058	38.51018	39.51308	40.49994	41.49866	42.47204	; temperature bins
a650	Blue	20.34952		-0.00383	-0.00415	-0.00430	-0.00391	-0.00363	-0.00317	-0.00269	-0.00237	-0.00179	-0.00130	-0.00099	-0.00071	-0.00015	0.00000	0.00004	-0.00001	0.00015	0.00036	0.00058	0.00101	0.00161	0.00132	0.00160	0.00169	0.00242	0.00273	0.00336	0.00365	0.00427	0.00566	0.00670		; offset and temperature correction info
a676	Green	20.51193		-0.00398	-0.00384	-0.00360	-0.00306	-0.00302	-0.00255	-0.00235	-0.00212	-0.00163	-0.00136	-0.00118	-0.00089	-0.00029	0.00000	0.00068	0.00082	0.00099	0.00137	0.00145	0.00212	0.00260	0.00252	0.00321	0.00354	0.00457	0.00535	0.00617	0.00648	0.00742	0.00887	0.01002		; offset and temperature correction info
a715	Brown	20.23230		-0.00421	-0.00394	-0.00391	-0.00291	-0.00264	-0.00192	-0.00204	-0.00179	-0.00188	-0.00239	-0.00180	-0.00187	-0.00099	0.00000	0.00084	0.00162	0.00188	0.00224	0.00321	0.00381	0.00466	0.00528	0.00588	0.00696	0.00859	0.01041	0.01148	0.01282	0.01333	0.01456	0.01617		; offset and temperature correction info
c510	Red	20.40042		-0.00261	-0.00247	-0.00258	-0.00225	-0.00203	-0.00197	-0.00199	-0.00203	-0.00154	-0.00103	-0.00069	-0.00019	-0.00007	0.00000	0.00011	-0.00021	-0.00042	-0.00056	-0.00040	0.00011	0.00036	0.00050	0.00077	0.00079	0.00050	0.00042	0.00043	0.00092	0.00147	0.00200	0.00232		; offset and temperature correction info
c532	Magenta	20.40760		-0.00248	-0.00265	-0.00278	-0.00279	-0.00296	-0.00292	-0.00238	-0.00206	-0.00129	-0.00096	-0.00092	-0.00052	-0.00009	0.00000	0.00007	-0.00049	-0.00136	-0.00107	-0.00079	-0.00065	-0.00074	-0.00105	-0.00152	-0.00192	-0.00236	-0.00269	-0.00252	-0.00233	-0.00172	-0.00128	-0.00067		; offset and temperature correction info
c555	Black	20.50654		-0.00053	-0.00063	-0.00106	-0.00094	-0.00068	-0.00055	-0.00053	-0.00039	-0.00028	-0.00025	-0.00011	-0.00035	-0.00007	0.00000	-0.00037	-0.00055	-0.00036	-0.00014	0.00019	0.00044	0.00032	0.00040	0.00050	0.00028	0.00014	0.00013	0.00030	0.00073	0.00117	0.00176	0.00241		; offset and temperature correction info
a412	LtBlue	17.15231		-0.01972	-0.01823	-0.01612	-0.01381	-0.01272	-0.01080	-0.00959	-0.00866	-0.00710	-0.00532	-0.00354	-0.00148	-0.00028	0.00000	0.00176	0.00297	0.00394	0.00440	0.00453	0.00487	0.00804	0.00856	0.01065	0.01248	0.01388	0.01439	0.01659	0.01881	0.02256	0.02450	0.02719		; offset and temperature correction info
a440	LtGreen	18.00171		-0.00729	-0.00642	-0.00581	-0.00502	-0.00426	-0.00349	-0.00244	-0.00218	-0.00179	-0.00101	-0.00046	-0.00006	0.00036	0.00000	0.00040	0.00045	0.00030	-0.00015	-0.00024	-0.00035	0.00012	-0.00013	-0.00033	-0.00089	-0.00142	-0.00189	-0.00231	-0.00205	-0.00140	-0.00140	-0.00146		; offset and temperature correction info
a488	Yellow	18.86491		-0.00113	-0.00102	-0.00106	-0.00064	-0.00027	-0.00020	-0.00030	-0.00037	-0.00047	-0.00059	-0.00052	-0.00012	0.00008	0.00000	0.00025	0.00012	-0.00013	-0.00043	-0.00065	-0.00076	-0.00025	0.00010	0.00090	0.00111	0.00113	0.00104	0.00073	0.00068	0.00120	0.00186	0.00258		; offset and temperature correction info
c650	Blue	20.46075		-0.00145	-0.00097	-0.00092	-0.00139	-0.00185	-0.00196	-0.00237	-0.00266	-0.00238	-0.00163	-0.00083	-0.00041	-0.00010	0.00000	0.00005	-0.00001	0.00015	0.00034	0.00029	0.00065	0.00101	0.00164	0.00126	0.00156	0.00175	0.00270	0.00287	0.00371	0.00407	0.00473	0.00534		; offset and temperature correction info
c676	Green	20.10118		-0.00170	-0.00144	-0.00149	-0.00177	-0.00188	-0.00194	-0.00198	-0.00196	-0.00177	-0.00156	-0.00140	-0.00091	-0.00033	0.00000	0.00050	0.00092	0.00110	0.00141	0.00167	0.00199	0.00216	0.00265	0.00269	0.00289	0.00315	0.00374	0.00367	0.00408	0.00486	0.00561	0.00646		; offset and temperature correction info
c715	Brown	19.91219		-0.01201	-0.01097	-0.00859	-0.00680	-0.00651	-0.00592	-0.00535	-0.00440	-0.00387	-0.00303	-0.00222	-0.00153	-0.00028	0.00000	0.00093	0.00149	0.00247	0.00322	0.00330	0.00427	0.00373	0.00464	0.00536	0.00551	0.00643	0.00733	0.00779	0.00884	0.00899	0.01021	0.01120		; offset and temperature correction info
a510	Red	19.21192		0.00201	0.00193	0.00158	0.00098	0.00089	0.00049	0.00011	-0.00016	-0.00016	-0.00005	0.00028	0.00025	0.00006	0.00000	0.00035	-0.00022	-0.00023	-0.00080	-0.00144	-0.00154	-0.00153	-0.00204	-0.00220	-0.00219	-0.00190	-0.00128	-0.00069	-0.00018	0.00068	0.00152	0.00241		; offset and temperature correction info
a532	Magenta	19.41084		-0.00097	-0.00072	-0.00060	-0.00081	-0.00062	-0.00071	-0.00040	0.00020	0.00028	0.00043	0.00000	-0.00035	0.00007	0.00000	-0.00011	-0.00059	-0.00080	-0.00098	-0.00137	-0.00162	-0.00163	-0.00130	-0.00073	-0.00018	0.00090	0.00185	0.00175	0.00247	0.00291	0.00327	0.00349		; offset and temperature correction info
a555	Black	19.69776		0.00171	0.00183	0.00183	0.00186	0.00191	0.00170	0.00115	0.00131	0.00097	0.00073	0.00060	0.00013	0.00015	0.00000	0.00014	-0.00029	-0.00066	-0.00082	-0.00116	-0.00139	-0.00134	-0.00167	-0.00119	-0.00093	-0.00048	0.00053	0.00111	0.00095	0.00178	0.00206	0.00273		; offset and temperature correction info
c412	LtBlue	19.91180		-0.02051	-0.01853	-0.01589	-0.01311	-0.01059	-0.00877	-0.00705	-0.00581	-0.00413	-0.00231	-0.00098	-0.00066	-0.00011	0.00000	-0.00013	-0.00085	-0.00170	-0.00170	-0.00302	-0.00330	-0.00429	-0.00551	-0.00626	-0.00775	-0.00978	-0.01181	-0.01113	-0.01108	-0.01116	-0.01192	-0.01291		; offset and temperature correction info
c440	LtGreen	20.06241		-0.01064	-0.00992	-0.00892	-0.00766	-0.00639	-0.00531	-0.00478	-0.00384	-0.00287	-0.00187	-0.00102	-0.00063	-0.00023	0.00000	-0.00007	-0.00053	-0.00090	-0.00119	-0.00169	-0.00197	-0.00226	-0.00257	-0.00260	-0.00289	-0.00394	-0.00470	-0.00481	-0.00493	-0.00520	-0.00580	-0.00620		; offset and temperature correction info
c488	Yellow	20.35984		-0.01125	-0.01082	-0.00966	-0.00833	-0.00726	-0.00661	-0.00579	-0.00500	-0.00389	-0.00278	-0.00167	-0.00113	-0.00041	0.00000	0.00055	0.00121	0.00187	0.00226	0.00222	0.00251	0.00281	0.00359	0.00414	0.00427	0.00401	0.00404	0.00486	0.00563	0.00638	0.00684	0.00718		; offset and temperature correction info
0.003500	0.004000	0.015000	0.020000	0.015000	0.020000	2500.000000	2000.000000	1000.000000	; maxANoise	maxCNoise	maxADifference	maxCDifference	minACounts	minCCounts	minRCounts	maxTempSdev	maxDepthSdev
0			; auxilliary capabilities
1			; acquisition binsize
0	0.06997	0.07829	0.05792	8.74299	8.58870	9.27684	0.65820	0.38346	0.21528	8.99499	9.42885	8.62689	0.16310	0.15961	0.11899	7.31402	8.26416	8.60114	32.58	6.0	0.00	8.01	0.01265	0.01289	0.01620	0.00787	0.00585	0.00642	0.00467	0.01265	0.01678	0.00680	0.00698	0.00878	0.01487	0.01091	0.01193	0.00220	0.00626	0.00875
160	0.06742	0.07658	0.05750	8.80426	8.65029	9.37340	0.66225	0.38446	0.21735	9.07470	9.50811	8.66159	0.16720	0.16107	0.12358	7.28065	8.19576	8.52054
330	0.07041	0.07823	0.05773	8.71300	8.57152	9.37215	0.65882	0.38333	0.21441	9.13498	9.58927	8.70704	0.16667	0.15718	0.12056	7.33943	8.22642	8.58208
490	0.07043	0.07904	0.05836	8.68080	8.53622	9.25626	0.66476	0.38941	0.21771	9.07282	9.53936	8.73962	0.16890	0.16204	0.12272	7.34635	8.26126	8.57509
650	0.06999	0.07835	0.05814	8.72548	8.57442	9.30777	0.65911	0.38389	0.21612	9.07268	9.52662	8.74353	0.16681	0.15887	0.12096	7.32384	8.22088	8.50478
820	0.07069	0.08007	0.05940	8.64580	8.56085	9.23240	0.66991	0.38814	0.21741	9.01647	9.54694	8.71253	0.16853	0.16176	0.12389	7.37331	8.29300	8.59727
980	0.07187	0.08004	0.05882	8.72150	8.55636	9.29617	0.66262	0.38490	0.21538	9.07130	9.55117	8.70850	0.16586	0.16035	0.12064	7.34766	8.23709	8.60611
1140	0.06904	0.07842	0.05858	8.74060	8.54895	9.32670	0.66923	0.38655	0.21610	9.09419	9.49210	8.79050	0.16659	0.16048	0.12200	7.35536	8.24463	8.54608
1310	0.06951	0.07910	0.05616	8.72786	8.56908	9.31302	0.66291	0.38283	0.21513	9.06808	9.55816	8.73842	0.16595	0.15948	0.11780	7.37146	8.24404	8.55219
1470	0.06873	0.07753	0.05673	8.68697	8.56160	9.29738	0.65992	0.38068	0.21076	9.05673	9.49816	8.71240	0.16804	0.16444	0.12292	7.38535	8.29256	8.58267
1630	0.07203	0.08083	0.06098	8.71127	8.55230	9.33424	0.66276	0.38786	0.21748	9.10675	9.53765	8.68504	0.16746	0.15994	0.12135	7.32392	8.22189	8.56461	32.53	6.0	0.00	7.66	0.01265	0.01289	0.01620	0.00787	0.00585	0.00642	0.00467	0.01265	0.01678	0.00680	0.00698	0.00878	0.01487	0.01091	0.01193	0.00220	0.00626	0.00875
1800	0.07144	0.08110	0.06035	8.69276	8.57375	9.33287	0.66514	0.38804	0.21815	9.14735	9.58844	8.74113	0.16976	0.16194	0.12071	7.30675	8.21196	8.53113
1960	0.06884	0.07859	0.05836	8.68820	8.52551	9.28667	0.65879	0.38528	0.21510	9.09783	9.59905	8.75344	0.16513	0.16131	0.11764	7.36569	8.24348	8.56061
2120	0.07153	0.07901	0.05941	8.69417	8.56027	9.28210	0.65776	0.38459	0.21774	9.06257	9.50090	8.72510	0.16854	0.16146	0.12219	7.35875	8.29617	8.58708
2290	0.07123	0.07967	0.05782	8.69943	8.53148	9.29687	0.65619	0.38442	0.21540	9.06206	9.53985	8.71034	0.16555	0.15909	0.11939	7.34836	8.23671	8.57740
2450	0.06827	0.07511	0.05560	8.71129	8.57597	9.30108	0.65699	0.38022	0.21116	9.08134	9.53011	8.71983	0.16802	0.16170	0.12419	7.32477	8.24792	8.57039
2610	0.07245	0.08100	0.06004	8.71800	8.54647	9.28637	0.65736	0.38647	0.21672	9.06753	9.55490	8.72650	0.16923	0.16287	0.12118	7.35175	8.23656	8.55474
2780	0.06736	0.07601	0.05622	8.71953	8.57256	9.28582	0.65231	0.38194	0.21202	9.05274	9.51370	8.73591	0.16835	0.16289	0.12461	7.37764	8.29673	8.57027
2940	0.07196	0.08096	0.05955	8.69097	8.52064	9.28603	0.66519	0.38496	0.21752	9.04887	9.53830	8.69722	0.16973	0.16228	0.12252	7.36260	8.26907	8.61101
3100	0.07180	0.08305	0.05844	8.70381	8.56767	9.29984	0.66524	0.38686	0.21671	9.08895	9.50676	8.69773	0.16856	0.16213	0.12213	7.30353	8.23890	8.56511
3270	0.06887	0.07894	0.05536	8.72456	8.55461	9.30800	0.65740	0.38527	0.21560	9.08580	9.56465	8.73303	0.16773	0.16055	0.12501	7.33147	8.23057	8.54752	32.58	6.1	0.00	7.66	0.01265	0.01289	0.01620	0.00787	0.00585	0.00642	0.00467	0.01265	0.01678	0.00680	0.00698	0.00878	0.01487	0.01091	0.01193	0.00220	0.00626	0.00874
3430	0.07080	0.07673	0.06010	8.67758	8.53516	9.30103	0.65809	0.38678	0.21749	9.08046	9.56325	8.73449	0.16728	0.16193	0.12390	7.36525	8.27376	8.57610
3590	0.07134	0.07729	0.05644	8.67901	8.52161	9.24978	0.65946	0.38329	0.21419	9.00889	9.48990	8.69264	0.16346	0.15875	0.11950	7.40944	8.32401	8.63721
3760	0.06617	0.07808	0.05813	8.71436	8.55748	9.27973	0.65586	0.38538	0.21801	9.02069	9.44490	8.64071	0.17077	0.16306	0.12314	7.34561	8.29667	8.63218
3920	0.07183	0.08117	0.05765	8.74875	8.56821	9.29170	0.66506	0.38378	0.21528	9.03958	9.50659	8.68548	0.16554	0.15877	0.12325	7.33093	8.25321	8.59843
4080	0.06927	0.07873	0.06017	8.72548	8.57998	9.30900	0.66187	0.38571	0.21743	9.04954	9.50926	8.67177	0.16769	0.16271	0.12330	7.32248	8.24225	8.59175
4250	0.07036	0.07938	0.05677	8.69556	8.53880	9.27392	0.66393	0.38667	0.21541	9.09699	9.57780	8.74302	0.16626	0.16016	0.12191	7.32632	8.22909	8.54612
4410	0.06759	0.07885	0.05849	8.71022	8.54157	9.27398	0.65831	0.38714	0.21847	9.05217	9.54503	8.73532	0.17022	0.16354	0.12349	7.36687	8.26037	8.57657
4570	0.06988	0.07976	0.05904	8.68678	8.53196	9.26073	0.65649	0.38723	0.21451	9.06486	9.53157	8.74027	0.16450	0.15957	0.11991	7.37188	8.28824	8.56172
4740	0.07118	0.07910	0.05898	8.66801	8.52729	9.27664	0.65831	0.38863	0.21853	9.04803	9.50609	8.68380	0.17000	0.16326	0.12443	7.37736	8.32251	8.65695
4900	0.07034	0.07675	0.05687	8.74214	8.55816	9.24940	0.65154	0.38379	0.21513	9.00763	9.45250	8.67654	0.16548	0.15953	0.12283	7.33335	8.28270	8.59028	32.58	6.0	0.00	7.77	0.01265	0.01289	0.01620	0.00787	0.00585	0.00642	0.00467	0.01265	0.01678	0.00680	0.00698	0.00878	0.01487	0.01091	0.01193	0.00220	0.00626	0.00874
5060	0.06974	0.07982	0.05783	8.75275	8.56692	9.30873	0.65728	0.38495	0.21797	9.05983	9.51510	8.68047	0.17041	0.16231	0.12312	7.31899	8.23113	8.58261
5230	0.07029	0.07736	0.05835	8.73985	8.61260	9.31935	0.65733	0.38413	0.21512	9.06463	9.48742	8.69552	0.16677	0.15880	0.12187	7.33427	8.27343	8.56342
5390	0.06975	0.07580	0.05769	8.70984	8.55697	9.30661	0.66232	0.38646	0.21722	9.07080	9.53029	8.67768	0.16878	0.15789	0.12276	7.33903	8.23962	8.59320
5550	0.06908	0.07733	0.05562	8.69824	8.56212	9.28714	0.65422	0.38340	0.21467	9.08646	9.53469	8.72029	0.16492	0.16014	0.12058	7.34557	8.25277	8.55418
5720	0.06776	0.07575	0.05522	8.68434	8.51145	9.26436	0.65483	0.38118	0.21113	9.05462	9.56134	8.72080	0.17006	0.16372	0.12638	7.36560	8.27346	8.61572
5880	0.07286	0.07894	0.05962	8.71010	8.54264	9.23211	0.65456	0.38609	0.21806	9.01376	9.47492	8.71579	0.16734	0.16255	0.12206	7.36467	8.29617	8.59335
6040	0.07090	0.07812	0.05848	8.73631	8.57229	9.32054	0.66160	0.38855	0.21856	9.02758	9.50067	8.64623	0.16859	0.16003	0.12420	7.33273	8.24631	8.59036
6210	0.07046	0.07887	0.05653	8.72063	8.59594	9.32998	0.66138	0.38615	0.21675	9.10055	9.49907	8.67985	0.16738	0.15992	0.11986	7.28750	8.22909	8.55311
6370	0.07220	0.07953	0.06058	8.72162	8.56146	9.30977	0.65952	0.38806	0.21863	9.07658	9.55455	8.72495	0.17097	0.16147	0.12272	7.34480	8.24935	8.56180
6530	0.06942	0.07611	0.05641	8.67580	8.54587	9.28749	0.65170	0.38243	0.21568	9.07463	9.53393	8.70697	0.16795	0.15658	0.12018	7.34162	8.26623	8.57468	32.58	6.0	0.00	7.62	0.01265	0.01289	0.01620	0.00787	0.00585	0.00642	0.00467	0.01265	0.01678	0.00680	0.00698	0.00878	0.01487	0.01091	0.01193	0.00220	0.00626	0.00875
6700	0.06827	0.07745	0.05767	8.72311	8.53971	9.28084	0.66358	0.38798	0.21980	9.02793	9.52930	8.70114	0.17049	0.16223	0.12344	7.36040	8.26553	8.59311
6860	0.06997	0.07862	0.05640	8.69917	8.56703	9.28613	0.64883	0.38423	0.21677	9.07272	9.48829	8.68677	0.16826	0.15949	0.12071	7.33201	8.25280	8.56126
7020	0.06678	0.07615	0.05537	8.70338	8.53831	9.28667	0.65087	0.38177	0.21269	9.07303	9.55398	8.73857	0.17117	0.16461	0.12756	7.37890	8.26910	8.57115
7190	0.07367	0.07858	0.05949	8.66582	8.54297	9.27724	0.66066	0.38530	0.21826	9.06083	9.51091	8.66887	0.17214	0.16411	0.12612	7.30408	8.23525	8.57728
7350	0.07141	0.08047	0.05928	8.73912	8.58330	9.30435	0.65661	0.38908	0.21961	9.09840	9.58236	8.71818	0.17026	0.16097	0.12373	7.33739	8.23460	8.55849
7510	0.07040	0.07556	0.05824	8.69083	8.54226	9.26972	0.65447	0.38358	0.21502	9.07376	9.50436	8.69915	0.17032	0.16205	0.12315	7.33670	8.25745	8.56061
7680	0.07074	0.07800	0.05709	8.73028	8.56182	9.29303	0.65965	0.38444	0.21485	9.04803	9.51856	8.71248	0.16749	0.16042	0.12068	7.35878	8.24199	8.55902
7840	0.07001	0.07659	0.05750	8.68669	8.55499	9.28840	0.65717	0.38215	0.21607	9.05478	9.51441	8.67546	0.16626	0.15672	0.11863	7.33885	8.26641	8.60761
8000	0.06791	0.07822	0.05781	8.72002	8.56422	9.26169	0.66409	0.38911	0.21899	9.02139	9.46885	8.68070	0.17079	0.16251	0.12605	7.33985	8.27754	8.59799
8170	0.07146	0.07763	0.05829	8.74951	8.57855	9.30889	0.65122	0.38467	0.21738	9.03600	9.47447	8.63936	0.16634	0.16091	0.12213	7.30643	8.23222	8.57253	32.58	6.0	0.00	7.60	0.01265	0.01289	0.01620	0.00787	0.00585	0.00642	0.00467	0.01265	0.01678	0.00680	0.00698	0.00878	0.01487	0.01091	0.01193	0.00220	0.00626	0.00874
8330	0.07038	0.07853	0.05780	8.74346	8.58108	9.31053	0.65324	0.38661	0.21918	9.06676	9.51068	8.68132	0.17105	0.16343	0.12597	7.32245	8.22199	8.55792
8490	0.07106	0.07910	0.05761	8.70737	8.55979	9.29441	0.66254	0.38780	0.21539	9.05457	9.50185	8.67916	0.16696	0.15869	0.12492	7.32130	8.25194	8.58500
8660	0.07135	0.07858	0.06002	8.71968	8.56740	9.28527	0.65741	0.38818	0.21970	9.02457	9.47104	8.66131	0.17178	0.16567	0.12529	7.30528	8.24764	8.56379
8820	0.06861	0.07798	0.05865	8.71573	8.55534	9.33679	0.65701	0.38513	0.21639	9.06716	9.50025	8.62716	0.16740	0.15673	0.12429	7.26583	8.14423	8.51088
8980	0.07040	0.08040	0.05916	8.67141	8.56915	9.32980	0.65731	0.38916	0.21904	9.12435	9.56176	8.71865	0.17056	0.16136	0.12460	7.32199	8.21307	8.51328
9140	0.06842	0.07755	0.05776	8.61444	8.43340	9.17690	0.65346	0.38415	0.21492	8.95606	9.44719	8.63417	0.16940	0.15741	0.12028	7.33781	8.27436	8.62267
9310	0.06909	0.07683	0.05653	8.73874	8.55256	9.24712	0.65390	0.38049	0.21189	8.97494	9.39927	8.56882	0.16843	0.16288	0.12726	7.21081	8.10803	8.43903
9470	0.07154	0.07822	0.05815	8.65010	8.54908	9.34314	0.66048	0.38403	0.21704	9.12379	9.60879	8.74655	0.16851	0.15907	0.12606	7.32814	8.16641	8.45573
9640	0.07087	0.07585	0.05579	8.48345	8.35133	9.08692	0.64355	0.38299	0.21217	8.97627	9.45868	8.71211	0.17164	0.16374	0.12834	7.39122	8.36076	8.63879
9800	0.07403	0.07969	0.05839	8.65774	8.45483	9.17210	0.66325	0.38586	0.21883	8.90358	9.39649	8.60432	0.16831	0.16027	0.12216	7.32852	8.25804	8.63059	32.53	6.1	0.00	7.74	0.01265	0.01289	0.01620	0.00787	0.00585	0.00642	0.00467	0.01265	0.01678	0.00680	0.00698	0.00878	0.01487	0.01091	0.01193	0.00220	0.00626	0.00874
9960	0.07260	0.07968	0.05832	8.74239	8.57957	9.24578	0.65743	0.38649	0.21793	8.93989	9.31705	8.48830	0.16803	0.15939	0.12279	7.18365	8.18180	8.59020
10130	0.06829	0.07910	0.05624	8.94393	8.78850	9.51787	0.65778	0.38354	0.21608	9.06084	9.40048	8.46720	0.16480	0.15761	0.12354	7.05504	7.95188	8.35871
10290	0.06760	0.07559	0.05444	8.75763	8.74166	9.58000	0.65397	0.38075	0.21219	9.31914	9.68041	8.74871	0.17104	0.16304	0.12836	7.15326	7.96460	8.24434
10450	0.07289	0.07887	0.05944	8.45627	8.38872	9.27426	0.65598	0.38523	0.21769	9.26674	9.83606	8.97424	0.17049	0.16265	0.12299	7.46936	8.26623	8.53552
10620	0.07121	0.08011	0.06079	8.51228	8.38339	9.09103	0.65110	0.38691	0.21898	8.98963	9.49443	8.73866	0.16919	0.16262	0.12557	7.37717	8.30819	8.57374
10780	0.07075	0.07886	0.05879	8.69810	8.53702	9.26402	0.65657	0.38348	0.21454	9.04465	9.55486	8.73413	0.16739	0.15887	0.12232	7.37810	8.26922	8.55902
10940	0.07043	0.07839	0.06079	8.65587	8.50333	9.23973	0.65876	0.38550	0.21724	9.02394	9.49372	8.68437	0.16946	0.16202	0.12809	7.38296	8.32596	8.63253
11110	0.07050	0.07834	0.05801	8.71125	8.53021	9.23196	0.65461	0.38305	0.21488	8.95480	9.39265	8.60139	0.16828	0.16072	0.12655	7.36553	8.33575	8.69781
11270	0.07219	0.07985	0.05852	8.88000	8.71550	9.40285	0.66156	0.38588	0.21774	9.04488	9.40934	8.53550	0.16788	0.16104	0.12198	7.17033	8.11645	8.50410
11430	0.06793	0.07671	0.05535	8.78563	8.64678	9.42447	0.65959	0.38185	0.21140	9.15854	9.60616	8.73862	0.16562	0.15982	0.12294	7.29152	8.13283	8.41555	32.58	6.1	0.00	7.62	0.01265	0.01289	0.01620	0.00787	0.00585	0.00642	0.00467	0.01265	0.01678	0.00680	0.00698	0.00878	0.01487	0.01091	0.01193	0.00220	0.00626	0.00874
11600	0.07293	0.07968	0.05645	8.56217	8.48318	9.29312	0.65532	0.38648	0.21528	9.14793	9.63415	8.80794	0.16804	0.15971	0.12265	7.42300	8.30447	8.61175
11760	0.07016	0.07792	0.05577	8.66480	8.52575	9.23009	0.65132	0.38230	0.21401	9.03574	9.48613	8.70060	0.16555	0.15726	0.12212	7.33385	8.24565	8.52229
11920	0.06800	0.07899	0.05897	8.63684	8.49141	9.26438	0.66084	0.38855	0.21764	9.07751	9.57082	8.76211	0.17096	0.16088	0.12435	7.43005	8.31676	8.63621
12090	0.07107	0.07802	0.05659	8.73062	8.55076	9.22399	0.65897	0.38360	0.21455	8.97431	9.43502	8.65028	0.16577	0.15803	0.12176	7.31006	8.24623	8.57924
12250	0.06709	0.07830	0.06120	8.76223	8.60867	9.32948	0.65988	0.38821	0.21922	9.05113	9.50368	8.67737	0.17253	0.16375	0.12491	7.33462	8.22414	8.57276
12410	0.07335	0.07974	0.05822	8.68483	8.54344	9.25572	0.66030	0.38245	0.21469	9.05978	9.52174	8.72582	0.16768	0.15988	0.12254	7.35778	8.29101	8.60975
12580	0.07195	0.08285	0.06133	8.74431	8.54805	9.28099	0.65431	0.38755	0.21936	8.99548	9.46569	8.62716	0.16938	0.16364	0.12384	7.30393	8.19886	8.55149
12740	0.07100	0.07733	0.05646	8.69023	8.58755	9.32065	0.65988	0.38439	0.21521	9.13310	9.56617	8.75465	0.16784	0.15708	0.12163	7.33247	8.24071	8.52548
12900	0.06842	0.07571	0.05421	8.68654	8.53731	9.29942	0.65277	0.37659	0.21203	9.03848	9.51180	8.68607	0.16700	0.16190	0.12529	7.34308	8.22070	8.54289
13060	0.07207	0.07939	0.05813	8.64946	8.53835	9.30088	0.65242	0.38439	0.21477	9.13364	9.57815	8.74929	0.16910	0.16010	0.12281	7.34185	8.25557	8.54189	32.58	6.3	0.00	7.62	0.01265	0.01289	0.01620	0.00787	0.00585	0.00642	0.00467	0.01265	0.01678	0.00680	0.00698	0.00878	0.01487	0.01091	0.01193	0.00220	0.00626	0.00874
13230	0.06801	0.07355	0.05694	8.66800	8.49734	9.25739	0.65183	0.38092	0.21176	9.07719	9.54776	8.72595	0.16954	0.15874	0.12340	7.34862	8.23821	8.55149
13390	0.07140	0.07750	0.05693	8.66081	8.53825	9.27091	0.66310	0.38100	0.21569	9.12080	9.58609	8.75897	0.16797	0.15686	0.12392	7.34415	8.23418	8.52887
13560	0.06890	0.07498	0.05656	8.66634	8.50112	9.24241	0.65144	0.37924	0.21000	9.03894	9.52606	8.69817	0.17064	0.16081	0.12443	7.37821	8.26148	8.56347
13720	0.07258	0.07902	0.05758	8.68402	8.54918	9.30831	0.65524	0.38404	0.21293	9.11598	9.55812	8.71712	0.16807	0.15973	0.12128	7.30508	8.23115	8.54026
13880	0.06964	0.07911	0.05875	8.68135	8.50536	9.24738	0.65223	0.38426	0.21512	9.03237	9.54508	8.73740	0.16675	0.15989	0.12235	7.38554	8.25791	8.55792
14050	0.06947	0.07561	0.05782	8.66896	8.54348	9.28233	0.65473	0.38242	0.21373	9.05307	9.52360	8.70618	0.16823	0.15787	0.12285	7.36063	8.27231	8.56199
14210	0.07125	0.07725	0.05795	8.65727	8.51095	9.24482	0.65394	0.38504	0.21770	9.04913	9.52672	8.71495	0.16801	0.16106	0.12538	7.39366	8.32095	8.61571
14370	0.06896	0.07612	0.05672	8.66472	8.51163	9.22956	0.65591	0.38267	0.21449	9.00836	9.43287	8.65924	0.16520	0.15776	0.12320	7.35370	8.32033	8.63879
14540	0.07241	0.08045	0.05851	8.75638	8.56039	9.26554	0.65681	0.38629	0.21726	8.98575	9.46575	8.66828	0.16685	0.16119	0.12462	7.35131	8.24572	8.58729
14700	0.07044	0.07659	0.05765	8.74996	8.59856	9.31007	0.65458	0.38438	0.21518	9.03737	9.47654	8.63782	0.16607	0.15847	0.12217	7.31824	8.22495	8.57741	32.53	6.0	0.00	7.66	0.01265	0.01289	0.01620	0.00787	0.00585	0.00642	0.00467	0.01265	0.01678	0.00680	0.00698	0.00878	0.01487	0.01091	0.01193	0.00220	0.00626	0.00874
14860	0.06979	0.07865	0.05794	8.73579	8.59209	9.30488	0.66272	0.38501	0.21623	9.06792	9.51620	8.69771	0.16977	0.15856	0.12332	7.32338	8.23303	8.53826
15030	0.06827	0.07694	0.05698	8.69110	8.52305	9.28424	0.65139	0.38000	0.21287	9.07642	9.53306	8.70091	0.16600	0.15690	0.12256	7.33044	8.24936	8.59579
15190	0.06841	0.07570	0.05476	8.71935	8.52432	9.24271	0.65551	0.37789	0.20926	9.00155	9.48984	8.68647	0.16711	0.15710	0.12304	7.34813	8.28045	8.61474
15350	0.06873	0.07853	0.05636	8.76909	8.59700	9.30913	0.65595	0.38214	0.21223	9.01073	9.41937	8.58624	0.16945	0.15917	0.12720	7.27904	8.20808	8.59172
15520	0.07193	0.08189	0.05872	8.78314	8.64549	9.36485	0.65818	0.38451	0.21403	9.08038	9.50485	8.68146	0.16722	0.15884	0.12346	7.29946	8.20858	8.51241
15680	0.06843	0.07989	0.05677	8.67075	8.53641	9.29816	0.65713	0.38005	0.21333	9.07909	9.54227	8.67609	0.17000	0.16201	0.12466	7.33206	8.25219	8.60663
15850	0.07288	0.08067	0.05928	8.73657	8.57899	9.27133	0.65661	0.38627	0.21671	9.03860	9.47725	8.69008	0.17018	0.16176	0.12415	7.30344	8.21426	8.53475
16010	0.06936	0.07836	0.05733	8.74469	8.61159	9.35391	0.65745	0.38424	0.21615	9.05158	9.49120	8.65607	0.16856	0.16137	0.12203	7.30735	8.21644	8.55724
16170	0.06906	0.07837	0.05607	8.72982	8.59187	9.32509	0.65018	0.38271	0.21302	9.04548	9.47583	8.65827	0.16387	0.15627	0.11953	7.29563	8.20494	8.52408
16340	0.06832	0.07795	0.05879	8.72163	8.59764	9.35579	0.66271	0.38381	0.21245	9.10339	9.55695	8.68827	0.16715	0.16090	0.12336	7.28439	8.16101	8.49764	32.58	6.1	0.00	7.60	0.01265	0.01289	0.01620	0.00787	0.00585	0.00642	0.00467	0.01265	0.01678	0.00680	0.00698	0.00878	0.01487	0.01091	0.01193	0.00220	0.00626	0.00874
16500	0.06779	0.07632	0.05603	8.64613	8.54057	9.29415	0.65513	0.38003	0.21231	9.12103	9.57686	8.78365	0.16615	0.15842	0.12326	7.37678	8.25144	8.51407
16660	0.06874	0.07560	0.05592	8.61211	8.45520	9.21167	0.64941	0.37918	0.21045	9.00042	9.51313	8.70500	0.16781	0.16143	0.12442	7.40089	8.30388	8.64648
16830	0.07044	0.07862	0.05767	8.71308	8.54657	9.23867	0.65706	0.38222	0.21549	9.00069	9.44844	8.65385	0.16768	0.15944	0.12274	7.32798	8.26917	8.59526
16990	0.06995	0.07810	0.05809	8.73743	8.56150	9.28931	0.66566	0.38750	0.21574	9.01296	9.47386	8.65542	0.16925	0.16096	0.12291	7.33735	8.25193	8.58345
17150	0.06730	0.07734	0.05681	8.72052	8.57236	9.30308	0.65925	0.38287	0.21472	9.07419	9.50755	8.68659	0.16580	0.15854	0.12101	7.29012	8.21076	8.49127
17320	0.07071	0.07858	0.05768	8.66746	8.52859	9.32738	0.65199	0.38592	0.21765	9.08045	9.54927	8.69814	0.16906	0.16021	0.12430	7.36198	8.25100	8.57411
17480	0.06647	0.07518	0.05680	8.65280	8.51977	9.23951	0.65527	0.38139	0.21422	9.04772	9.49106	8.70384	0.16594	0.15819	0.12154	7.29976	8.22481	8.52661
17640	0.06984	0.07867	0.05760	8.70261	8.54411	9.29454	0.65672	0.38278	0.21460	9.07615	9.56708	8.72297	0.16644	0.15885	0.12427	7.31310	8.16214	8.46623
17810	0.06726	0.07596	0.05625	8.57668	8.45409	9.22386	0.65844	0.38536	0.21330	9.14271	9.67403	8.88667	0.16537	0.15811	0.12094	7.46358	8.35338	8.58334
17970	0.06677	0.07388	0.05540	8.53090	8.28305	8.96018	0.65476	0.38077	0.21169	8.83101	9.41168	8.69987	0.16595	0.16075	0.12432	7.51248	8.48467	8.81619	32.64	6.1	0.00	7.75	0.01265	0.01289	0.01620	0.00787	0.00585	0.00642	0.00467	0.01265	0.01678	0.00680	0.00698	0.00878	0.01487	0.01091	0.01193	0.00220	0.00626	0.00874
18130	0.07117	0.08076	0.05742	8.84065	8.60048	9.21709	0.65726	0.38384	0.21520	8.86693	9.27549	8.50970	0.16732	0.15854	0.12001	7.28958	8.27517	8.64089
18300	0.07109	0.07784	0.05735	8.83059	8.64862	9.36270	0.65888	0.38612	0.21671	9.04447	9.45332	8.62140	0.16852	0.16106	0.12346	7.28721	8.16801	8.48978
18460	0.07099	0.07733	0.05715	8.67333	8.56140	9.31484	0.65576	0.38432	0.21346	9.10955	9.56155	8.73005	0.16544	0.15675	0.11968	7.33420	8.23858	8.55564
18620	0.06742	0.07564	0.05429	8.69284	8.53568	9.26585	0.64443	0.37968	0.21064	9.04397	9.51228	8.68550	0.16632	0.16076	0.12460	7.30627	8.18557	8.50566
18790	0.06983	0.07955	0.05788	8.64818	8.51564	9.28385	0.65704	0.38453	0.21524	9.12294	9.63152	8.77305	0.16918	0.16046	0.12679	7.39260	8.25895	8.55530
18950	0.07118	0.07812	0.05758	8.62782	8.47450	9.17046	0.65949	0.38725	0.21575	8.98502	9.47155	8.72701	0.16913	0.16120	0.12237	7.43923	8.34974	8.64544
19110	0.06804	0.07695	0.05465	8.70770	8.51284	9.22136	0.65567	0.38377	0.21389	8.94933	9.39638	8.58725	0.16571	0.16064	0.12264	7.31754	8.28367	8.63460
19280	0.07134	0.07633	0.05708	8.79052	8.61395	9.31715	0.66283	0.38383	0.21521	9.02002	9.47054	8.65443	0.16763	0.15795	0.12178	7.31187	8.24865	8.56534
19440	0.06615	0.07870	0.05616	8.70987	8.53163	9.29693	0.65186	0.38075	0.21302	9.01988	9.45229	8.60258	0.16586	0.15875	0.12021	7.30267	8.24380	8.61284
19600	0.06606	0.07757	0.05622	8.73764	8.59672	9.31739	0.66417	0.38591	0.21688	9.05272	9.47008	8.64330	0.16627	0.16127	0.12345	7.29044	8.23106	8.55862	32.64	6.1	0.00	7.67	0.01265	0.01289	0.01620	0.00787	0.00585	0.00642	0.00467	0.01265	0.01678	0.00680	0.00698	0.00878	0.01487	0.01091	0.01193	0.00220	0.00626	0.00874
19770	0.06945	0.07696	0.05654	8.71614	8.55192	9.31499	0.65813	0.37998	0.21231	9.04992	9.51392	8.64517	0.16616	0.15878	0.12132	7.31210	8.22278	8.55194
19930	0.06729	0.07796	0.05873	8.69449	8.56401	9.30041	0.65396	0.38587	0.21648	9.05816	9.51511	8.68791	0.17039	0.16153	0.12378	7.31072	8.22415	8.53922
20090	0.06809	0.07609	0.05742	8.68998	8.53069	9.28295	0.65077	0.38217	0.21417	9.05662	9.53196	8.68725	0.16477	0.15812	0.11921	7.33459	8.20972	8.55686
20260	0.06840	0.07651	0.05810	8.69221	8.55936	9.27545	0.65406	0.38337	0.21637	9.04670	9.46294	8.70426	0.16673	0.16204	0.12360	7.34443	8.29478	8.56451
20420	0.07124	0.07823	0.05634	8.71025	8.53004	9.29941	0.64874	0.38310	0.21210	9.01546	9.46754	8.61140	0.16496	0.15927	0.12046	7.25478	8.14906	8.52070
20580	0.06865	0.07537	0.05712	8.77230	8.67797	9.43342	0.65629	0.38655	0.21431	9.21276	9.62998	8.75005	0.16838	0.16101	0.12402	7.23712	8.08691	8.35732
20750	0.07097	0.07703	0.05561	8.52256	8.43017	9.24555	0.65239	0.38103	0.21244	9.15691	9.69908	8.88953	0.16491	0.15675	0.11971	7.45477	8.28639	8.55412
20910	0.06964	0.07552	0.05730	8.56924	8.40877	9.15018	0.65605	0.38317	0.21488	8.99163	9.49600	8.73075	0.16602	0.16107	0.12362	7.42751	8.35422	8.63256
21070	0.06899	0.07408	0.05771	8.67709	8.48538	9.22274	0.65546	0.38270	0.21410	8.98840	9.49396	8.68404	0.16541	0.15769	0.12245	7.37716	8.28991	8.60733
21240	0.06899	0.07890	0.05740	8.67848	8.52950	9.25285	0.65909	0.38507	0.21610	9.01876	9.45732	8.65987	0.16871	0.15895	0.12395	7.35371	8.29234	8.60884	32.58	6.1	0.00	7.65	0.01265	0.01289	0.01620	0.00787	0.00585	0.00642	0.00467	0.01265	0.01678	0.00680	0.00698	0.00878	0.01487	0.01091	0.01193	0.00221	0.00626	0.00874
21400	0.07043	0.07631	0.05545	8.74088	8.55471	9.30257	0.65966	0.38168	0.21535	9.03552	9.50448	8.66198	0.16603	0.16058	0.11985	7.31768	8.20920	8.53374
21560	0.06916	0.07827	0.05777	8.65284	8.52494	9.30432	0.66879	0.38695	0.21582	9.13201	9.56544	8.72858	0.16711	0.16016	0.12575	7.33764	8.25756	8.57510
21730	0.06829	0.07767	0.05597	8.67470	8.49236	9.22963	0.65330	0.38105	0.21477	9.03060	9.49667	8.71027	0.16446	0.15786	0.11862	7.35094	8.25422	8.57575
21890	0.06871	0.07724	0.05739	8.73769	8.57574	9.28812	0.65222	0.38534	0.21654	9.02677	9.46523	8.63313	0.16723	0.16092	0.12132	7.29693	8.22446	8.57558
22050	0.06865	0.07604	0.05571	8.75931	8.62662	9.36810	0.65313	0.38172	0.21104	9.09094	9.50330	8.62974	0.16533	0.15750	0.11872	7.23346	8.12800	8.46091
22220	0.06730	0.07489	0.05331	8.68073	8.59744	9.39898	0.64354	0.38111	0.21059	9.21352	9.62570	8.73151	0.16665	0.16154	0.12287	7.27812	8.15241	8.46210
22380	0.07033	0.07629	0.05409	8.60039	8.46339	9.22500	0.65629	0.38134	0.21272	9.12781	9.62450	8.83233	0.16720	0.15773	0.12012	7.37582	8.24376	8.51935
22540	0.06743	0.07487	0.05360	8.63981	8.47232	9.22708	0.65104	0.37853	0.21025	9.04679	9.55070	8.73107	0.17023	0.15855	0.12488	7.37729	8.26265	8.55338
22710	0.07122	0.07878	0.05739	8.65682	8.50861	9.22052	0.65266	0.38367	0.21419	9.00086	9.47228	8.69880	0.16856	0.16151	0.12383	7.40773	8.33026	8.62623
22870	0.06931	0.07967	0.05939	8.72778	8.54919	9.27322	0.65571	0.38652	0.21660	9.00560	9.43162	8.59773	0.16832	0.16117	0.12513	7.28022	8.21069	8.58873	32.58	6.1	0.00	7.64	0.01265	0.01289	0.01620	0.00787	0.00585	0.00642	0.00467	0.01265	0.01678	0.00680	0.00698	0.00878	0.01487	0.01091	0.01193	0.00221	0.00626	0.00874
23030	0.06741	0.07593	0.05436	8.76414	8.62702	9.35213	0.65451	0.38342	0.21171	9.08240	9.48939	8.65644	0.16658	0.16017	0.12523	7.25138	8.16191	8.50360
23200	0.06843	0.07685	0.05673	8.70974	8.56905	9.33656	0.65333	0.38439	0.21326	9.11951	9.59606	8.71141	0.16835	0.15836	0.12324	7.30630	8.16965	8.50093
23360	0.06908	0.07205	0.05422	8.66106	8.54467	9.28389	0.65088	0.38030	0.21008	9.07538	9.51645	8.71641	0.16622	0.15710	0.11707	7.33061	8.25771	8.54166
23520	0.06582	0.07699	0.05880	8.68705	8.52237	9.29935	0.65826	0.38672	0.21623	9.04673	9.48880	8.65378	0.16713	0.16078	0.11934	7.30416	8.21992	8.56975
23690	0.06929	0.07661	0.05387	8.70776	8.55804	9.29390	0.65549	0.38427	0.21258	9.09527	9.52242	8.69938	0.16599	0.15776	0.11833	7.29191	8.20108	8.52688
23850	0.06760	0.07621	0.05670	8.70416	8.55523	9.28740	0.65429	0.38526	0.21531	9.02775	9.51435	8.68024	0.16798	0.15970	0.12149	7.32739	8.22377	8.54555
24010	0.06780	0.07657	0.05552	8.70096	8.56871	9.29926	0.65414	0.38067	0.21253	9.06777	9.50288	8.70357	0.16411	0.15795	0.12223	7.30707	8.22004	8.49994
24170	0.06915	0.07768	0.05706	8.68270	8.52766	9.29999	0.65308	0.38618	0.21524	9.08074	9.55371	8.69465	0.16767	0.15772	0.12221	7.37285	8.25973	8.57396
24340	0.06666	0.07560	0.05703	8.65038	8.52222	9.23775	0.64967	0.38141	0.21309	9.05667	9.48046	8.68727	0.16540	0.15492	0.12274	7.32785	8.25701	8.58379
24500	0.06744	0.07752	0.05654	8.73726	8.54744	9.24096	0.65318	0.38456	0.21372	9.00344	9.47024	8.66646	0.16606	0.15993	0.12105	7.37101	8.28361	8.61558	32.58	6.1	0.00	7.63	0.01265	0.01289	0.01620	0.00787	0.00585	0.00642	0.00467	0.01265	0.01678	0.00680	0.00698	0.00878	0.01487	0.01091	0.01193	0.00221	0.00626	0.00874
24670	0.06726	0.07628	0.05654	8.74241	8.57467	9.28796	0.65691	0.38258	0.21420	9.01880	9.42409	8.59231	0.16525	0.15646	0.12099	7.24318	8.17402	8.53217
24830	0.06920	0.07653	0.05695	8.75784	8.62055	9.37777	0.65654	0.38392	0.21552	9.15236	9.58136	8.71715	0.16830	0.15870	0.12464	7.30203	8.17245	8.48466
24990	0.06938	0.07480	0.05690	8.61860	8.48560	9.24663	0.65836	0.38267	0.21225	9.06011	9.52161	8.71678	0.16641	0.15877	0.11871	7.38605	8.29844	8.60199
25160	0.06938	0.07807	0.05977	8.70429	8.51597	9.24783	0.65608	0.38707	0.21568	8.99336	9.46112	8.64441	0.16839	0.16024	0.12431	7.33938	8.24591	8.56350
25320	0.07190	0.07639	0.05699	8.69228	8.55975	9.30110	0.65230	0.38256	0.21465	9.08072	9.53102	8.68347	0.16594	0.15802	0.12113	7.31091	8.19943	8.54603
25480	0.06820	0.07734	0.05882	8.71922	8.56396	9.27435	0.65534	0.38591	0.21426	9.03724	9.50139	8.69698	0.16878	0.15760	0.12199	7.31014	8.21035	8.51128
25650	0.06909	0.07648	0.05586	8.66658	8.51352	9.27043	0.65036	0.38024	0.21110	9.05873	9.52173	8.70991	0.16304	0.15493	0.11954	7.37825	8.27710	8.58465
25810	0.06475	0.07429	0.05469	8.68901	8.50375	9.22736	0.64734	0.37729	0.21039	8.97528	9.43376	8.63372	0.16856	0.16126	0.12300	7.32602	8.26465	8.61208
25970	0.06976	0.07632	0.05644	8.76532	8.57716	9.31975	0.65451	0.38501	0.21338	9.01749	9.44736	8.59631	0.16665	0.15867	0.12372	7.26840	8.20066	8.56641
26140	0.06726	0.07441	0.05495	8.73304	8.61829	9.34906	0.64839	0.37677	0.20987	9.08432	9.48374	8.65568	0.16799	0.16056	0.12364	7.24986	8.15934	8.47443	32.58	6.1	0.00	7.61	0.01265	0.01289	0.01620	0.00787	0.00585	0.00642	0.00467	0.01265	0.01678	0.00680	0.00698	0.00878	0.01487	0.01091	0.01193	0.00221	0.00626	0.00874
26300	0.06997	0.07748	0.05595	8.69456	8.56851	9.36011	0.65818	0.38397	0.21445	9.11439	9.56264	8.66759	0.16674	0.15576	0.11984	7.27021	8.17372	8.54230
26460	0.06828	0.07472	0.05390	8.69059	8.58019	9.32826	0.64363	0.38081	0.20961	9.14328	9.52900	8.68295	0.16683	0.15965	0.12307	7.22568	8.12048	8.43872
26630	0.06899	0.07808	0.05662	8.70237	8.58463	9.36115	0.65894	0.38176	0.21210	9.15536	9.61533	8.75611	0.16540	0.15910	0.12255	7.31832	8.17131	8.46683
26790	0.07168	0.07724	0.05759	8.60244	8.49798	9.26576	0.65548	0.38345	0.21392	9.10637	9.58092	8.75543	0.16660	0.15738	0.12090	7.34626	8.22929	8.52717
26950	0.06721	0.07690	0.05637	8.64348	8.49151	9.23610	0.64449	0.38057	0.21107	9.02760	9.53161	8.68644	0.16540	0.16042	0.11904	7.37783	8.26943	8.60311
27120	0.06941	0.07638	0.05541	8.68582	8.55314	9.24152	0.64410	0.38075	0.21113	9.05436	9.47080	8.69608	0.16266	0.15374	0.11875	7.34319	8.28870	8.59686
27280	0.06810	0.07572	0.05537	8.71267	8.50673	9.19929	0.64153	0.38067	0.21040	8.95186	9.43018	8.64976	0.16306	0.15457	0.11720	7.40888	8.35519	8.71244
27440	0.06386	0.07506	0.05745	8.81819	8.65401	9.34343	0.65563	0.38535	0.21656	9.02173	9.41531	8.54045	0.17023	0.15883	0.12370	7.12622	8.02418	8.37386
27610	0.07056	0.07704	0.05622	8.66619	8.59354	9.43260	0.65202	0.38060	0.21179	9.29983	9.79536	8.90034	0.16664	0.15861	0.12246	7.37660	8.18719	8.45295
27770	0.06955	0.07722	0.05688	8.48580	8.31933	9.05652	0.65252	0.38061	0.21238	8.97244	9.50108	8.76268	0.16562	0.15617	0.11982	7.44470	8.36182	8.64540	32.58	6.2	0.00	7.71	0.01265	0.01289	0.01620	0.00787	0.00585	0.00642	0.00467	0.01265	0.01678	0.00680	0.00698	0.00878	0.01487	0.01091	0.01193	0.00221	0.00626	0.00874
27930	0.06684	0.07623	0.05468	8.71344	8.51171	9.22415	0.64948	0.37853	0.21126	8.96284	9.42442	8.62530	0.16288	0.15491	0.11815	7.36965	8.25879	8.58130
28100	0.06952	0.07726	0.05972	8.66444	8.51370	9.24100	0.66050	0.38545	0.21613	9.02840	9.45326	8.66191	0.16851	0.15874	0.12205	7.35517	8.30357	8.62026
28260	0.07027	0.07763	0.05757	8.74488	8.56011	9.25191	0.65684	0.38154	0.21168	8.97628	9.43550	8.64337	0.16320	0.15467	0.11798	7.29486	8.21124	8.55115
28420	0.07009	0.07579	0.05695	8.72511	8.57884	9.30986	0.66067	0.38294	0.21592	9.06305	9.49439	8.67159	0.16529	0.15613	0.11923	7.32405	8.24444	8.58302
28590	0.06679	0.07645	0.05617	8.70582	8.54360	9.25658	0.65532	0.37797	0.21184	9.02988	9.49442	8.67307	0.16418	0.15569	0.11738	7.31945	8.22823	8.57265
28750	0.06865	0.07688	0.05533	8.71526	8.54628	9.25570	0.65174	0.38123	0.21381	9.02972	9.50658	8.68104	0.16417	0.15571	0.11916	7.35656	8.27927	8.60784
28910	0.06763	0.07588	0.05418	8.69867	8.52684	9.20055	0.65171	0.37932	0.21200	8.90884	9.36866	8.61094	0.16474	0.15562	0.11820	7.38917	8.39205	8.76533
29080	0.06520	0.07361	0.05265	8.89458	8.66235	9.33047	0.65135	0.37695	0.20754	8.90666	9.25143	8.37356	0.16524	0.16036	0.11957	7.06435	8.05461	8.54433
29240	0.07058	0.07877	0.05752	9.01090	8.94629	9.72298	0.65370	0.38148	0.21420	9.28752	9.58370	8.64390	0.16592	0.15806	0.12081	7.05307	7.87125	8.16351
29400	0.06950	0.07716	0.05741	8.46406	8.47324	9.43100	0.65741	0.38329	0.21438	9.41788	9.94105	9.02390	0.16625	0.15773	0.11982	7.41586	8.17201	8.38841	32.58	6.1	0.00	7.68	0.01265	0.01289	0.01620	0.00787	0.00585	0.00642	0.00467	0.01265	0.01678	0.00680	0.00698	0.00878	0.01487	0.01091	0.01193	0.00220	0.00626	0.00874
29570	0.06595	0.07554	0.05683	8.40713	8.28449	9.04546	0.65062	0.37956	0.21018	8.98274	9.52510	8.83833	0.16340	0.15692	0.12043	7.54276	8.47787	8.72557
29730	0.06989	0.07806	0.05776	8.69306	8.48905	9.17884	0.66078	0.38561	0.21425	8.91310	9.37943	8.57196	0.16597	0.15705	0.11931	7.29361	8.22885	8.59185
29890	0.07011	0.07737	0.05435	8.74215	8.59130	9.31266	0.65540	0.38022	0.21204	9.10493	9.53930	8.72992	0.16358	0.15384	0.11655	7.34616	8.25979	8.54006
30060	0.06841	0.07851	0.05529	8.64070	8.45634	9.20527	0.65302	0.38122	0.21418	8.98152	9.47259	8.63667	0.16496	0.15932	0.11896	7.37674	8.30134	8.67080
30220	0.06859	0.07666	0.05681	8.76113	8.60849	9.29079	0.64485	0.38188	0.21199	8.98475	9.40125	8.59248	0.16381	0.15659	0.11930	7.23677	8.17111	8.51012
30380	0.06691	0.07407	0.05430	8.73004	8.58843	9.35774	0.65096	0.37717	0.21079	9.08476	9.54869	8.69080	0.16517	0.15878	0.12387	7.31467	8.18277	8.52719
30550	0.06957	0.07745	0.05652	8.62712	8.50829	9.24704	0.65447	0.38345	0.21342	9.05522	9.52115	8.70088	0.16754	0.15806	0.12098	7.34562	8.27774	8.58185
30710	0.07132	0.08141	0.05753	8.69108	8.50646	9.26003	0.65209	0.38355	0.21542	9.00131	9.47652	8.63966	0.16567	0.15746	0.12249	7.32611	8.26324	8.59509
30870	0.06849	0.07498	0.05595	8.69571	8.55618	9.25071	0.65224	0.38023	0.21061	9.01913	9.45403	8.65487	0.16684	0.15944	0.12437	7.31322	8.25885	8.56506
31040	0.06873	0.07706	0.05674	8.74445	8.56122	9.29290	0.66122	0.38177	0.21389	9.00510	9.47895	8.62920	0.16572	0.15588	0.12028	7.31166	8.20242	8.53456	32.53	6.2	0.00	7.60	0.01265	0.01289	0.01620	0.00787	0.00584	0.00642	0.00467	0.01265	0.01678	0.00680	0.00698	0.00878	0.01487	0.01091	0.01193	0.00220	0.00626	0.00874
31200	0.06743	0.07687	0.05624	8.68262	8.57095	9.31702	0.65147	0.37893	0.20999	9.08518	9.50865	8.68992	0.16472	0.15675	0.12008	7.29321	8.20443	8.53243
31360	0.07006	0.07806	0.05596	8.66359	8.52582	9.27203	0.65361	0.38151	0.21343	9.06767	9.53560	8.70306	0.16424	0.15624	0.12096	7.33176	8.20923	8.52810
31530	0.06599	0.07431	0.05420	8.65551	8.53194	9.26167	0.65255	0.37951	0.21121	9.04291	9.51153	8.69626	0.16574	0.15908	0.12211	7.32746	8.22963	8.53943
31690	0.06926	0.07651	0.05685	8.68647	8.52290	9.27816	0.65854	0.38269	0.21400	9.04632	9.50015	8.68165	0.16457	0.15690	0.11786	7.33376	8.22465	8.56619
31850	0.06470	0.07519	0.05551	8.63451	8.51641	9.25392	0.64758	0.37998	0.21057	9.06927	9.48832	8.67134	0.16586	0.15913	0.12015	7.32079	8.27355	8.61571
32020	0.07042	0.07745	0.05628	8.72897	8.52032	9.23717	0.65282	0.38159	0.21330	8.99721	9.46153	8.66208	0.16472	0.15560	0.11755	7.31434	8.22403	8.56778
32180	0.06710	0.07258	0.05367	8.75095	8.60138	9.31462	0.65192	0.37505	0.20759	9.03933	9.46906	8.63858	0.16502	0.15928	0.12218	7.28365	8.20597	8.52716
32350	0.07192	0.07623	0.05628	8.71964	8.57976	9.31802	0.65405	0.38196	0.21309	9.06764	9.51526	8.67587	0.16534	0.15621	0.11907	7.31956	8.21602	8.52580
32510	0.06998	0.07638	0.05824	8.66083	8.52915	9.27245	0.65685	0.38120	0.21332	9.07516	9.52508	8.69007	0.16538	0.15763	0.12051	7.33622	8.24079	8.56397
32670	0.06720	0.07498	0.05561	8.71761	8.54181	9.25461	0.66176	0.38086	0.21139	9.00228	9.47634	8.68469	0.16263	0.15590	0.11932	7.36128	8.25068	8.55169	32.64	6.0	0.00	7.63	0.01265	0.01289	0.01620	0.00787	0.00585	0.00642	0.00467	0.01265	0.01678	0.00680	0.00698	0.00878	0.01487	0.01091	0.01193	0.00220	0.00626	0.00874
32840	0.06746	0.07778	0.05636	8.70183	8.55935	9.29812	0.65489	0.38393	0.21466	9.02386	9.45687	8.62376	0.16718	0.15980	0.12012	7.31149	8.26297	8.60316
33000	0.06770	0.07702	0.05419	8.73114	8.56637	9.29070	0.65641	0.38046	0.21162	9.03775	9.48435	8.65254	0.16424	0.15571	0.11562	7.28157	8.19549	8.52123
33160	0.06762	0.07748	0.05789	8.70136	8.55960	9.32362	0.66637	0.38364	0.21299	9.07829	9.52626	8.68045	0.16574	0.15857	0.11845	7.32614	8.21091	8.55244
33330	0.06563	0.07594	0.05453	8.68257	8.54004	9.23828	0.64606	0.38434	0.21139	8.99974	9.44005	8.65034	0.16245	0.15471	0.11414	7.35558	8.27820	8.59752
33490	0.06631	0.07719	0.05608	8.70565	8.55788	9.31913	0.65268	0.38390	0.21342	9.03373	9.43308	8.59190	0.16444	0.15468	0.11914	7.29970	8.23502	8.59998
33650	0.06715	0.07367	0.05613	8.75104	8.60031	9.31673	0.66377	0.38118	0.21168	9.04763	9.48160	8.65354	0.16481	0.15626	0.11814	7.30598	8.21342	8.52960
33820	0.06835	0.07686	0.05615	8.70492	8.54916	9.31082	0.65216	0.38492	0.21413	9.07335	9.51203	8.64438	0.16313	0.15743	0.11965	7.29932	8.22379	8.59340
33980	0.06663	0.07587	0.05563	8.72321	8.55324	9.26350	0.65412	0.38111	0.21099	9.05065	9.49035	8.70364	0.16243	0.15497	0.11840	7.30468	8.22242	8.53650
34140	0.06498	0.07525	0.05427	8.72274	8.54545	9.29988	0.64417	0.37885	0.20760	9.02275	9.48491	8.63899	0.16357	0.16090	0.12197	7.32737	8.22283	8.58047
34310	0.07022	0.07566	0.05537	8.71996	8.57637	9.30381	0.65082	0.38101	0.21170	9.05164	9.46349	8.64987	0.16576	0.15739	0.12102	7.29150	8.24882	8.55848	32.58	6.0	0.00	7.67	0.01265	0.01289	0.01620	0.00787	0.00585	0.00642	0.00467	0.01265	0.01678	0.00680	0.00698	0.00878	0.01487	0.01091	0.01193	0.00220	0.00626	0.00874
34470	0.07075	0.07486	0.05514	8.70470	8.55041	9.30826	0.65163	0.38397	0.21258	9.06335	9.51640	8.66128	0.16562	0.15764	0.11593	7.30513	8.21538	8.55179
34630	0.06676	0.07311	0.05302	8.70826	8.55674	9.28740	0.65303	0.37861	0.20999	9.06871	9.49836	8.68149	0.16391	0.15629	0.12096	7.30521	8.23810	8.53151
34800	0.06779	0.07592	0.05402	8.68489	8.52235	9.29284	0.65009	0.37978	0.21030	9.07954	9.54194	8.68938	0.16559	0.15417	0.11914	7.32169	8.20828	8.53608
34960	0.06916	0.07302	0.05292	8.66502	8.55013	9.27642	0.65060	0.37700	0.20850	9.07168	9.49765	8.68759	0.16229	0.15731	0.11970	7.32215	8.24835	8.54819
35120	0.06669	0.07505	0.05583	8.68693	8.50203	9.25390	0.65259	0.38167	0.21118	9.02770	9.51006	8.69210	0.16276	0.15556	0.11778	7.34020	8.24762	8.58766
35290	0.06624	0.07466	0.05387	8.70195	8.54496	9.26162	0.64992	0.38072	0.21017	9.00134	9.44522	8.64584	0.16496	0.15774	0.12188	7.32177	8.24648	8.58791
35450	0.06888	0.07447	0.05458	8.73918	8.55849	9.29929	0.65318	0.38374	0.21273	9.02871	9.48611	8.63686	0.16308	0.15714	0.11588	7.29847	8.21366	8.55544
35620	0.06688	0.07343	0.05387	8.67810	8.54073	9.27125	0.64629	0.37721	0.20899	9.03539	9.48931	8.69026	0.16538	0.15928	0.12102	7.32399	8.26602	8.58991
35780	0.06701	0.07656	0.05653	8.72970	8.54076	9.26005	0.65497	0.38243	0.21312	8.99371	9.48484	8.64071	0.16334	0.15839	0.11853	7.29533	8.19271	8.54482
35940	0.06862	0.07788	0.05502	8.70918	8.58144	9.31255	0.64961	0.38057	0.21200	9.07459	9.48211	8.65794	0.16590	0.15805	0.11790	7.28600	8.23007	8.56229	32.58	6.1	0.00	7.65	0.01265	0.01289	0.01620	0.00787	0.00585	0.00642	0.00467	0.01265	0.01678	0.00680	0.00698	0.00878	0.01487	0.01091	0.01193	0.00220	0.00626	0.00874
36110	0.06434	0.07333	0.05458	8.70130	8.53614	9.28429	0.64927	0.37912	0.21020	9.04257	9.48548	8.65340	0.16182	0.15371	0.11415	7.27538	8.19189	8.53705
36270	0.06493	0.07643	0.05525	8.71479	8.58097	9.31816	0.65628	0.38268	0.21161	9.06351	9.52422	8.68086	0.16265	0.15628	0.11740	7.27790	8.17090	8.49031
36430	0.06769	0.07379	0.05275	8.70457	8.57201	9.31340	0.64927	0.38233	0.20983	9.10168	9.57125	8.75692	0.16418	0.15672	0.11850	7.27637	8.11985	8.34677
36600	0.06599	0.07525	0.05586	8.43817	8.36463	9.21109	0.65952	0.37940	0.21273	9.30700	9.91120	9.10417	0.16724	0.15697	0.11819	7.50577	8.23555	8.37664
36760	0.06382	0.07352	0.05388	8.36281	8.21311	8.98734	0.65336	0.38022	0.21011	9.02498	9.69887	9.01196	0.16455	0.15839	0.11697	7.73168	8.57479	8.74062
36920	0.06773	0.07563	0.05465	8.55671	8.33279	9.02927	0.65599	0.38302	0.21409	8.89352	9.42295	8.65371	0.16370	0.15781	0.12059	7.43350	8.37032	8.70877
37090	0.06490	0.07380	0.05279	8.81301	8.63109	9.31410	0.64875	0.37965	0.21162	9.04951	9.51678	8.71481	0.16239	0.15737	0.11754	7.36028	8.24724	8.54887
37250	0.06855	0.07557	0.05512	8.68208	8.54709	9.30439	0.65071	0.38404	0.21375	9.09338	9.59400	8.76680	0.16594	0.15952	0.11844	7.41102	8.32068	8.60733
37410	0.06603	0.07353	0.05464	8.69491	8.55083	9.27256	0.65498	0.37971	0.21203	9.08304	9.53503	8.74904	0.16229	0.15384	0.11412	7.42768	8.34078	8.58201
37580	0.06550	0.07505	0.05359	8.64364	8.46097	9.21646	0.65295	0.38274	0.21348	9.02181	9.48284	8.66982	0.16535	0.15837	0.11797	7.37635	8.35253	8.69520	32.64	6.1	0.00	7.65	0.01265	0.01289	0.01620	0.00787	0.00585	0.00642	0.00467	0.01265	0.01678	0.00680	0.00698	0.00878	0.01487	0.01091	0.01193	0.00220	0.00626	0.00874
37740	0.06511	0.07367	0.05334	8.76025	8.56238	9.24299	0.65324	0.37923	0.21114	8.99229	9.47159	8.70949	0.16370	0.15493	0.11458	7.39852	8.34073	8.63988
37900	0.06283	0.07168	0.05216	8.74096	8.54262	9.26566	0.65032	0.37332	0.20989	8.99446	9.47171	8.65391	0.16504	0.15762	0.12220	7.38291	8.32923	8.68970
38070	0.06952	0.07457	0.05481	8.77753	8.61334	9.26623	0.65501	0.37906	0.21183	8.98625	9.41636	8.64708	0.16379	0.15752	0.11754	7.34393	8.33875	8.66293
38230	0.06724	0.07597	0.05671	8.80808	8.61610	9.35743	0.66127	0.38133	0.21127	9.03644	9.45089	8.61052	0.16265	0.15747	0.11759	7.28681	8.21967	8.58318
38390	0.06629	0.07380	0.05406	8.74633	8.61328	9.36261	0.65439	0.37924	0.20892	9.14619	9.60119	8.73970	0.16202	0.15802	0.11716	7.27710	8.18842	8.52801
38560	0.06696	0.07545	0.05447	8.65199	8.51052	9.27369	0.65160	0.38158	0.21066	9.09350	9.61456	8.79659	0.16374	0.15615	0.11809	7.39589	8.26205	8.57019
38720	0.06599	0.07442	0.05289	8.63555	8.46177	9.16277	0.64750	0.37605	0.20893	9.02273	9.51347	8.75144	0.16484	0.15989	0.12009	7.40548	8.34008	8.60479
38880	0.06883	0.07511	0.05586	8.61221	8.38960	9.10946	0.65970	0.38077	0.21254	8.94292	9.52136	8.79598	0.16391	0.15570	0.12000	7.58321	8.50852	8.80167
39050	0.06690	0.07581	0.05483	8.71625	8.47466	9.09740	0.65376	0.37824	0.21027	8.79892	9.21540	8.50138	0.16688	0.15612	0.11989	7.32127	8.40197	8.82043
39210	0.06803	0.07593	0.05595	8.97576	8.71941	9.34485	0.65284	0.37943	0.21136	8.92462	9.33450	8.49582	0.16558	0.15730	0.11619	7.19774	8.15041	8.56619	32.64	6.3	0.00	7.63	0.01265	0.01289	0.01620	0.00787	0.00585	0.00642	0.00467	0.01265	0.01678	0.00680	0.00698	0.00878	0.01487	0.01091	0.01193	0.00220	0.00626	0.00874
39370	0.06462	0.07383	0.05202	8.83577	8.72242	9.45373	0.65438	0.37191	0.20890	9.16263	9.53715	8.65429	0.16694	0.15788	0.12270	7.22764	8.15237	8.50459
39540	0.06583	0.07842	0.05391	8.78169	8.64998	9.42225	0.65372	0.38004	0.21242	9.13571	9.59000	8.68520	0.16322	0.15705	0.11591	7.24545	8.09902	8.42640
39700	0.06453	0.07549	0.05210	8.58940	8.53014	9.31783	0.64862	0.37693	0.20675	9.18082	9.61665	8.77144	0.16631	0.15988	0.12010	7.33923	8.21501	8.47866
39870	0.06912	0.07711	0.05655	8.62661	8.50689	9.28520	0.65223	0.38342	0.21254	9.09264	9.60190	8.78281	0.16564	0.15466	0.11932	7.42809	8.29805	8.59020
40030	0.06716	0.07603	0.05564	8.68883	8.52175	9.24596	0.65755	0.38389	0.21294	9.02846	9.47669	8.65008	0.16652	0.15511	0.11900	7.33808	8.28443	8.62448
40190	0.06561	0.07602	0.05392	8.78954	8.60653	9.32132	0.66077	0.37950	0.21008	9.02369	9.43261	8.56141	0.16318	0.15678	0.11485	7.21245	8.12517	8.49091
40360	0.06798	0.07609	0.05612	8.76627	8.68926	9.48007	0.65934	0.38405	0.21211	9.20874	9.61339	8.73113	0.16714	0.15866	0.11956	7.26023	8.12006	8.43502
40520	0.06798	0.07667	0.05617	8.59396	8.49371	9.29465	0.65039	0.38089	0.21184	9.17096	9.63974	8.77456	0.16245	0.15508	0.11602	7.32909	8.15938	8.45729
40680	0.06709	0.07617	0.05682	8.57643	8.47815	9.25808	0.65939	0.38195	0.21395	9.12970	9.61237	8.79804	0.16547	0.15683	0.11888	7.38608	8.25040	8.52609
40850	0.06751	0.07338	0.05369	8.63722	8.49798	9.24237	0.65437	0.37966	0.21161	9.05248	9.53251	8.68921	0.16290	0.15383	0.11622	7.34364	8.24239	8.56544	32.64	6.0	0.00	7.69	0.01265	0.01289	0.01620	0.00787	0.00585	0.00642	0.00467	0.01265	0.01678	0.00680	0.00698	0.00878	0.01487	0.01091	0.01193	0.00220	0.00626	0.00874
41010	0.06713	0.07636	0.05729	8.66265	8.48247	9.21266	0.65528	0.38267	0.21089	9.00037	9.48584	8.65084	0.16433	0.15719	0.11944	7.34580	8.25788	8.62421
41170	0.06704	0.07482	0.05481	8.77929	8.62571	9.31874	0.64309	0.37962	0.20970	9.00767	9.42878	8.64891	0.16177	0.15295	0.11614	7.29355	8.22202	8.54112
41340	0.06461	0.07309	0.05187	8.71287	8.57029	9.33825	0.64618	0.37460	0.20548	9.10335	9.55493	8.68762	0.16434	0.15750	0.12083	7.28070	8.17551	8.51422
41500	0.06824	0.07439	0.05368	8.69741	8.57497	9.30731	0.64632	0.38080	0.21221	9.05719	9.51390	8.70229	0.16244	0.15644	0.11572	7.33557	8.23091	8.53993
41660	0.06449	0.07324	0.05197	8.68397	8.55335	9.31264	0.65368	0.37656	0.20776	9.08743	9.54918	8.67861	0.16464	0.15840	0.11971	7.30151	8.18503	8.50297
41830	0.06649	0.07733	0.05450	8.59534	8.46664	9.21404	0.64998	0.38157	0.21181	9.06442	9.51862	8.70676	0.16367	0.15703	0.12093	7.35550	8.28724	8.58327
41990	0.06542	0.07630	0.05420	8.66113	8.46262	9.22252	0.65466	0.38035	0.21210	8.99024	9.48694	8.62821	0.16363	0.15646	0.11849	7.29531	8.18637	8.53962
42150	0.06762	0.07265	0.05369	8.66689	8.54955	9.27066	0.65125	0.37793	0.20964	9.06108	9.49244	8.68992	0.16199	0.15222	0.11461	7.31193	8.23117	8.56370
42320	0.06505	0.07473	0.05667	8.71176	8.53561	9.20570	0.65741	0.38550	0.21625	8.86709	9.31582	8.52575	0.16807	0.15931	0.12124	7.27863	8.21750	8.57983
42480	0.06695	0.07519	0.05431	8.84260	8.76558	9.50443	0.65667	0.38159	0.21216	9.16909	9.51445	8.63976	0.16173	0.15564	0.11740	7.19821	8.09145	8.39887	32.64	6.0	0.00	8.06	0.01265	0.01289	0.01620	0.00787	0.00585	0.00642	0.00467	0.01265	0.01678	0.00680	0.00698	0.00878	0.01487	0.01091	0.01193	0.00220	0.00626	0.00874
42640	0.06381	0.07615	0.05426	8.60881	8.47823	9.28532	0.65610	0.38208	0.21445	9.13225	9.64063	8.74616	0.16487	0.15708	0.11954	7.32055	8.16037	8.45389
42800	0.06751	0.07485	0.05416	8.54880	8.42872	9.16790	0.65635	0.37982	0.21049	9.10521	9.59466	8.79267	0.16247	0.15351	0.11493	7.39566	8.29776	8.56125
42970	0.06313	0.07443	0.05491	8.62961	8.43968	9.15586	0.65380	0.38062	0.21170	8.95376	9.47471	8.68264	0.16523	0.15647	0.11830	7.39094	8.30249	8.61189
43130	0.06229	0.07610	0.05228	8.67605	8.50018	9.17675	0.64911	0.37965	0.21152	8.95404	9.40560	8.63531	0.16175	0.15604	0.11895	7.33914	8.28663	8.61850
43290	0.06519	0.07244	0.05096	8.77011	8.59360	9.31258	0.64806	0.37595	0.20660	8.99881	9.40167	8.55926	0.16386	0.15734	0.12170	7.30545	8.25917	8.59396
43460	0.06531	0.07630	0.05701	8.72331	8.56542	9.26665	0.64943	0.37864	0.21175	9.01297	9.42194	8.60173	0.16549	0.15548	0.11737	7.22592	8.18381	8.55444
43620	0.06452	0.07250	0.05222	8.80194	8.62384	9.35209	0.65434	0.37619	0.20891	9.04157	9.50579	8.66546	0.16568	0.15943	0.12252	7.31725	8.20239	8.55155
43790	0.06885	0.07733	0.05495	8.73154	8.61832	9.36309	0.65932	0.38106	0.21226	9.13741	9.53959	8.69221	0.16468	0.15610	0.11697	7.27568	8.16982	8.48090
43950	0.06567	0.07567	0.05443	8.64492	8.52041	9.26432	0.65257	0.38232	0.21366	9.12124	9.59224	8.74871	0.16559	0.15685	0.12024	7.33261	8.23258	8.54854
44110	0.06660	0.07537	0.05480	8.67819	8.52372	9.25671	0.64473	0.37896	0.21075	9.05508	9.51901	8.71299	0.16371	0.15320	0.11423	7.34700	8.25427	8.58502	32.64	6.0	0.00	7.66	0.01265	0.01289	0.01620	0.00787	0.00585	0.00642	0.00467	0.01265	0.01678	0.00680	0.00698	0.00878	0.01487	0.01091	0.01193	0.00220	0.00626	0.00874
44280	0.06560	0.07498	0.05442	8.76328	8.61275	9.34134	0.65638	0.38133	0.21208	9.08948	9.52910	8.68968	0.16428	0.15707	0.11808	7.28113	8.16578	8.49318
44440	0.06410	0.07423	0.05340	8.66853	8.55711	9.31692	0.64975	0.37726	0.21053	9.10208	9.55211	8.69720	0.16041	0.15330	0.11754	7.34777	8.26542	8.60570
44600	0.06341	0.07120	0.05165	8.74690	8.55288	9.27779	0.65279	0.37594	0.20734	9.01332	9.48062	8.69941	0.16504	0.15785	0.12124	7.34938	8.26829	8.60523
44770	0.06674	0.07536	0.05543	8.76894	8.58746	9.31552	0.65962	0.38390	0.21238	9.02764	9.49493	8.61892	0.16609	0.15514	0.11947	7.31290	8.23376	8.60168
44930	0.06740	0.07867	0.05734	8.79654	8.63742	9.34910	0.65684	0.38101	0.21221	9.08349	9.52061	8.69875	0.16405	0.15609	0.11806	7.30922	8.17964	8.47378
45090	0.06548	0.07450	0.05336	8.66834	8.54219	9.32186	0.65402	0.37765	0.21082	9.09291	9.56327	8.73415	0.16078	0.15375	0.11579	7.40200	8.28043	8.58807
45260	0.06580	0.07533	0.05507	8.72318	8.56597	9.26734	0.65846	0.38198	0.21240	8.98791	9.39074	8.58096	0.16502	0.15796	0.11985	7.21995	8.14041	8.52324
45420	0.06403	0.07359	0.05396	8.79182	8.65044	9.42151	0.65007	0.37978	0.20930	9.11427	9.53546	8.62643	0.16066	0.15394	0.11618	7.24246	8.15271	8.51710
45580	0.06346	0.07257	0.05374	8.71081	8.60542	9.34974	0.65243	0.37649	0.20568	9.15637	9.62132	8.79215	0.16373	0.15720	0.12164	7.29153	8.12334	8.38797
45750	0.06808	0.07583	0.05315	8.54515	8.41020	9.21222	0.65237	0.38173	0.21099	9.06553	9.61605	8.77934	0.16462	0.15646	0.11917	7.49301	8.35030	8.64552	32.64	6.1	0.00	7.67	0.01265	0.01289	0.01620	0.00787	0.00585	0.00642	0.00467	0.01265	0.01678	0.00680	0.00698	0.00878	0.01487	0.01091	0.01193	0.00220	0.00626	0.00874
45910	0.06510	0.07373	0.05578	8.71804	8.54664	9.24317	0.64661	0.38103	0.21205	9.00752	9.46130	8.67243	0.16237	0.15497	0.11861	7.35759	8.33525	8.64377
46070	0.06536	0.07509	0.05192	8.76869	8.54941	9.26451	0.64808	0.37798	0.20955	8.97912	9.40977	8.57895	0.16340	0.15773	0.12015	7.27485	8.22622	8.60446
46240	0.06484	0.07379	0.05374	8.80000	8.67174	9.39687	0.64487	0.37629	0.21020	9.12732	9.53356	8.67629	0.16143	0.15444	0.11666	7.21031	8.11710	8.45126
46400	0.06399	0.07129	0.05164	8.71123	8.60854	9.40106	0.64590	0.37736	0.20728	9.17141	9.63365	8.72528	0.16022	0.15266	0.11565	7.22222	8.01044	8.32733
46560	0.06200	0.07384	0.05510	8.47968	8.43819	9.24184	0.66334	0.38137	0.21521	9.30540	9.87380	9.10026	0.16598	0.16144	0.12307	7.53156	8.31428	8.48144
46730	0.06732	0.07500	0.05355	8.46588	8.28579	9.02135	0.65002	0.38007	0.20803	8.89941	9.49313	8.75022	0.16312	0.15701	0.12039	7.58443	8.49980	8.78786
46890	0.06554	0.07483	0.05445	8.70728	8.50786	9.16041	0.64813	0.38199	0.21198	8.85014	9.27121	8.50484	0.16126	0.15518	0.11724	7.35666	8.39025	8.75413
47050	0.06381	0.07344	0.05252	8.85028	8.61387	9.30256	0.64830	0.37694	0.20658	8.97626	9.38642	8.55851	0.16063	0.15168	0.11446	7.23507	8.15560	8.54183
47220	0.06678	0.07517	0.05504	8.79435	8.70117	9.47988	0.64989	0.38369	0.21322	9.17050	9.57198	8.67183	0.16547	0.15797	0.12153	7.24032	8.13974	8.52958
47380	0.06709	0.07497	0.05394	8.73112	8.59267	9.36661	0.64991	0.37929	0.20882	9.17205	9.65545	8.74298	0.16248	0.15513	0.11521	7.32488	8.19479	8.53877	32.58	6.0	0.00	7.78	0.01265	0.01289	0.01620	0.00787	0.00585	0.00642	0.00467	0.01265	0.01678	0.00680	0.00698	0.00878	0.01486	0.01091	0.01193	0.00220	0.00626	0.00874
47540	0.06610	0.07527	0.05504	8.64375	8.50218	9.19496	0.65082	0.38111	0.21245	9.01605	9.46506	8.66035	0.16329	0.15573	0.11700	7.33609	8.30084	8.67371
47700	0.06471	0.07195	0.05128	8.84100	8.59295	9.27259	0.64508	0.37820	0.21025	8.97673	9.46409	8.68266	0.16008	0.15269	0.11433	7.26024	8.14384	8.45892
47870	0.06236	0.07081	0.05214	8.77383	8.63445	9.38214	0.64123	0.37505	0.20634	9.12918	9.56312	8.74047	0.16242	0.15412	0.11979	7.30824	8.16330	8.37809
48030	0.06590	0.07596	0.05423	8.46044	8.35953	9.20239	0.65163	0.37927	0.20958	9.11499	9.65184	8.85769	0.16066	0.15323	0.11554	7.55869	8.44979	8.70455
48190	0.06381	0.07205	0.05094	8.62481	8.36576	9.01136	0.64601	0.37516	0.20590	8.78542	9.26552	8.52501	0.16373	0.15658	0.11750	7.39234	8.45390	8.88198
48360	0.06637	0.07589	0.05628	9.00770	8.74642	9.32784	0.65062	0.38013	0.20978	8.82835	9.17227	8.36360	0.16202	0.15468	0.11655	7.13565	8.10486	8.50783
48520	0.06470	0.07373	0.05243	8.84239	8.76206	9.55834	0.63687	0.37721	0.20703	9.12712	9.46099	8.52014	0.16395	0.15573	0.12027	7.11211	7.99670	8.34510
48690	0.06872	0.07776	0.05629	8.62126	8.57314	9.46239	0.64883	0.38129	0.21247	9.36562	9.85632	8.94676	0.16205	0.15479	0.11686	7.37883	8.17339	8.37283
48850	0.06806	0.07514	0.05746	8.33183	8.15026	8.87176	0.65404	0.38298	0.20993	8.78733	9.43734	8.82644	0.16395	0.15483	0.12004	7.80284	8.80456	9.05257
49010	0.06691	0.07542	0.05166	8.89515	8.54960	9.05361	0.63608	0.37685	0.20836	8.49393	8.78409	8.02392	0.16077	0.15070	0.11383	7.11487	8.34400	8.95452	32.64	6.0	0.00	7.63	0.01265	0.01289	0.01620	0.00787	0.00585	0.00642	0.00467	0.01265	0.01678	0.00680	0.00698	0.00878	0.01487	0.01091	0.01193	0.00220	0.00625	0.00874
49180	0.06519	0.07542	0.05506	9.43025	9.20168	9.84836	0.65444	0.38429	0.21271	9.05806	9.21904	8.18294	0.16382	0.15756	0.11936	6.73693	7.67193	8.22406
49340	0.06588	0.07323	0.05401	8.91039	8.95669	9.80605	0.65292	0.37820	0.20958	9.39163	9.64415	8.66659	0.16277	0.15563	0.11461	7.10735	7.96846	8.30378
49500	0.06285	0.07218	0.05096	8.62988	8.56148	9.37660	0.64416	0.37398	0.20528	9.21028	9.66182	8.76156	0.16325	0.15569	0.11984	7.28238	8.11029	8.38936
49670	0.06768	0.07488	0.05401	8.51950	8.38287	9.15010	0.64772	0.37931	0.21134	9.08558	9.61383	8.84705	0.16248	0.15623	0.11282	7.49070	8.41286	8.62084
49830	0.06459	0.07254	0.05106	8.67268	8.44395	9.15876	0.64661	0.37495	0.20590	8.86154	9.30701	8.50756	0.16115	0.15247	0.11633	7.26200	8.22921	8.67121
49990	0.06565	0.07462	0.05267	8.91354	8.78825	9.49405	0.65130	0.37749	0.20938	9.11625	9.45292	8.55169	0.16103	0.15375	0.11399	7.11990	8.03237	8.40899
50160	0.06349	0.07444	0.05850	8.75193	8.68037	9.48040	0.64931	0.38542	0.21534	9.19146	9.57451	8.64673	0.16626	0.15911	0.12009	7.17049	8.03841	8.37620
50320	0.06773	0.07576	0.05418	8.64350	8.60739	9.42734	0.65331	0.37822	0.21212	9.28749	9.72199	8.88373	0.16375	0.15767	0.11655	7.32551	8.17868	8.40344
50480	0.06623	0.07409	0.05391	8.48213	8.34230	9.12858	0.64960	0.37841	0.20856	9.02645	9.59290	8.82829	0.16273	0.15581	0.11552	7.54650	8.41158	8.66877
50650	0.06594	0.07424	0.05385	8.60497	8.41631	9.08099	0.65286	0.38000	0.20779	8.88826	9.34631	8.56216	0.15941	0.15255	0.11737	7.28741	8.27655	8.65847	32.64	6.0	0.00	7.59	0.01265	0.01289	0.01620	0.00787	0.00585	0.00642	0.00467	0.01265	0.01678	0.00680	0.00698	0.00878	0.01487	0.01091	0.01193	0.00220	0.00626	0.00874
50810	0.06098	0.07408	0.05525	8.87191	8.71121	9.42937	0.65389	0.38327	0.21396	9.06349	9.46913	8.54550	0.16507	0.15921	0.11979	7.16664	8.04969	8.44274
50970	0.06617	0.07345	0.05321	8.76102	8.70827	9.49986	0.65227	0.37907	0.20873	9.24732	9.62149	8.69336	0.16600	0.15555	0.11926	7.20183	8.08268	8.40592
51140	0.06570	0.07302	0.05294	8.65825	8.56497	9.36584	0.65652	0.37923	0.20956	9.18266	9.64750	8.75997	0.16343	0.15487	0.12044	7.28420	8.07865	8.35373
51300	0.06518	0.07410	0.05514	8.50547	8.41269	9.19088	0.65340	0.37783	0.20855	9.11128	9.60682	8.84501	0.16135	0.15308	0.11352	7.48299	8.40189	8.64941
51460	0.06891	0.07604	0.05806	8.64393	8.40746	9.11013	0.66163	0.38604	0.21389	8.93116	9.46373	8.70309	0.16498	0.15677	0.11734	7.42833	8.32392	8.60763
51630	0.06754	0.07510	0.05390	8.71171	8.57555	9.30323	0.64688	0.37556	0.21016	9.02094	9.41000	8.56393	0.16300	0.15411	0.11851	7.26023	8.17967	8.52489
51790	0.06525	0.07245	0.05503	8.75775	8.63748	9.40277	0.65438	0.38562	0.21346	9.20316	9.65378	8.77691	0.16451	0.15745	0.11803	7.30486	8.14506	8.44332
51950	0.06602	0.07422	0.05441	8.54904	8.39090	9.13957	0.65372	0.37662	0.21040	9.04587	9.58862	8.80481	0.16118	0.15548	0.11651	7.44183	8.32489	8.60393
52110	0.06339	0.06991	0.05166	8.60672	8.41945	9.14139	0.64769	0.37507	0.20460	8.98530	9.48742	8.72169	0.16106	0.15608	0.11950	7.42213	8.34783	8.63314
52280	0.06764	0.07549	0.05406	8.69181	8.52196	9.19014	0.64881	0.37909	0.20996	9.00642	9.48405	8.68079	0.16171	0.15531	0.12025	7.40343	8.33236	8.63729	32.64	6.2	0.00	7.77	0.01265	0.01289	0.01620	0.00787	0.00585	0.00642	0.00467	0.01265	0.01678	0.00680	0.00698	0.00878	0.01487	0.01091	0.01193	0.00220	0.00626	0.00874
52440	0.06506	0.07286	0.05167	8.68190	8.48244	9.16709	0.64319	0.37584	0.20737	8.92860	9.36957	8.60939	0.16108	0.15527	0.12015	7.33750	8.29405	8.62720
52600	0.06378	0.07325	0.05387	8.75867	8.57628	9.30054	0.65280	0.37965	0.21083	8.99523	9.42427	8.59456	0.16286	0.15711	0.11797	7.33028	8.25756	8.61915
52770	0.06215	0.07303	0.05227	8.73658	8.58206	9.29839	0.65295	0.37668	0.20649	8.97801	9.38229	8.59951	0.16126	0.15604	0.12075	7.35812	8.30874	8.62902
52930	0.06623	0.07500	0.05526	8.67848	8.45198	9.14530	0.65391	0.37830	0.21016	8.84260	9.26687	8.47494	0.16433	0.15652	0.11863	7.30658	8.37655	8.91880
53100	0.06558	0.07420	0.05286	9.17497	8.97962	9.55949	0.64709	0.37766	0.20766	9.04656	9.28827	8.41331	0.16528	0.15597	0.12141	6.96638	7.89001	8.34947
53260	0.06865	0.07639	0.05546	8.79925	8.77292	9.59886	0.64633	0.38088	0.21211	9.33417	9.76102	8.85438	0.16239	0.15470	0.11751	7.34112	8.11533	8.41237
53420	0.06722	0.07561	0.05601	8.47508	8.39112	9.12462	0.65410	0.38362	0.21471	9.06286	9.55747	8.78662	0.16514	0.15727	0.11812	7.38581	8.29343	8.58728
53590	0.06617	0.07428	0.05499	8.71612	8.53359	9.28758	0.64726	0.37841	0.20925	9.04709	9.55759	8.74321	0.16247	0.15380	0.11667	7.43085	8.32729	8.66146
53750	0.06388	0.07138	0.05482	8.74950	8.57665	9.23406	0.65749	0.37729	0.20958	8.93975	9.37872	8.60648	0.16091	0.15287	0.11692	7.28936	8.23809	8.55874
53920	0.06227	0.07227	0.05331	8.77400	8.65068	9.39928	0.65147	0.38079	0.21047	9.11973	9.52168	8.66768	0.16152	0.15407	0.11946	7.25592	8.13958	8.46493	32.64	6.1	0.00	7.66	0.01265	0.01289	0.01620	0.00787	0.00585	0.00642	0.00467	0.01265	0.01678	0.00680	0.00698	0.00878	0.01487	0.01091	0.01193	0.00220	0.00626	0.00874
54080	0.06469	0.07451	0.05379	8.66580	8.59793	9.39484	0.64602	0.37577	0.20743	9.22459	9.68560	8.81559	0.16139	0.15233	0.11740	7.32030	8.19028	8.50380
54240	0.06276	0.07417	0.05376	8.67997	8.52641	9.26246	0.64860	0.38053	0.21040	9.00421	9.49946	8.67839	0.16250	0.15462	0.11746	7.40157	8.33913	8.68643
54410	0.06547	0.07364	0.05268	8.76960	8.62928	9.31371	0.64556	0.37935	0.21048	9.12748	9.53005	8.67176	0.16175	0.15286	0.11521	7.21340	8.14809	8.53431
54570	0.06229	0.07474	0.05599	8.81641	8.63569	9.34461	0.65235	0.38329	0.21310	9.06392	9.55800	8.75091	0.16401	0.15635	0.12162	7.42100	8.27562	8.57991
54730	0.06733	0.07406	0.05364	8.61493	8.46535	9.21018	0.65203	0.37660	0.20791	9.13061	9.61366	8.77064	0.16305	0.15579	0.11892	7.34635	8.23987	8.53211
54900	0.06601	0.07273	0.05648	8.59108	8.41129	9.11513	0.65279	0.37932	0.20914	8.92731	9.45306	8.67746	0.16371	0.15364	0.11599	7.49177	8.45573	8.81939
55060	0.06599	0.07510	0.05301	8.86090	8.59170	9.18092	0.64306	0.37421	0.20734	8.86113	9.35029	8.53170	0.16517	0.15666	0.11916	7.23475	8.30765	8.69343
55230	0.06715	0.07547	0.05483	9.02766	8.87064	9.56055	0.64296	0.38159	0.20910	9.05938	9.37543	8.45022	0.16397	0.15310	0.11720	7.05735	7.91673	8.33945
55390	0.06615	0.07851	0.05546	8.71766	8.70818	9.54526	0.65299	0.37930	0.21019	9.36928	9.75696	8.82497	0.16360	0.15609	0.11946	7.26522	8.13418	8.41046
55550	0.06659	0.07441	0.05550	8.57180	8.45658	9.27813	0.65181	0.38062	0.20896	9.14182	9.64887	8.83648	0.16358	0.15400	0.11803	7.45752	8.31463	8.55879	32.64	6.0	0.00	7.63	0.01265	0.01289	0.01620	0.00787	0.00585	0.00642	0.00467	0.01265	0.01678	0.00680	0.00698	0.00878	0.01487	0.01091	0.01193	0.00221	0.00626	0.00874
55720	0.06716	0.07613	0.05651	8.59407	8.45553	9.18483	0.65940	0.38194	0.21336	8.99479	9.44601	8.64800	0.16299	0.15723	0.12136	7.36479	8.33142	8.66813
55880	0.06803	0.07394	0.05368	8.76277	8.55558	9.25177	0.65299	0.37774	0.20932	8.99855	9.50976	8.69762	0.16166	0.15456	0.11626	7.38862	8.29247	8.64120
56040	0.06670	0.07768	0.05580	8.77883	8.61685	9.30903	0.65427	0.38229	0.21394	9.00084	9.42916	8.61294	0.16391	0.15739	0.11941	7.30196	8.24964	8.60079
56210	0.06839	0.07562	0.05258	8.78953	8.61149	9.35446	0.64880	0.37967	0.21058	9.04963	9.51192	8.66333	0.16208	0.15464	0.11672	7.32527	8.19280	8.51835
