WetView ver 7.1	07-17-2018	14:45:32
AC9 Absorption and Attenuation Meter
00000266		; Serial number
2	; structure version number
Reserved
0.000000	0.000000		; Depth calibration
19200			; Baud rate
0.100000			; Path length (meters)
31			; number of temperature calibration bins
				12.59339	13.44920	14.48425	15.49668	16.50852	17.49564	18.50545	19.52458	20.50176	21.48889	22.47318	23.48707	24.50962	25.49370	26.49784	27.51372	28.50746	29.47237	30.47938	31.50214	32.50470	33.49235	34.50337	35.50914	36.50618	37.52058	38.51018	39.51308	40.49994	41.49866	42.47204	; temperature bins
a650	Blue	20.34952		-0.00383	-0.00415	-0.00430	-0.00391	-0.00363	-0.00317	-0.00269	-0.00237	-0.00179	-0.00130	-0.00099	-0.00071	-0.00015	0.00000	0.00004	-0.00001	0.00015	0.00036	0.00058	0.00101	0.00161	0.00132	0.00160	0.00169	0.00242	0.00273	0.00336	0.00365	0.00427	0.00566	0.00670		; offset and temperature correction info
a676	Green	20.51193		-0.00398	-0.00384	-0.00360	-0.00306	-0.00302	-0.00255	-0.00235	-0.00212	-0.00163	-0.00136	-0.00118	-0.00089	-0.00029	0.00000	0.00068	0.00082	0.00099	0.00137	0.00145	0.00212	0.00260	0.00252	0.00321	0.00354	0.00457	0.00535	0.00617	0.00648	0.00742	0.00887	0.01002		; offset and temperature correction info
a715	Brown	20.23230		-0.00421	-0.00394	-0.00391	-0.00291	-0.00264	-0.00192	-0.00204	-0.00179	-0.00188	-0.00239	-0.00180	-0.00187	-0.00099	0.00000	0.00084	0.00162	0.00188	0.00224	0.00321	0.00381	0.00466	0.00528	0.00588	0.00696	0.00859	0.01041	0.01148	0.01282	0.01333	0.01456	0.01617		; offset and temperature correction info
c510	Red	20.40042		-0.00261	-0.00247	-0.00258	-0.00225	-0.00203	-0.00197	-0.00199	-0.00203	-0.00154	-0.00103	-0.00069	-0.00019	-0.00007	0.00000	0.00011	-0.00021	-0.00042	-0.00056	-0.00040	0.00011	0.00036	0.00050	0.00077	0.00079	0.00050	0.00042	0.00043	0.00092	0.00147	0.00200	0.00232		; offset and temperature correction info
c532	Magenta	20.40760		-0.00248	-0.00265	-0.00278	-0.00279	-0.00296	-0.00292	-0.00238	-0.00206	-0.00129	-0.00096	-0.00092	-0.00052	-0.00009	0.00000	0.00007	-0.00049	-0.00136	-0.00107	-0.00079	-0.00065	-0.00074	-0.00105	-0.00152	-0.00192	-0.00236	-0.00269	-0.00252	-0.00233	-0.00172	-0.00128	-0.00067		; offset and temperature correction info
c555	Black	20.50654		-0.00053	-0.00063	-0.00106	-0.00094	-0.00068	-0.00055	-0.00053	-0.00039	-0.00028	-0.00025	-0.00011	-0.00035	-0.00007	0.00000	-0.00037	-0.00055	-0.00036	-0.00014	0.00019	0.00044	0.00032	0.00040	0.00050	0.00028	0.00014	0.00013	0.00030	0.00073	0.00117	0.00176	0.00241		; offset and temperature correction info
a412	LtBlue	17.15231		-0.01972	-0.01823	-0.01612	-0.01381	-0.01272	-0.01080	-0.00959	-0.00866	-0.00710	-0.00532	-0.00354	-0.00148	-0.00028	0.00000	0.00176	0.00297	0.00394	0.00440	0.00453	0.00487	0.00804	0.00856	0.01065	0.01248	0.01388	0.01439	0.01659	0.01881	0.02256	0.02450	0.02719		; offset and temperature correction info
a440	LtGreen	18.00171		-0.00729	-0.00642	-0.00581	-0.00502	-0.00426	-0.00349	-0.00244	-0.00218	-0.00179	-0.00101	-0.00046	-0.00006	0.00036	0.00000	0.00040	0.00045	0.00030	-0.00015	-0.00024	-0.00035	0.00012	-0.00013	-0.00033	-0.00089	-0.00142	-0.00189	-0.00231	-0.00205	-0.00140	-0.00140	-0.00146		; offset and temperature correction info
a488	Yellow	18.86491		-0.00113	-0.00102	-0.00106	-0.00064	-0.00027	-0.00020	-0.00030	-0.00037	-0.00047	-0.00059	-0.00052	-0.00012	0.00008	0.00000	0.00025	0.00012	-0.00013	-0.00043	-0.00065	-0.00076	-0.00025	0.00010	0.00090	0.00111	0.00113	0.00104	0.00073	0.00068	0.00120	0.00186	0.00258		; offset and temperature correction info
c650	Blue	20.46075		-0.00145	-0.00097	-0.00092	-0.00139	-0.00185	-0.00196	-0.00237	-0.00266	-0.00238	-0.00163	-0.00083	-0.00041	-0.00010	0.00000	0.00005	-0.00001	0.00015	0.00034	0.00029	0.00065	0.00101	0.00164	0.00126	0.00156	0.00175	0.00270	0.00287	0.00371	0.00407	0.00473	0.00534		; offset and temperature correction info
c676	Green	20.10118		-0.00170	-0.00144	-0.00149	-0.00177	-0.00188	-0.00194	-0.00198	-0.00196	-0.00177	-0.00156	-0.00140	-0.00091	-0.00033	0.00000	0.00050	0.00092	0.00110	0.00141	0.00167	0.00199	0.00216	0.00265	0.00269	0.00289	0.00315	0.00374	0.00367	0.00408	0.00486	0.00561	0.00646		; offset and temperature correction info
c715	Brown	19.91219		-0.01201	-0.01097	-0.00859	-0.00680	-0.00651	-0.00592	-0.00535	-0.00440	-0.00387	-0.00303	-0.00222	-0.00153	-0.00028	0.00000	0.00093	0.00149	0.00247	0.00322	0.00330	0.00427	0.00373	0.00464	0.00536	0.00551	0.00643	0.00733	0.00779	0.00884	0.00899	0.01021	0.01120		; offset and temperature correction info
a510	Red	19.21192		0.00201	0.00193	0.00158	0.00098	0.00089	0.00049	0.00011	-0.00016	-0.00016	-0.00005	0.00028	0.00025	0.00006	0.00000	0.00035	-0.00022	-0.00023	-0.00080	-0.00144	-0.00154	-0.00153	-0.00204	-0.00220	-0.00219	-0.00190	-0.00128	-0.00069	-0.00018	0.00068	0.00152	0.00241		; offset and temperature correction info
a532	Magenta	19.41084		-0.00097	-0.00072	-0.00060	-0.00081	-0.00062	-0.00071	-0.00040	0.00020	0.00028	0.00043	0.00000	-0.00035	0.00007	0.00000	-0.00011	-0.00059	-0.00080	-0.00098	-0.00137	-0.00162	-0.00163	-0.00130	-0.00073	-0.00018	0.00090	0.00185	0.00175	0.00247	0.00291	0.00327	0.00349		; offset and temperature correction info
a555	Black	19.69776		0.00171	0.00183	0.00183	0.00186	0.00191	0.00170	0.00115	0.00131	0.00097	0.00073	0.00060	0.00013	0.00015	0.00000	0.00014	-0.00029	-0.00066	-0.00082	-0.00116	-0.00139	-0.00134	-0.00167	-0.00119	-0.00093	-0.00048	0.00053	0.00111	0.00095	0.00178	0.00206	0.00273		; offset and temperature correction info
c412	LtBlue	19.91180		-0.02051	-0.01853	-0.01589	-0.01311	-0.01059	-0.00877	-0.00705	-0.00581	-0.00413	-0.00231	-0.00098	-0.00066	-0.00011	0.00000	-0.00013	-0.00085	-0.00170	-0.00170	-0.00302	-0.00330	-0.00429	-0.00551	-0.00626	-0.00775	-0.00978	-0.01181	-0.01113	-0.01108	-0.01116	-0.01192	-0.01291		; offset and temperature correction info
c440	LtGreen	20.06241		-0.01064	-0.00992	-0.00892	-0.00766	-0.00639	-0.00531	-0.00478	-0.00384	-0.00287	-0.00187	-0.00102	-0.00063	-0.00023	0.00000	-0.00007	-0.00053	-0.00090	-0.00119	-0.00169	-0.00197	-0.00226	-0.00257	-0.00260	-0.00289	-0.00394	-0.00470	-0.00481	-0.00493	-0.00520	-0.00580	-0.00620		; offset and temperature correction info
c488	Yellow	20.35984		-0.01125	-0.01082	-0.00966	-0.00833	-0.00726	-0.00661	-0.00579	-0.00500	-0.00389	-0.00278	-0.00167	-0.00113	-0.00041	0.00000	0.00055	0.00121	0.00187	0.00226	0.00222	0.00251	0.00281	0.00359	0.00414	0.00427	0.00401	0.00404	0.00486	0.00563	0.00638	0.00684	0.00718		; offset and temperature correction info
0.003500	0.004000	0.015000	0.020000	0.015000	0.020000	2500.000000	2000.000000	1000.000000	; maxANoise	maxCNoise	maxADifference	maxCDifference	minACounts	minCCounts	minRCounts	maxTempSdev	maxDepthSdev
0			; auxilliary capabilities
1			; acquisition binsize
0	0.71595	0.73384	0.51543	4.48356	4.13209	3.78737	4.29933	3.08816	1.86624	2.88671	2.74401	2.47297	1.54625	1.28064	1.07641	6.92986	6.00519	4.86171	25.93	6.2	0.00	7.33	0.01274	0.01290	0.01667	0.00778	0.00580	0.00635	0.00468	0.01267	0.01687	0.00676	0.00692	0.00893	0.01491	0.01097	0.01198	0.00217	0.00616	0.00866
170	0.72128	0.73594	0.51457	4.49497	4.19249	3.78496	4.29398	3.07962	1.85903	2.90180	2.75213	2.50829	1.55075	1.28591	1.07910	6.93024	6.03432	4.89191
330	0.72265	0.72965	0.51193	4.45401	4.17010	3.83047	4.30789	3.09745	1.87048	2.88747	2.73563	2.50818	1.55733	1.29089	1.08365	6.93534	6.00949	4.91168
490	0.73059	0.73928	0.51525	4.52178	4.19629	3.81301	4.30127	3.10271	1.88421	2.92738	2.75122	2.49175	1.55384	1.29006	1.08517	6.95275	6.04517	4.89016
660	0.72159	0.73990	0.52126	4.55254	4.18255	3.80877	4.28660	3.10352	1.86306	2.99501	2.75754	2.48430	1.55126	1.27952	1.07968	6.94516	6.00669	4.86722
820	0.72580	0.74162	0.52650	4.48519	4.14636	3.81190	4.31621	3.10927	1.87955	2.90902	2.77934	2.50332	1.56283	1.41576	1.09367	6.97184	6.05551	4.92538
980	0.73921	0.75793	0.54490	4.54347	4.25826	3.91119	4.36883	3.13909	1.91446	2.97863	2.80138	2.62592	1.58939	1.31965	1.12018	6.98970	6.10609	4.95244
1150	0.76042	0.76949	0.55611	4.51704	4.18706	3.91538	4.32719	3.13629	1.90456	2.97650	2.79924	2.56546	1.56953	1.30960	1.11180	7.02694	6.10386	4.90348
1310	0.75743	0.75350	0.55600	4.54411	4.21798	3.91222	4.31794	3.12417	1.87961	2.97614	2.78829	2.61337	1.54824	1.29607	1.09490	6.97832	6.04648	4.91985
1470	0.74591	0.74688	0.53484	4.46452	4.18753	3.82539	4.29423	3.10642	1.88035	2.97633	2.78080	2.50319	1.55808	1.30212	1.09079	6.94306	6.03429	4.87295
1640	0.73239	0.73356	0.52151	4.47171	4.15198	3.78676	4.31136	3.11271	1.88228	2.91069	2.78963	2.49688	1.55232	1.29176	1.09119	6.96636	6.03316	4.88430	25.87	6.0	0.00	6.38	0.01274	0.01290	0.01667	0.00778	0.00579	0.00635	0.00468	0.01266	0.01687	0.00676	0.00693	0.00893	0.01491	0.01097	0.01198	0.00217	0.00616	0.00866
1800	0.73805	0.75775	0.52801	4.45865	4.12652	3.81915	4.33179	3.12624	1.88556	2.91026	2.78876	2.50944	1.55338	1.29556	1.09318	6.99814	6.06332	4.94589
1960	0.75384	0.76300	0.52992	4.55117	4.23153	3.82831	4.31682	3.11629	1.92802	2.99465	2.81745	2.54897	1.56428	1.29911	1.07781	6.99219	6.07144	4.95251
2120	0.72970	0.75483	0.53534	4.52870	4.20095	3.86158	4.31506	3.12881	1.90570	2.95413	2.78579	2.50739	1.55810	1.29810	1.10577	6.99302	6.06559	4.89929
2290	0.73208	0.73763	0.52245	4.50649	4.19826	3.82269	4.32127	3.11331	1.88996	2.93942	2.78707	2.49647	1.57398	1.28623	1.07584	6.93115	6.00722	4.87663
2450	0.72645	0.73602	0.51509	4.50300	4.15265	3.81311	4.29825	3.09600	1.87311	2.91358	2.73887	2.48662	1.55116	1.29151	1.08056	6.96065	6.05164	4.88322
2610	0.72444	0.73973	0.51728	4.48927	4.13341	3.80986	4.32243	3.10698	1.86827	2.91352	2.76406	2.47994	1.54930	1.29135	1.08737	6.92126	6.04818	4.90968
2780	0.72618	0.73596	0.51471	4.46529	4.16646	3.83996	4.31510	3.11878	1.88105	2.90172	2.73757	2.45925	1.55759	1.29643	1.07656	6.95997	6.03583	4.88379
2940	0.72173	0.73522	0.52452	4.46445	4.15578	3.78146	4.31555	3.09671	1.87474	2.92578	2.74350	2.45564	1.53997	1.29095	1.09305	6.94390	6.01714	4.87166
3100	0.72154	0.74461	0.52107	4.46715	4.14479	3.79215	4.32978	3.11027	1.87650	2.92574	2.76306	2.56075	1.55662	1.29390	1.08312	6.95606	5.99402	4.86730
3270	0.72832	0.74113	0.52107	4.65502	4.13151	3.76724	4.34537	3.11875	1.89049	2.91653	2.76265	2.49745	1.55408	1.29589	1.08181	7.26626	6.04638	4.89757	25.87	6.1	0.00	7.38	0.01274	0.01290	0.01667	0.00778	0.00580	0.00635	0.00468	0.01267	0.01687	0.00676	0.00693	0.00893	0.01491	0.01097	0.01198	0.00217	0.00616	0.00866
3430	0.71724	0.73671	0.52319	4.49242	4.14097	3.81343	4.32459	3.12472	1.88445	2.92956	2.75490	2.48262	1.55603	1.28865	1.08665	6.97573	6.03195	4.89121
3600	0.71982	0.74152	0.52105	4.48925	4.16914	3.81364	4.30569	3.10842	1.88035	2.92051	2.75568	2.50631	1.56117	1.29660	1.08853	6.95783	6.05965	4.90523
3760	0.72096	0.74716	0.52162	4.47308	4.13032	3.81381	4.31101	3.12182	1.87338	2.91513	2.76718	2.48859	1.54036	1.28637	1.08090	6.96227	6.03807	4.90986
3930	0.72180	0.73984	0.51491	4.48649	4.15303	3.78456	4.32427	3.12789	1.88932	2.91156	2.75484	2.49596	1.56147	1.29060	1.07731	7.00240	6.06359	4.90305
4090	0.72067	0.74251	0.51364	4.52505	4.15362	3.81874	4.32008	3.13106	1.88646	2.93322	2.73824	2.46435	1.55990	1.29628	1.08943	6.96858	5.98949	4.89520
4250	0.73333	0.74289	0.52083	4.49558	4.17015	3.81682	4.34374	3.13238	1.90843	2.95681	2.78200	2.51195	1.57647	1.30546	1.08813	6.97129	6.09040	4.91115
4420	0.73432	0.74274	0.53127	4.50061	4.20344	3.85849	4.33745	3.11573	1.88783	2.95432	2.75070	2.48984	1.57592	1.31411	1.10565	7.01600	6.08616	4.92383
4580	0.73333	0.74182	0.53065	4.51853	4.17995	3.82485	4.34958	3.13487	1.89568	2.94476	2.79442	2.55341	1.55683	1.31080	1.09896	6.97911	6.04595	4.93336
4750	0.72749	0.74574	0.51887	4.50167	4.17751	3.82065	4.30682	3.11378	1.88971	2.92559	2.77693	2.49934	1.55565	1.29541	1.09333	6.93862	6.04764	4.86668
4910	0.72410	0.74623	0.51932	4.52382	4.17623	3.82364	4.33660	3.12890	1.89400	2.91257	2.76916	2.49644	1.55978	1.29531	1.09050	6.96108	6.04874	4.92824	25.93	6.0	0.00	7.44	0.01274	0.01290	0.01667	0.00778	0.00580	0.00635	0.00468	0.01267	0.01687	0.00676	0.00693	0.00893	0.01491	0.01097	0.01198	0.00217	0.00616	0.00866
5070	0.73409	0.75095	0.52712	4.57458	4.17627	3.81910	4.33144	3.13390	1.90606	2.94467	2.78330	2.48551	1.56625	1.29521	1.07987	7.05130	6.08194	4.92919
5240	0.72805	0.75171	0.54367	4.49818	4.18819	3.86047	4.33783	3.15213	1.89270	2.95900	2.80876	2.56495	1.57781	1.32273	1.12454	7.00847	6.07877	4.94586
5400	0.77089	0.78362	0.54755	4.55727	4.21997	3.88852	4.34936	3.14538	1.92047	3.02988	2.85185	2.57406	1.57937	1.31774	1.10183	7.05760	6.09436	4.96528
5560	0.73311	0.75802	0.53653	4.56985	4.21661	3.85685	4.34200	3.14882	1.90681	2.98028	2.80609	2.52858	1.57624	1.30760	1.09610	6.97567	6.06730	4.93162
5730	0.73132	0.75782	0.52797	4.55106	4.18104	3.83504	4.34299	3.13893	1.89350	2.97914	2.79787	2.50573	1.56525	1.31306	1.09376	6.96175	6.07155	4.92156
5890	0.73765	0.74909	0.51971	4.51367	4.16982	3.81756	4.34611	3.12846	1.88865	2.92973	2.76825	2.48878	1.56379	1.31097	1.09492	6.98960	6.04736	4.89810
6050	0.73805	0.74539	0.51948	4.51770	4.20722	3.81463	4.32794	3.11208	1.89116	2.96286	2.77872	2.49944	1.55448	1.29271	1.08878	6.98953	6.03341	4.89478
6220	0.72304	0.73883	0.52008	4.48303	4.17128	3.81968	4.32575	3.11304	1.87833	2.94975	2.76509	2.50079	1.56011	1.29303	1.08069	6.98184	6.06105	4.88980
6380	0.72621	0.73857	0.51450	4.48295	4.16524	3.84544	4.32596	3.12070	1.87985	2.92852	2.77152	2.47945	1.56442	1.30412	1.09066	6.98569	6.06303	4.90904
6550	0.73046	0.74235	0.51750	4.53732	4.21144	3.84299	4.33538	3.13124	1.88917	2.98012	2.78289	2.48726	1.55860	1.30484	1.10020	6.94070	6.04649	4.92998	25.87	6.1	0.00	7.28	0.01274	0.01291	0.01667	0.00778	0.00580	0.00636	0.00468	0.01267	0.01687	0.00676	0.00693	0.00893	0.01491	0.01097	0.01198	0.00217	0.00616	0.00866
6710	0.72861	0.74804	0.52523	4.50379	4.15935	3.82352	4.32867	3.12379	1.89377	2.94862	2.79720	2.52787	1.55858	1.29618	1.09005	6.97084	6.08119	4.94437
6870	0.72264	0.73823	0.51785	4.51855	4.18774	3.83799	4.30831	3.10724	1.87989	2.94707	2.81209	2.49534	1.55750	1.30831	1.09824	7.12761	6.07118	4.94793
7040	0.72971	0.74630	0.52325	4.54069	4.17934	3.81641	4.33336	3.11401	1.89362	2.96235	2.86189	2.50593	1.56275	1.30546	1.08762	6.99917	6.59383	4.92227
7200	0.73561	0.75022	0.51734	4.54396	4.17692	3.85810	4.33524	3.12822	1.88503	2.94665	2.78969	2.49940	1.55087	1.28733	1.08691	6.95798	6.08234	4.91340
7360	0.72678	0.74226	0.53037	4.50087	4.16581	3.87359	4.32238	3.10785	1.88989	2.94300	2.78827	2.54115	1.56274	1.29102	1.09011	6.98070	6.04564	4.90654
7530	0.72771	0.75053	0.51475	4.49004	4.17784	3.79891	4.31889	3.10645	1.88008	2.92446	2.76684	2.48912	1.54387	1.28797	1.07723	6.91830	5.97059	4.87085
7690	0.72077	0.74039	0.51493	4.47649	4.15722	3.77680	4.31656	3.10725	1.87731	2.92094	2.84631	2.49917	1.56113	1.29054	1.08854	6.94160	6.01217	4.95316
7850	0.71901	0.73981	0.53303	4.47127	4.13733	3.80583	4.31748	3.10622	1.88405	2.89850	2.73237	2.46760	1.54965	1.29547	1.07840	7.00854	6.02144	4.88572
8020	0.73223	0.74724	0.51208	4.68207	4.20279	3.83102	4.30070	3.11208	1.87242	2.94170	2.78987	2.50116	1.56158	1.29095	1.08330	6.95730	6.05174	4.92843
8180	0.72824	0.75785	0.52322	4.52445	4.19259	3.84922	4.31899	3.11621	1.87704	2.95815	2.77656	2.48338	1.55828	1.29711	1.08600	6.96187	6.04243	4.88326	25.93	6.2	0.00	7.33	0.01274	0.01290	0.01667	0.00778	0.00579	0.00635	0.00468	0.01267	0.01687	0.00676	0.00693	0.00893	0.01491	0.01097	0.01198	0.00217	0.00616	0.00866
8340	0.73423	0.74356	0.51993	4.49512	4.15582	3.79902	4.30274	3.10617	1.88229	2.91328	2.77357	2.49018	1.55928	1.30166	1.08997	6.93814	6.01961	4.89630
8510	0.72980	0.74275	0.52118	4.50970	4.16160	3.84339	4.30708	3.11749	1.87954	2.93607	2.77970	2.51342	1.54843	1.29459	1.09449	6.97037	6.05875	4.90877
8670	0.72926	0.74553	0.52237	4.52406	4.16630	3.83096	4.30556	3.12529	1.88084	2.93445	2.78077	2.49215	1.56680	1.29475	1.09107	6.97949	6.03443	4.90830
8840	0.72538	0.74320	0.51735	4.50322	4.18702	3.79974	4.31289	3.12092	1.88136	2.93160	2.78713	2.49306	1.55172	1.29338	1.08501	7.00521	6.04919	4.89775
9000	0.72632	0.73662	0.52144	4.51521	4.17005	3.77891	4.30394	3.11094	1.87248	2.90965	2.76766	2.50554	1.54686	1.28616	1.07978	6.93589	6.06142	4.87432
9170	0.72159	0.73815	0.52421	4.47689	4.17313	3.81177	4.30183	3.10520	1.87274	2.91719	2.78552	2.51330	1.54191	1.28515	1.08554	6.98220	6.07924	4.87806
9330	0.73235	0.74397	0.52659	4.49154	4.14999	3.78204	4.33089	3.11176	1.89547	2.91873	2.74756	2.48034	1.54415	1.29740	1.07704	6.94737	6.03881	4.91146
9490	0.72479	0.74155	0.51661	4.52759	4.16166	3.81338	4.31991	3.10891	1.87946	2.95228	2.76503	2.49492	1.54769	1.28904	1.09071	6.96263	6.04164	4.91396
9660	0.71835	0.73701	0.51277	4.47920	4.16605	3.82894	4.30799	3.10310	1.88807	2.92766	2.76695	2.49084	1.54969	1.28848	1.08294	6.95421	6.08440	4.90229
9820	0.73084	0.74189	0.52109	4.49368	4.15038	3.78521	4.30926	3.11829	1.87901	2.93938	2.76527	2.48796	1.56543	1.29270	1.08512	6.96541	6.06893	4.88417	25.87	6.2	0.00	7.33	0.01274	0.01290	0.01667	0.00778	0.00579	0.00635	0.00468	0.01267	0.01687	0.00676	0.00693	0.00893	0.01491	0.01097	0.01198	0.00217	0.00616	0.00866
9980	0.71949	0.73763	0.51577	4.49175	4.19398	3.85997	4.31967	3.11899	1.88237	2.91945	2.76796	2.48159	1.55198	1.29933	1.08796	6.96691	6.03848	4.92871
10150	0.72894	0.74505	0.51817	4.49759	4.16623	3.81591	4.30528	3.10755	1.88344	2.93738	2.76983	2.52616	1.55244	1.29701	1.08868	6.95007	6.04153	4.90842
10310	0.72974	0.73769	0.51863	4.46298	4.11831	3.77960	4.30567	3.09400	1.86817	2.97073	2.79750	2.47626	1.55339	1.29229	1.08366	6.92943	6.01031	4.90654
10480	0.72532	0.74361	0.52104	4.50098	4.19573	3.82237	4.31124	3.11634	1.88040	2.93626	2.75574	2.48904	1.54883	1.28523	1.08285	6.91213	6.03408	4.86998
10640	0.72426	0.74042	0.51852	4.47878	4.19762	3.85039	4.29936	3.12137	1.88648	2.94687	2.76910	2.50078	1.57091	1.29004	1.08536	6.98424	6.06979	4.89247
10800	0.72835	0.74402	0.51824	4.51972	4.16625	3.81567	4.30570	3.10307	1.86964	2.95870	2.77276	2.48736	1.54370	1.29010	1.08284	6.96127	6.04386	4.90049
10970	0.73271	0.74635	0.51970	4.48181	4.16712	3.82042	4.30979	3.12692	1.88791	2.94871	2.79970	2.48962	1.54739	1.29407	1.08189	6.93273	5.99959	4.87008
11130	0.72103	0.73198	0.50825	4.48402	4.13742	3.80660	4.30588	3.10816	1.88233	2.92234	2.75919	2.47818	1.53817	1.28450	1.07938	6.87799	6.03379	4.85244
11300	0.72687	0.73872	0.51959	4.45566	4.15097	3.79667	4.30204	3.10964	1.86760	2.93155	2.77526	2.46790	1.54174	1.28037	1.08402	6.95233	6.07149	4.87349
11460	0.72187	0.73906	0.51836	4.51706	4.20840	3.86697	4.31312	3.10853	1.88147	2.91124	2.78713	2.51570	1.55361	1.29518	1.09211	6.97859	6.08233	4.93430	25.93	6.1	0.00	7.41	0.01274	0.01290	0.01667	0.00778	0.00579	0.00635	0.00468	0.01267	0.01687	0.00676	0.00693	0.00893	0.01491	0.01097	0.01198	0.00217	0.00616	0.00866
11620	0.72461	0.74088	0.52273	4.54492	4.18051	3.81993	4.31104	3.09690	1.89019	2.93869	2.77414	2.52390	1.57357	1.28395	1.08340	6.99102	6.06110	4.93197
11790	0.72799	0.75159	0.53776	4.51852	4.21109	3.87062	4.33698	3.13590	1.89259	2.98787	2.81626	2.51263	1.55995	1.29788	1.09211	6.98755	6.07182	4.91104
11950	0.72544	0.74462	0.51816	4.50212	4.17961	3.81724	4.31883	3.12339	1.88369	2.94077	2.80385	2.48190	1.56433	1.28981	1.08332	6.98100	6.06261	4.88972
12120	0.72751	0.75047	0.52052	4.49503	4.15563	3.82556	4.31079	3.11000	1.89182	2.93131	2.76260	2.51670	1.56400	1.29633	1.09345	6.94520	6.06031	4.92307
12280	0.73487	0.74086	0.52125	4.50562	4.16785	3.80106	4.29632	3.09959	1.87065	2.92817	2.77171	2.48112	1.54296	1.28846	1.07599	6.96173	6.02883	4.91296
12440	0.72364	0.73894	0.52008	4.48908	4.15314	3.81921	4.29811	3.12472	1.87764	2.93518	2.76471	2.49810	1.56827	1.29752	1.10208	6.95609	6.05869	4.89048
12610	0.73403	0.74440	0.51943	4.52171	4.19156	3.85877	4.31845	3.10752	1.88721	2.92362	2.81059	2.54217	1.54295	1.30220	1.08372	6.96759	6.06387	4.96261
12770	0.72546	0.74806	0.54288	4.51515	4.18587	3.79431	4.29751	3.10490	1.88157	2.94811	2.80450	2.51909	1.56258	1.29904	1.08229	6.95105	6.04151	4.90138
12940	0.73293	0.74523	0.52850	4.48585	4.15676	3.83604	4.29642	3.10402	1.88691	3.01854	2.75945	2.49340	1.55617	1.29430	1.08996	6.94047	6.02902	4.88540
13100	0.72092	0.74049	0.51598	4.47612	4.14746	3.82299	4.30431	3.10322	1.87796	2.98234	2.76548	2.50418	1.56778	1.29964	1.08371	6.90827	6.00485	4.84952	25.93	6.2	0.00	7.35	0.01274	0.01290	0.01667	0.00778	0.00579	0.00635	0.00468	0.01267	0.01687	0.00676	0.00693	0.00893	0.01491	0.01097	0.01198	0.00217	0.00616	0.00866
13260	0.72168	0.74241	0.51368	4.45478	4.14351	3.78010	4.27413	3.09107	1.86482	2.91411	2.73550	2.48925	1.53999	1.27543	1.07765	6.90812	6.02021	4.87722
13430	0.71133	0.73605	0.50543	4.45710	4.13171	3.79596	4.28808	3.09606	1.87350	2.86615	2.74095	2.45815	1.53765	1.27470	1.07370	6.90775	5.98619	4.85700
13590	0.70966	0.72877	0.51019	4.45900	4.11007	3.77274	4.27750	3.09186	1.88789	2.89048	2.75072	2.48390	1.54472	1.27764	1.06940	6.95101	6.06161	4.88294
13760	0.71668	0.73207	0.51038	4.47860	4.14602	3.79072	4.29836	3.09261	1.86797	2.92593	2.74318	2.46153	1.54254	1.27792	1.06888	6.92392	6.01037	4.89565
13920	0.71671	0.72837	0.51579	4.49485	4.17747	3.84510	4.28615	3.09308	1.86425	2.97674	2.85414	2.60226	1.54465	1.28225	1.08087	6.94410	6.01928	4.89365
14080	0.72767	0.73737	0.51614	4.49027	4.14616	3.79690	4.30868	3.11286	1.87938	3.00308	2.77857	2.53447	1.54644	1.28950	1.08793	6.95521	6.01553	4.98381
14250	0.73175	0.74319	0.52365	4.49791	4.16031	3.79143	4.29751	3.10805	1.87908	2.93017	2.77914	2.51759	1.56323	1.29702	1.09952	6.94275	6.04383	4.92202
14410	0.72612	0.74351	0.52162	4.49160	4.22161	3.86112	4.31404	3.11921	1.87979	2.95707	2.80669	2.53739	1.56843	1.30289	1.09001	7.02385	6.09293	4.91485
14580	0.73569	0.74987	0.52894	4.52598	4.18218	3.81247	4.33702	3.13765	1.91155	2.95638	2.78097	2.51715	1.56191	1.29885	1.08858	7.00827	6.09495	4.91740
14740	0.73626	0.75300	0.53775	4.53167	4.20154	3.83336	4.34981	3.13843	1.90625	2.97763	2.80851	2.50814	1.57397	1.30884	1.09651	6.98932	6.06179	4.91484	25.93	6.2	0.00	7.29	0.01274	0.01290	0.01667	0.00778	0.00579	0.00635	0.00468	0.01267	0.01687	0.00677	0.00693	0.00893	0.01491	0.01097	0.01198	0.00217	0.00616	0.00866
14900	0.74059	0.74772	0.52175	4.54363	4.18893	3.81975	4.33369	3.15071	1.89675	2.98433	2.83391	2.55987	1.56650	1.31502	1.12079	6.99234	6.13665	4.97595
15070	0.74080	0.76040	0.53718	4.58196	4.28123	3.92986	4.34677	3.15229	1.93574	2.97826	2.83589	2.54510	1.57711	1.32979	1.10830	7.01523	6.08974	4.94448
15230	0.75645	0.77971	0.53402	4.54121	4.20390	3.82603	4.37224	3.12799	1.89652	2.90864	2.78780	2.56414	1.57914	1.29925	1.11358	6.98758	6.07939	4.90047
15400	0.74746	0.76494	0.53874	4.46605	4.18329	3.80878	4.32719	3.13395	1.90132	2.94521	2.80781	2.53178	1.57421	1.30162	1.10268	6.95994	6.05781	4.88771
15560	0.74000	0.76660	0.54723	4.53313	4.23569	3.84053	4.31893	3.14409	1.90047	3.03167	2.88275	2.60107	1.60520	1.35629	1.15143	7.00895	6.12774	4.96006
15730	0.78292	0.78741	0.55387	4.63345	4.31284	3.91690	4.38086	3.16053	1.93716	3.03307	2.84012	2.58773	1.59313	1.34487	1.12984	7.04045	6.17401	4.95586
15890	0.76282	0.78652	0.55523	4.59140	4.25919	3.88809	4.35994	3.17602	1.92083	2.99055	2.79734	2.54668	1.59263	1.34500	1.12159	7.01137	6.09743	4.97016
16050	0.75222	0.75890	0.53564	4.53941	4.20927	3.85901	4.34939	3.13236	1.91433	2.98140	2.81550	2.51939	1.57804	1.30163	1.10916	6.99777	6.08802	4.92909
16220	0.74181	0.75107	0.53231	4.51954	4.22264	3.86665	4.34125	3.14320	1.89999	2.96229	2.81378	2.50439	1.57580	1.29657	1.10052	6.96107	6.07387	4.92389
16380	0.72822	0.73961	0.52590	4.52244	4.20040	3.85311	4.34759	3.13619	1.88694	2.95714	2.79266	2.51374	1.55626	1.29834	1.10166	6.95351	6.06068	4.89376	25.93	6.2	0.00	7.36	0.01274	0.01290	0.01667	0.00778	0.00579	0.00636	0.00468	0.01267	0.01687	0.00677	0.00693	0.00893	0.01491	0.01097	0.01198	0.00217	0.00616	0.00866
16540	0.73185	0.74928	0.53071	4.52407	4.17000	3.83220	4.35187	3.13029	1.89819	2.94412	2.78940	2.50976	1.56375	1.30971	1.10219	6.97083	6.08205	4.91603
16710	0.73654	0.75125	0.52999	4.53641	4.19322	3.86432	4.34147	3.12651	1.89755	2.96219	2.79856	2.54557	1.56682	1.29947	1.09421	7.01621	6.08662	4.98510
16870	0.73331	0.75068	0.53768	4.53735	4.20022	3.83740	4.33765	3.14218	1.90948	2.97229	2.81089	2.52147	1.58351	1.31723	1.10679	7.01879	6.08913	4.89483
17030	0.73961	0.75503	0.52967	4.52948	4.21579	3.88085	4.35226	3.15120	1.90101	2.97405	2.80171	2.53972	1.56890	1.31615	1.09708	6.99625	6.08155	4.97324
17200	0.73384	0.75309	0.52305	4.51804	4.21150	3.85373	4.34550	3.12183	1.90534	2.94987	2.76705	2.49894	1.56937	1.29517	1.09029	6.97286	6.04664	4.88410
17360	0.72454	0.74417	0.51950	4.53412	4.19168	3.82339	4.34592	3.11915	1.88738	2.93861	2.80097	2.51823	1.56865	1.30129	1.09110	6.96706	6.04685	4.92170
17520	0.73278	0.74954	0.51989	4.50047	4.18806	3.81994	4.33426	3.12782	1.90276	2.97446	2.79742	2.52480	1.56128	1.29643	1.08819	6.98018	6.05808	4.91356
17680	0.72474	0.74180	0.52034	4.52222	4.15032	3.81045	4.33945	3.14457	1.89474	2.93735	2.77454	2.48713	1.57763	1.30729	1.09772	7.00812	6.07264	4.92248
17850	0.73006	0.74638	0.52055	4.48585	4.15658	3.81340	4.35463	3.13104	1.90213	2.93406	2.76123	2.49910	1.56462	1.29607	1.08044	6.92332	6.06309	4.91877
18010	0.72526	0.75089	0.52054	4.50706	4.15818	3.81814	4.33164	3.10994	1.89461	3.00713	2.76461	2.48913	1.56068	1.29857	1.09951	6.94992	6.04354	4.90574	25.87	6.1	0.00	7.31	0.01274	0.01290	0.01667	0.00778	0.00579	0.00635	0.00468	0.01267	0.01687	0.00676	0.00693	0.00893	0.01491	0.01097	0.01198	0.00217	0.00616	0.00866
18180	0.73058	0.74182	0.52199	4.49287	4.15917	3.81277	4.35268	3.13170	1.88854	2.92699	2.76777	2.48083	1.56402	1.29859	1.08295	6.95571	6.03599	4.90156
18340	0.72797	0.74029	0.52240	4.49233	4.15597	3.83093	4.35533	3.13621	1.89693	2.95618	2.79346	2.53187	1.56151	1.29790	1.09658	6.99506	6.04890	4.88093
18500	0.72556	0.74457	0.51833	4.52804	4.17260	3.81627	4.32963	3.12939	1.88969	2.94777	2.78192	2.47868	1.56211	1.29853	1.08642	6.99317	6.06161	4.88838
18670	0.72865	0.74624	0.52369	4.51734	4.18356	3.81912	4.35232	3.12850	1.90523	2.95720	2.80417	2.52361	1.55724	1.29658	1.09277	7.01411	6.05183	4.91115
18830	0.73421	0.75026	0.52330	4.49712	4.19151	3.82092	4.33387	3.12840	1.90019	2.94306	2.80919	2.52761	1.56554	1.29912	1.09111	6.97913	6.07206	4.91751
19000	0.72701	0.74106	0.52498	4.49295	4.18259	3.81091	4.32543	3.12775	1.90249	2.95585	2.78156	2.51802	1.56335	1.30062	1.10552	6.98600	6.05557	4.92833
19160	0.73204	0.75489	0.53959	4.56595	4.22567	3.86154	4.35420	3.15262	1.90656	2.98655	2.84779	2.55174	1.59809	1.32541	1.12930	6.99793	6.15712	4.96152
19320	0.73974	0.76434	0.54615	4.57320	4.27210	3.92095	4.37018	3.17501	1.92463	2.99992	2.86273	2.57549	1.59035	1.33274	1.12474	7.01713	6.16206	4.97677
19490	0.76715	0.77750	0.54114	4.54750	4.20760	3.86340	4.37259	3.16403	1.92663	2.98953	2.81460	2.52079	1.59069	1.32304	1.11819	7.02546	6.09270	4.96340
19650	0.74707	0.75883	0.53733	4.55286	4.19685	3.84121	4.36027	3.15176	1.90086	2.95773	2.77248	2.53056	1.58218	1.31773	1.10774	6.95288	6.07898	4.92719	25.93	6.1	0.00	7.39	0.01274	0.01290	0.01667	0.00778	0.00579	0.00635	0.00468	0.01266	0.01687	0.00676	0.00693	0.00892	0.01491	0.01097	0.01198	0.00217	0.00616	0.00866
19810	0.76211	0.77341	0.53318	4.51018	4.18066	3.81379	4.36743	3.15674	1.91806	2.98435	2.78524	2.52691	1.57621	1.30725	1.10811	6.97961	6.09764	4.95436
19980	0.73380	0.74957	0.52245	4.49999	4.17743	3.88142	4.36395	3.13306	1.91260	2.98627	2.82936	2.48291	1.56317	1.30087	1.10081	7.10640	6.05944	4.94219
20140	0.73797	0.75975	0.52551	4.52958	4.18872	3.85004	4.36084	3.13828	1.89986	2.94730	2.81879	2.50567	1.56778	1.30075	1.09331	6.98738	6.07613	4.91770
20300	0.72925	0.74025	0.52560	4.51511	4.18509	3.82387	4.34852	3.12629	1.89395	2.95581	2.79194	2.49349	1.56328	1.30792	1.10716	6.98512	6.04516	4.89590
20470	0.73482	0.75822	0.52454	4.50175	4.17615	3.81253	4.35174	3.12795	1.89750	2.96057	2.79618	2.50127	1.57608	1.30423	1.10554	6.99145	6.06679	4.92049
20630	0.73749	0.74281	0.53714	4.48125	4.15316	3.84809	4.34767	3.13171	1.89746	2.94950	2.79626	2.49557	1.56122	1.29299	1.09447	6.98851	6.05634	4.93395
20790	0.72919	0.74894	0.52782	4.49989	4.17047	3.80177	4.33978	3.13628	1.89197	2.93661	2.74829	2.51030	1.57249	1.29583	1.09074	6.94161	6.08196	4.91661
20960	0.72731	0.74098	0.52280	4.47199	4.16950	3.81246	4.33314	3.12303	1.88973	2.91090	2.77071	2.48364	1.55605	1.28674	1.08881	6.97780	6.06868	4.91341
21120	0.72650	0.74205	0.52112	4.50622	4.17652	3.82217	4.34696	3.12610	1.89547	2.91894	2.76675	2.50494	1.56563	1.30478	1.09423	6.93710	6.04106	4.92009
21280	0.72565	0.73607	0.51827	4.50777	4.19062	3.83132	4.32878	3.12861	1.90016	2.95435	2.78231	2.52204	1.56440	1.30813	1.08911	7.02931	6.06467	4.90048	25.99	6.0	0.00	7.28	0.01274	0.01290	0.01667	0.00778	0.00579	0.00635	0.00468	0.01266	0.01687	0.00676	0.00692	0.00892	0.01491	0.01097	0.01198	0.00217	0.00616	0.00866
21450	0.73392	0.74423	0.52268	4.51929	4.20710	3.84633	4.33564	3.13867	1.90071	2.94919	2.77573	2.52817	1.56200	1.30476	1.09341	7.00993	6.06221	4.89812
21610	0.72206	0.74038	0.52642	4.50095	4.17358	3.83712	4.33373	3.14829	1.90122	2.95876	2.78136	2.50074	1.56314	1.30389	1.09262	6.98064	6.10112	4.94331
21770	0.73545	0.74951	0.53071	4.54122	4.21528	3.85865	4.33535	3.14092	1.90166	2.97451	2.79426	2.50009	1.56723	1.31471	1.09197	7.02522	6.11190	4.94465
21940	0.72960	0.74987	0.52469	4.56293	4.19623	3.81918	4.35148	3.12461	1.88792	2.94462	2.77380	2.51432	1.56970	1.29853	1.08596	6.97077	6.08488	4.92655
22100	0.73333	0.74348	0.52464	4.52005	4.17859	3.82465	4.34334	3.13763	1.89945	2.93245	2.77527	2.51649	1.55924	1.30101	1.09926	6.97679	6.05631	4.91879
22260	0.73000	0.74487	0.52155	4.51052	4.18513	3.85687	4.35424	3.12894	1.89242	2.96505	2.80772	2.53161	1.57388	1.32671	1.09490	7.00396	6.10411	5.02511
22430	0.75227	0.76008	0.54640	4.60651	4.27589	3.91249	4.38083	3.16508	1.92225	3.04011	2.88640	2.61150	1.59122	1.33699	1.10866	7.03181	6.15503	5.00551
22590	0.74552	0.76058	0.53596	4.59183	4.23962	3.87235	4.34097	3.17502	1.92487	2.98462	2.80640	2.52236	1.58702	1.32142	1.10324	7.03378	6.10672	4.93515
22750	0.74352	0.75007	0.54472	4.55438	4.22401	3.87985	4.34363	3.15302	1.92626	3.01131	2.86446	2.54629	1.59558	1.32428	1.12986	7.06779	6.16636	4.96898
22920	0.74909	0.77666	0.54212	4.57918	4.21987	3.89949	4.35985	3.14608	1.92649	2.97678	2.80233	2.53317	1.59618	1.33000	1.12043	7.01985	6.12644	4.96768	25.93	6.1	0.00	7.26	0.01274	0.01290	0.01667	0.00778	0.00579	0.00635	0.00468	0.01266	0.01687	0.00676	0.00693	0.00893	0.01491	0.01097	0.01198	0.00217	0.00616	0.00866
23080	0.75709	0.77162	0.54223	4.52970	4.20659	3.88292	4.36180	3.14325	1.91126	2.95667	2.77887	2.51424	1.57464	1.31369	1.09952	6.99067	6.06487	4.93139
23240	0.73064	0.75237	0.53392	4.53410	4.21019	3.86413	4.34884	3.13970	1.90947	2.93022	2.78600	2.50932	1.57265	1.30180	1.08480	6.98200	6.08392	4.93080
23410	0.73238	0.74599	0.52302	4.56235	4.17504	3.88069	4.34396	3.14622	1.89217	2.98660	2.82390	2.58652	1.56200	1.29900	1.10117	7.04175	6.14943	5.00122
23570	0.73836	0.76188	0.54404	4.61407	4.25181	3.89152	4.36651	3.17561	1.91499	2.97387	2.81456	2.58877	1.58563	1.32775	1.12006	7.03909	6.08774	4.93963
23730	0.75794	0.77344	0.54955	4.56753	4.22848	3.86541	4.35641	3.17436	1.91756	2.96881	2.84111	2.52210	1.57971	1.31420	1.14274	7.03477	6.10341	4.96844
23900	0.74625	0.75091	0.54344	4.52930	4.17898	3.86101	4.35914	3.14180	1.91148	2.97377	2.80639	2.52648	1.58079	1.30804	1.10587	7.01501	6.09449	4.94688
24060	0.72892	0.75146	0.53725	4.56633	4.21726	3.88128	4.35648	3.14568	1.93033	2.99663	2.83958	2.53923	1.58462	1.31911	1.09742	7.06051	6.10588	4.96434
24220	0.73708	0.76142	0.52878	4.55346	4.21190	3.84819	4.36640	3.15963	1.91482	2.95083	2.81740	2.53779	1.58753	1.32174	1.12311	7.04873	6.12073	4.96066
24390	0.74124	0.75761	0.53322	4.57449	4.23609	3.85653	4.36442	3.16518	1.91938	2.99273	2.81014	2.53399	1.58380	1.32282	1.10894	7.03925	6.10218	4.95234
24550	0.74058	0.75614	0.53991	4.54708	4.21661	3.86661	4.35635	3.15076	1.89863	2.94759	2.81101	2.52586	1.56732	1.30015	1.09328	7.00046	6.09469	4.93748	25.99	6.0	0.00	7.40	0.01274	0.01291	0.01667	0.00778	0.00579	0.00635	0.00468	0.01266	0.01687	0.00676	0.00693	0.00892	0.01491	0.01097	0.01198	0.00217	0.00616	0.00866
24710	0.72965	0.75255	0.53164	4.51054	4.19280	3.81325	4.33718	3.13518	1.90729	2.94681	2.78987	2.49697	1.57378	1.30191	1.09486	6.97001	6.05791	4.90996
24870	0.73750	0.74311	0.51934	4.49300	4.19024	3.82002	4.32203	3.12506	1.87510	2.91173	2.75545	2.49912	1.55458	1.29859	1.08151	6.95714	6.05934	4.90833
25040	0.71959	0.74515	0.51647	4.50569	4.19624	3.79998	4.32852	3.11860	1.88121	2.94111	2.76647	2.49249	1.56159	1.29658	1.08749	6.97738	6.09643	4.94202
25200	0.73205	0.74034	0.52837	4.48917	4.17378	3.83659	4.34725	3.14009	1.89862	2.94004	2.78093	2.50829	1.57176	1.29985	1.09148	6.98628	6.09528	4.95003
25370	0.73034	0.75681	0.52290	4.55601	4.18344	3.82959	4.36053	3.12902	1.88695	2.93622	2.78683	2.53440	1.57800	1.31360	1.22705	6.97693	6.07400	4.93811
25530	0.76607	0.76610	0.52660	4.53066	4.18620	3.80881	4.34828	3.14225	1.90247	2.94694	2.75524	2.48525	1.64319	1.34940	1.09898	7.03532	6.07025	4.94165
25690	0.73573	0.75558	0.51977	4.50974	4.22049	3.87816	4.35228	3.13096	1.90035	2.99654	2.82027	2.53477	1.58146	1.30216	1.10085	7.01179	6.08330	4.92043
25860	0.73821	0.75542	0.52502	4.56188	4.22436	3.87186	4.33530	3.15393	1.91132	2.97394	2.80382	2.53095	1.57370	1.30466	1.10744	7.02669	6.11086	4.94563
26020	0.73717	0.75991	0.53599	4.55186	4.23164	3.86351	4.36347	3.13920	1.90939	3.00857	2.81106	2.51616	1.57748	1.30785	1.11263	7.00099	6.07044	4.96372
26180	0.73907	0.75069	0.53413	4.53534	4.19831	3.84670	4.34437	3.15506	1.89928	2.95859	2.80597	2.50405	1.57827	1.31520	1.11116	7.01064	6.05336	4.91345	25.93	5.9	0.00	7.28	0.01274	0.01290	0.01667	0.00778	0.00580	0.00635	0.00468	0.01266	0.01687	0.00676	0.00693	0.00892	0.01491	0.01097	0.01198	0.00217	0.00616	0.00866
26350	0.73614	0.76091	0.54477	4.54566	4.19444	3.84675	4.35446	3.14369	1.89802	2.97187	2.81277	2.52822	1.58420	1.31604	1.10447	6.99389	6.07312	4.88601
26510	0.74047	0.76064	0.54192	4.48279	4.18550	3.83286	4.34232	3.14265	1.89278	2.94616	2.77873	2.52046	1.56564	1.31250	1.09681	6.99336	6.07824	4.92297
26670	0.75298	0.75784	0.53767	4.53546	4.19702	3.82702	4.35347	3.16572	1.91053	2.96621	2.79013	2.54790	1.57033	1.31033	1.09442	6.99630	6.06708	4.91809
26840	0.74102	0.74535	0.52293	4.49715	4.18904	3.83068	4.34427	3.14822	1.89946	2.92262	2.79327	2.52101	1.57308	1.31376	1.10733	6.98567	6.04771	4.91600
27000	0.73879	0.74541	0.52276	4.49967	4.17405	3.81815	4.34225	3.12886	1.89053	2.96150	2.79142	2.52993	1.55833	1.30841	1.09150	6.96858	6.08816	4.92999
27160	0.73064	0.73727	0.52276	4.52090	4.20325	3.80145	4.35262	3.13379	1.89802	2.92454	2.77190	2.53017	1.56642	1.31001	1.09220	6.97686	6.06713	4.90887
27330	0.73496	0.74567	0.52930	4.51868	4.22249	3.82367	4.35350	3.14585	1.90120	2.93354	2.77091	2.51949	1.56488	1.30170	1.09573	6.98559	6.09008	4.89257
27490	0.73069	0.74330	0.51280	4.48374	4.16890	3.82119	4.31411	3.13722	1.88956	2.94759	2.76097	2.49413	1.56208	1.29383	1.09739	6.95527	6.02559	4.88539
27650	0.72666	0.73436	0.52280	4.48176	4.16000	3.79939	4.34466	3.11685	1.88390	2.92195	2.76091	2.48221	1.57247	1.31119	1.08230	6.98522	6.05372	4.90242
27820	0.73662	0.74608	0.51930	4.53363	4.16320	3.79268	4.34021	3.12828	1.88380	2.92321	2.78300	2.49607	1.56094	1.29493	1.09011	6.95530	6.03717	4.91271	25.93	6.0	0.00	7.26	0.01274	0.01290	0.01667	0.00778	0.00579	0.00635	0.00468	0.01266	0.01687	0.00676	0.00693	0.00892	0.01491	0.01097	0.01198	0.00217	0.00616	0.00866
27980	0.71779	0.74096	0.52247	4.51404	4.18130	3.80472	4.34116	3.12264	1.88293	2.92320	2.78818	2.49799	1.57250	1.30024	1.09510	6.98803	6.08826	4.93447
28140	0.73168	0.74704	0.52226	4.48455	4.18489	3.81999	4.34601	3.15634	1.91097	2.94834	2.78185	2.52025	1.57039	1.30035	1.09873	6.98849	6.08090	4.92288
28310	0.73434	0.75063	0.52186	4.48761	4.18696	3.80597	4.33692	3.14173	1.89134	2.92498	2.75995	2.50228	1.57444	1.31185	1.09948	6.97538	6.09185	4.90022
28470	0.74000	0.74329	0.52711	4.53010	4.18124	3.86145	4.35252	3.13446	1.89264	2.94190	2.76685	2.48292	1.56507	1.30341	1.09813	6.98947	6.03833	4.88959
28640	0.73170	0.74236	0.52618	4.54111	4.16762	3.84801	4.34636	3.13293	1.89418	2.92448	2.78114	2.50772	1.57586	1.30263	1.08914	6.99836	6.06403	4.93397
28800	0.73352	0.74348	0.52453	4.54207	4.20219	3.82146	4.35868	3.14210	1.89270	2.94300	2.79020	2.54556	1.57545	1.31610	1.10097	7.02072	6.10620	4.98184
28960	0.73959	0.74882	0.52897	4.52870	4.20504	3.87305	4.35358	3.14640	1.90725	2.99264	2.80869	2.56484	1.57813	1.30333	1.09814	7.01528	6.10853	4.96245
29130	0.73471	0.76154	0.52839	4.55254	4.20054	3.84083	4.34785	3.15131	1.91667	2.99018	2.80762	2.52636	1.64236	1.34193	1.11270	6.98841	6.06842	4.97028
29290	0.75000	0.76800	0.53378	4.51767	4.19255	3.81771	4.33989	3.14809	1.90333	2.93097	2.77047	2.53001	1.56926	1.29879	1.08556	7.00342	6.05964	4.91292
29450	0.72930	0.75183	0.52192	4.51876	4.18322	3.84252	4.33475	3.13755	1.89668	2.95067	2.79715	2.51146	1.57242	1.30014	1.09145	7.00419	6.05764	4.92526	25.99	6.2	0.00	7.34	0.01274	0.01290	0.01667	0.00778	0.00579	0.00635	0.00468	0.01266	0.01687	0.00676	0.00693	0.00892	0.01491	0.01097	0.01198	0.00217	0.00616	0.00866
29620	0.72873	0.74082	0.52309	4.48003	4.15538	3.84286	4.32910	3.12481	1.88324	2.94392	2.78398	2.50961	1.57705	1.30181	1.09411	7.02210	6.10311	4.93087
29780	0.72715	0.74850	0.52594	4.50324	4.16180	3.80072	4.34539	3.13372	1.89353	2.92234	2.77746	2.48348	1.55466	1.29880	1.09726	6.96877	6.04458	4.89706
29940	0.73132	0.75540	0.52905	4.49055	4.16713	3.84390	4.35353	3.12169	1.88343	2.95869	2.81372	2.52292	1.55585	1.28566	1.08953	6.99876	6.05783	4.92549
30110	0.72894	0.75152	0.52018	4.51598	4.21190	3.84683	4.34840	3.14563	1.89827	2.94917	2.78482	2.52297	1.56865	1.31381	1.09268	6.99732	6.11035	4.93401
30270	0.73891	0.75250	0.52760	4.52729	4.22358	3.82783	4.33998	3.14065	1.90616	2.93783	2.75964	2.48909	1.58982	1.30220	1.09433	7.01446	6.05804	4.93876
30430	0.73397	0.74783	0.52432	4.47847	4.17238	3.81101	4.36037	3.13509	1.89519	2.94008	2.77749	2.48198	1.56498	1.30297	1.08433	6.99476	6.07555	4.90544
30600	0.72776	0.74563	0.52526	4.50559	4.16902	3.83869	4.32967	3.12455	1.89651	2.92636	2.75516	2.49529	1.56545	1.30873	1.09858	6.99574	6.09006	4.90124
30760	0.73278	0.74796	0.52703	4.52484	4.18993	3.81752	4.34907	3.13385	1.89694	2.94468	2.80123	2.53317	1.55968	1.31204	1.10055	6.99513	6.06742	4.92262
30920	0.73099	0.74610	0.52032	4.50427	4.15558	3.82525	4.33380	3.13092	1.88232	2.92253	2.77369	2.49817	1.55832	1.29992	1.09824	7.00834	6.06172	4.94631
31090	0.72232	0.75086	0.52010	4.49314	4.15774	3.81063	4.32962	3.13082	1.91473	2.92930	2.78098	2.50721	1.57904	1.32811	1.10436	6.98367	6.03907	4.88605	25.93	6.2	0.00	7.33	0.01274	0.01290	0.01666	0.00777	0.00579	0.00635	0.00468	0.01266	0.01687	0.00676	0.00692	0.00892	0.01491	0.01097	0.01198	0.00217	0.00616	0.00866
31250	0.72729	0.74677	0.52145	4.50497	4.17713	3.83977	4.33817	3.12219	1.90623	2.95447	2.81090	2.48768	1.56871	1.31851	1.10045	6.93237	6.03947	4.88121
31410	0.73899	0.76080	0.55256	4.50262	4.17944	3.79663	4.36139	3.14662	1.91063	2.90888	2.77243	2.51623	1.55577	1.29743	1.09263	6.96190	6.05406	4.91007
31580	0.71910	0.74145	0.52571	4.49296	4.18243	3.80507	4.33626	3.10328	1.88541	2.89858	2.74161	2.47356	1.55529	1.29767	1.07773	6.92945	6.02277	4.88650
31740	0.73610	0.74195	0.52620	4.46488	4.17898	3.79379	4.33089	3.11799	1.89224	2.93315	2.77970	2.47443	1.56811	1.29454	1.08907	6.96310	6.08818	4.93058
31900	0.72498	0.74582	0.51627	4.50558	4.17287	3.81569	4.33425	3.12325	1.87672	2.92122	2.75661	2.47882	1.55830	1.29134	1.09159	6.94679	6.02860	4.87521
32070	0.72662	0.74184	0.52609	4.51262	4.14767	3.82560	4.33432	3.12543	1.88895	2.89654	2.76201	2.49507	1.54659	1.29626	1.08523	6.93732	6.03700	4.88105
32230	0.72872	0.73663	0.52047	4.51375	4.12880	3.84028	4.33920	3.11960	1.87389	2.93023	2.78569	2.49726	1.56967	1.29577	1.09612	6.99242	6.09014	4.96676
32390	0.73428	0.76661	0.53112	4.57477	4.25788	3.90614	4.37117	3.17885	1.95375	3.21948	2.98007	2.89376	1.64740	1.39502	1.27299	7.59490	6.85390	5.58671
32560	0.98581	1.10076	0.87580	5.50188	5.15836	4.72056	4.76440	3.57065	2.31739	4.36418	4.33103	3.84761	2.09473	1.87149	1.70805	8.50313	7.29726	5.88972
32720	1.23204	1.25214	1.15860	5.53941	5.25857	4.77107	4.89486	3.59352	2.47747	4.03347	3.59363	3.50387	2.05344	1.70199	1.48454	7.84787	6.77445	5.58760	25.99	6.0	0.00	7.29	0.01274	0.01290	0.01666	0.00778	0.00579	0.00635	0.00468	0.01266	0.01687	0.00676	0.00692	0.00892	0.01491	0.01097	0.01198	0.00217	0.00616	0.00866
32890	1.12276	1.09069	0.84017	5.22712	4.76280	4.35785	4.69216	3.37451	2.15713	3.37193	3.19631	2.90688	1.76257	1.54352	1.31764	7.42250	6.46451	5.27888
33050	0.92465	0.94032	0.68250	4.75685	4.48978	4.15074	4.49930	3.29984	2.01376	3.23099	3.02653	2.73357	1.68324	1.42594	1.19794	7.21233	6.22252	5.06641
33210	0.80928	0.81610	0.63240	4.65874	4.31142	3.97632	4.40459	3.21557	1.96429	3.04957	2.91018	2.63448	1.61798	1.34162	1.12326	7.07886	6.15950	4.97984
33380	0.77727	0.79916	0.59474	4.56716	4.22782	3.89168	4.36467	3.14908	1.91915	2.94676	2.79151	2.53238	1.58729	1.32117	1.09558	7.05946	6.13526	4.92082
33540	0.73472	0.76133	0.52707	4.50249	4.17822	3.83952	4.32830	3.13858	1.89103	2.95361	2.77034	2.50930	1.57437	1.30644	1.08981	6.97379	6.05650	4.89014
33710	0.72547	0.75061	0.52427	4.52326	4.17270	3.82106	4.35323	3.14298	1.89368	2.92296	2.75088	2.49963	1.56999	1.29919	1.08603	6.95279	6.03834	4.90046
33870	0.72720	0.74652	0.51868	4.49764	4.16959	3.80232	4.33494	3.13559	1.89038	2.93911	2.76070	2.54999	1.57840	1.31024	1.08515	7.01230	6.03710	4.89162
34040	0.73301	0.74995	0.52334	4.49994	4.16282	3.79043	4.32332	3.12149	1.87754	2.95539	2.76788	2.52751	1.56317	1.29674	1.08570	6.97681	6.07257	4.90824
34200	0.73393	0.74717	0.52688	4.49428	4.14799	3.83110	4.34739	3.13614	1.90790	2.91024	2.75772	2.54164	1.56321	1.30345	1.09165	6.98080	6.04644	4.90262
34370	0.73506	0.74887	0.52263	4.49483	4.21634	3.96881	4.32038	3.12184	1.89063	2.93706	3.35025	2.54449	1.56688	1.31642	1.10084	6.95359	6.08832	4.89936	25.99	6.1	0.00	7.34	0.01274	0.01290	0.01666	0.00777	0.00579	0.00635	0.00468	0.01266	0.01687	0.00676	0.00692	0.00892	0.01491	0.01097	0.01198	0.00217	0.00616	0.00866
34530	0.73495	0.75489	0.53040	4.49571	4.14337	3.82226	4.34940	3.12947	1.89575	2.93280	2.77113	2.49229	1.56660	1.29505	1.08133	6.94758	6.03430	4.91430
34690	0.72645	0.73639	0.51868	4.48460	4.13768	3.79494	4.32536	3.12237	1.89427	2.94433	2.78860	2.49938	1.56074	1.29295	1.08892	6.97128	6.05749	4.91528
34860	0.73306	0.74294	0.51594	4.49325	4.19597	3.83468	4.33320	3.12016	1.89342	2.94552	2.75652	2.47817	1.56262	1.29761	1.08848	6.96608	6.01242	4.88438
35020	0.72157	0.73574	0.51494	4.45708	4.15963	3.81600	4.31876	3.13063	1.89412	2.91933	2.74865	2.48782	1.55748	1.30343	1.09029	6.94983	6.02628	4.87695
35180	0.72564	0.74388	0.52407	4.47214	4.15320	3.79505	4.30635	3.11845	1.88305	2.94005	2.74592	2.49676	1.55435	1.29266	1.07879	6.91749	6.01898	4.88132
35350	0.72137	0.74405	0.51215	4.46728	4.16317	3.80819	4.33112	3.11587	1.88548	2.93173	2.77925	2.49961	1.57449	1.30135	1.08506	6.97459	6.04814	4.90296
35510	0.73552	0.74570	0.52180	4.52055	4.17561	3.80121	4.35071	3.12459	1.88574	2.93934	2.76947	2.48056	1.55697	1.29791	1.09011	7.01234	6.05014	4.88511
35670	0.72561	0.74152	0.52238	4.52737	4.18210	3.84911	4.34413	3.13558	1.88448	2.94327	2.80458	2.50399	1.57140	1.31173	1.09174	6.97587	6.07942	4.93935
35840	0.73049	0.75119	0.52525	4.51930	4.17285	3.82428	4.33875	3.11823	1.89860	2.93337	2.78208	2.52496	1.55113	1.28865	1.08808	6.95795	6.06148	4.90233
36000	0.72780	0.74499	0.52058	4.50687	4.17791	3.80405	4.32380	3.13027	1.88583	2.96060	2.80918	2.51616	1.56046	1.30467	1.10071	7.10179	6.08163	4.93394	25.99	6.2	0.00	7.39	0.01274	0.01290	0.01666	0.00778	0.00579	0.00635	0.00468	0.01266	0.01687	0.00676	0.00692	0.00892	0.01491	0.01097	0.01198	0.00217	0.00616	0.00866
36160	0.73462	0.75548	0.53011	4.50952	4.17730	3.83517	4.33174	3.15770	1.89642	2.93423	2.75727	2.50425	1.55867	1.30195	1.09036	6.97885	6.06340	4.91782
36330	0.72977	0.74629	0.52112	4.53806	4.19388	3.82012	4.33672	3.12066	1.90179	2.93124	2.78469	2.53046	1.57168	1.31958	1.10024	6.98353	6.06024	4.94454
36490	0.74315	0.76984	0.53334	4.52716	4.21447	3.84687	4.36238	3.17580	1.90897	2.97123	2.78972	2.52629	1.57958	1.32984	1.09552	6.97803	6.09992	4.90293
36650	0.75134	0.77589	0.55640	4.50967	4.16466	3.78264	4.35091	3.15973	1.91115	2.95356	2.78369	2.53390	1.58464	1.30807	1.10777	6.99092	6.09451	4.92536
36820	0.74179	0.76327	0.53217	4.53431	4.17433	3.82164	4.34793	3.14766	1.91715	2.95677	2.78373	2.57598	1.57395	1.30292	1.09694	7.00006	6.07130	4.93740
36980	0.74121	0.75802	0.53493	4.57122	4.19619	3.85276	4.38374	3.16030	1.91856	2.96869	2.80287	2.53547	1.58466	1.32619	1.10300	7.03699	6.07400	4.93355
37140	0.74236	0.75475	0.52690	4.54013	4.18589	3.82783	4.36890	3.14240	1.91496	2.97243	2.80361	2.53110	1.58730	1.32209	1.10670	7.02358	6.12228	4.94953
37310	0.74150	0.76110	0.54230	4.53066	4.25044	3.88907	4.35951	3.14906	1.91495	2.97131	2.80133	2.54150	1.57178	1.31560	1.09837	7.03934	6.13636	4.93664
37470	0.74326	0.76514	0.53860	4.54867	4.20712	3.86004	4.37926	3.15461	1.91366	2.92942	2.78890	2.49913	1.57602	1.31664	1.10119	6.97471	6.07630	4.89726
37640	0.73301	0.74597	0.52874	4.51918	4.20735	3.84450	4.35311	3.14020	1.89472	2.96401	2.80507	2.53661	1.58539	1.31705	1.11000	6.97965	6.06752	4.90783	25.99	6.2	0.00	7.26	0.01274	0.01290	0.01666	0.00778	0.00579	0.00635	0.00468	0.01266	0.01687	0.00676	0.00692	0.00892	0.01491	0.01097	0.01198	0.00217	0.00616	0.00866
37800	0.73891	0.75153	0.52739	4.51251	4.18486	3.84674	4.32091	3.12647	1.90722	2.95733	2.80628	2.51584	1.57103	1.31279	1.09686	6.99836	6.10007	4.94015
37970	0.73340	0.74536	0.52937	4.52112	4.17619	3.84835	4.33383	3.13988	1.90637	2.94814	2.80562	2.51613	1.57965	1.31602	1.12402	6.99655	6.07055	4.93660
38130	0.73624	0.74809	0.53276	4.51741	4.17966	3.82680	4.34504	3.13741	1.90615	3.00738	2.83271	2.55195	1.57417	1.30511	1.09230	6.99496	6.07784	4.95203
38290	0.73405	0.75314	0.53233	4.54001	4.20198	3.86689	4.34182	3.13621	1.91407	3.01032	2.80955	2.52072	1.57420	1.31620	1.10095	7.00788	6.05220	4.91181
38460	0.73922	0.76970	0.55214	4.55105	4.18500	3.86838	4.34444	3.13573	1.92587	2.95017	2.78735	2.49665	1.57607	1.32404	1.12377	6.97648	6.06967	4.88851
38620	0.74356	0.75277	0.54293	4.48076	4.19012	3.81422	4.33751	3.13192	1.89300	2.94082	2.78594	2.53048	1.56236	1.29720	1.08761	6.99481	6.08205	4.91367
38780	0.72899	0.73740	0.52498	4.50755	4.16654	3.80756	4.34525	3.12576	1.89949	2.96663	2.78087	2.46925	1.57032	1.30163	1.08646	6.96932	6.05740	4.89547
38950	0.73022	0.74477	0.52418	4.50142	4.15610	3.79896	4.32645	3.12965	1.89696	2.94234	2.75028	2.49517	1.58050	1.30084	1.09808	6.96910	6.06709	4.91867
39110	0.72187	0.73498	0.51726	4.48202	4.15798	3.78494	4.31590	3.12099	1.87830	2.92472	2.75333	2.47883	1.56356	1.31056	1.10104	6.99194	6.05704	4.87686
39280	0.73331	0.74562	0.52356	4.47709	4.18630	3.83056	4.33558	3.12389	1.89051	2.90953	2.78248	2.51481	1.56985	1.29366	1.08868	6.93778	6.04738	4.90166	25.99	6.0	0.00	7.27	0.01274	0.01290	0.01666	0.00778	0.00579	0.00635	0.00468	0.01266	0.01687	0.00676	0.00693	0.00892	0.01491	0.01097	0.01198	0.00217	0.00616	0.00866
39440	0.73194	0.74376	0.52216	4.46596	4.17479	3.79092	4.31997	3.11663	1.87793	2.92854	2.77895	2.49746	1.56143	1.29846	1.07854	6.94492	6.02050	4.86645
39600	0.71601	0.73713	0.51151	4.48317	4.16421	3.82082	4.30886	3.10720	1.87435	2.94237	2.77280	2.47972	1.54074	1.28576	1.08865	6.93681	6.00397	4.83476
39770	0.71960	0.74100	0.51142	4.46464	4.12866	3.79089	4.30030	3.09056	1.85870	2.90187	2.72907	2.45727	1.54206	1.28016	1.07495	6.95326	5.99484	4.84281
39930	0.72150	0.72993	0.51303	4.44650	4.12232	3.75803	4.28278	3.08519	1.86769	2.87789	2.73738	2.45499	1.54064	1.27734	1.07410	6.89905	5.97632	4.79355
40100	0.70963	0.72774	0.51359	4.47980	4.11344	3.78722	4.28162	3.08176	1.86924	2.89534	2.74082	2.45619	1.53442	1.28048	1.08233	6.86539	5.99204	4.84724
40260	0.71572	0.72400	0.51571	4.41952	4.10047	3.71859	4.26480	3.07742	1.86685	2.87439	2.71868	2.47718	1.53471	1.27665	1.07071	6.89016	5.96842	4.82619
40420	0.70656	0.72862	0.50864	4.42313	4.08260	3.74268	4.25961	3.06956	1.84369	2.86566	2.69027	2.44086	1.52893	1.26985	1.07274	6.87142	5.92938	4.80279
40590	0.70709	0.72438	0.50452	4.43513	4.05564	3.70622	4.24286	3.04726	1.83744	2.83887	2.69731	2.46852	1.52231	1.27974	1.06330	6.84752	5.96734	4.80270
40750	0.70570	0.72283	0.50402	4.41859	4.09761	3.74893	4.23964	3.04894	1.83815	2.85757	2.69068	2.43715	1.50990	1.26691	1.07673	6.83295	5.90485	4.81618
40920	0.70390	0.71562	0.50910	4.39931	4.07253	3.72311	4.25276	3.05591	1.83164	2.86221	2.71109	2.45595	1.52674	1.26980	1.06345	6.86536	5.94745	4.80020	25.99	6.0	0.00	7.03	0.01274	0.01290	0.01666	0.00778	0.00579	0.00635	0.00468	0.01266	0.01687	0.00676	0.00692	0.00892	0.01491	0.01097	0.01198	0.00217	0.00616	0.00866
41080	0.70956	0.72340	0.50496	4.43351	4.10353	3.73926	4.25405	3.07331	1.85575	2.89908	2.70108	2.43017	1.52273	1.26755	1.06378	6.86395	5.95189	4.82050
41250	0.70200	0.72326	0.51229	4.42012	4.10075	3.74872	4.25710	3.06797	1.84807	2.86993	2.71592	2.46316	1.52361	1.26489	1.05970	6.90043	5.97128	4.80843
41410	0.70964	0.72905	0.50957	4.42071	4.07838	3.74124	4.24971	3.07073	1.84921	2.88351	2.71952	2.47304	1.53259	1.26330	1.06470	6.87841	5.96906	4.83126
41570	0.71456	0.72915	0.51094	4.44330	4.08624	3.76279	4.26914	3.30140	1.85695	2.88209	2.75046	2.48426	1.53035	1.28580	1.07371	6.90028	6.03017	4.91673
41740	0.71919	0.72655	0.51908	4.46832	4.13166	3.80557	4.30635	3.09307	1.86104	2.89727	2.75102	2.48771	1.53981	1.28762	1.07191	6.92857	6.00632	4.86227
41900	0.71303	0.72891	0.51723	4.47299	4.13131	3.78533	4.30283	3.08946	1.87989	2.90237	2.74804	2.49281	1.54152	1.29354	1.08261	6.93750	6.02494	4.84791
42060	0.72069	0.72806	0.52681	4.47704	4.13271	3.80214	4.30219	3.10134	1.86013	2.95072	2.76290	2.51837	1.54788	1.28585	1.08436	6.94628	6.03524	4.88051
42230	0.72003	0.73860	0.51870	4.48489	4.13885	3.79399	4.28688	3.10160	1.86829	2.87558	2.76334	2.49441	1.54676	1.29317	1.07921	6.92280	6.03581	4.93612
42390	0.71779	0.73751	0.52501	4.50027	4.15885	3.80527	4.31111	3.08886	1.85768	2.92948	2.74053	2.48743	1.56027	1.29741	1.07602	6.95943	6.04145	4.86983
42560	0.71751	0.73582	0.51105	4.46398	4.13214	3.77290	4.29179	3.10023	1.86125	2.92330	2.77502	2.50049	1.53748	1.28134	1.07296	6.91529	6.00811	4.87608	25.99	6.2	0.00	7.38	0.01274	0.01290	0.01666	0.00778	0.00579	0.00635	0.00468	0.01266	0.01687	0.00676	0.00693	0.00892	0.01491	0.01097	0.01198	0.00217	0.00616	0.00866
42720	0.71400	0.75277	0.54077	4.59756	4.21581	3.86835	4.28965	3.10175	1.86437	2.90654	2.74494	2.49861	1.54427	1.28325	1.08266	6.95677	6.02678	4.88444
42880	0.72862	0.73408	0.51173	4.50172	4.14771	3.77172	4.30894	3.08625	1.87345	2.89406	2.75399	2.48374	1.54633	1.28930	1.09064	6.95700	6.04313	4.86294
43050	0.72386	0.74055	0.52754	4.47788	4.13523	3.79072	4.31910	3.09107	1.87933	2.90467	2.73468	2.48326	1.53636	1.27590	1.07938	6.93747	6.01307	4.89974
43210	0.71349	0.72917	0.50793	4.48716	4.16302	3.80534	4.29876	3.08934	1.86711	2.91929	2.74041	2.49233	1.54873	1.27819	1.07877	6.91731	6.01157	4.87630
43370	0.72395	0.73823	0.52146	4.48464	4.17044	3.83686	4.31420	3.12343	1.87363	2.89780	2.74947	2.47427	1.54002	1.28943	1.07919	6.95008	6.02809	4.90558
43540	0.72203	0.73389	0.51874	4.48123	4.15072	3.80426	4.29489	3.09860	1.87372	2.93395	2.73381	2.48556	1.54596	1.28672	1.07302	6.91941	6.02871	4.87084
43700	0.72249	0.72854	0.51452	4.46275	4.13212	3.78559	4.28201	3.09253	1.87328	2.91237	2.74846	2.49485	1.54181	1.27693	1.07542	6.91574	6.00502	4.85188
43860	0.71826	0.74466	0.51135	4.47911	4.13958	3.78672	4.31064	3.09901	1.87301	2.89789	2.73810	2.48385	1.55220	1.28003	1.07288	6.89674	5.99435	4.84883
44030	0.71816	0.74266	0.51451	4.47467	4.15797	3.80299	4.29031	3.09488	1.87405	2.89754	2.72565	2.46165	1.54846	1.28196	1.08109	6.91364	6.00970	4.87452
44190	0.72302	0.72923	0.51303	4.48018	4.13623	3.79529	4.29794	3.09381	1.86079	2.89426	2.73902	2.46706	1.54095	1.29207	1.07756	6.94905	6.01291	4.87027	25.99	6.0	0.00	7.37	0.01274	0.01290	0.01666	0.00778	0.00579	0.00635	0.00468	0.01266	0.01687	0.00676	0.00693	0.00892	0.01491	0.01097	0.01198	0.00217	0.00616	0.00866
44350	0.72300	0.73884	0.52227	4.49423	4.20721	3.80606	4.31782	3.10964	1.87859	2.92301	2.76534	2.48858	1.57320	1.31097	1.09921	6.93712	6.04030	4.86929
44520	0.75540	0.74917	0.53343	4.47228	4.13878	3.79328	4.30526	3.10518	1.88737	2.92754	2.78752	2.50859	1.54268	1.27934	1.07517	6.96228	6.03200	4.86816
44680	0.72890	0.74682	0.53309	4.47844	4.16615	3.83116	4.31115	3.11635	1.89565	2.93584	2.76566	2.49010	1.55661	1.29422	1.09419	6.96424	6.03916	4.86115
44840	0.72260	0.73722	0.51570	4.49039	4.18756	3.81264	4.31955	3.10094	1.86084	2.94593	2.78764	2.47504	1.54611	1.29168	1.08411	6.94387	6.03100	4.88596
45000	0.73401	0.75224	0.52012	4.49170	4.17773	3.81301	4.31873	3.12572	1.88266	2.90983	2.76051	2.52132	1.56114	1.29120	1.08440	6.92228	6.02189	4.86118
45170	0.72466	0.74204	0.52534	4.47989	4.15136	3.78415	4.30157	3.11716	1.87243	2.91523	2.76923	2.47342	1.54093	1.27614	1.07473	6.94410	6.00508	4.89190
45330	0.71461	0.74635	0.51532	4.47766	4.16676	3.78311	4.28316	3.06116	1.85118	2.90878	2.72495	2.49580	1.53254	1.27424	1.06485	6.93832	5.98401	4.84468
45500	0.70799	0.73544	0.51394	4.43798	4.09842	3.72795	4.26191	3.09312	1.86119	2.87883	2.77220	2.47095	1.53277	1.27225	1.06875	6.85264	5.97655	4.84116
45660	0.70493	0.72248	0.51343	4.43163	4.11410	3.74281	4.26012	3.06890	1.85422	2.89489	2.70851	2.45052	1.52796	1.27053	1.06793	6.87312	5.96563	4.83368
45820	0.71876	0.72486	0.50431	4.39856	4.06881	3.74190	4.24477	3.06864	1.84178	2.85300	2.70399	2.44167	1.52040	1.26113	1.05851	6.84586	5.95147	4.79914	25.99	6.1	0.00	7.30	0.01274	0.01290	0.01666	0.00778	0.00579	0.00635	0.00468	0.01266	0.01687	0.00676	0.00693	0.00892	0.01491	0.01097	0.01198	0.00217	0.00616	0.00866
45990	0.71276	0.72012	0.51954	4.44606	4.09352	3.73674	4.23070	3.03665	1.82896	2.88114	2.72523	2.46999	1.51881	1.25979	1.05909	6.87542	5.99743	4.83789
46150	0.70600	0.71504	0.50937	4.43881	4.12244	3.76256	4.23328	3.04217	1.82958	2.88190	2.74821	2.49101	1.52312	1.26434	1.06453	6.84311	5.96588	4.82693
46320	0.71015	0.72203	0.50847	4.43016	4.08096	3.73220	4.22168	3.04630	1.85606	2.88021	2.71964	2.44453	1.52009	1.25895	1.06118	6.83516	5.95376	4.83565
46480	0.71079	0.72727	0.52341	4.39734	4.07925	3.75553	4.23178	3.04657	1.82554	2.85830	2.67944	2.40241	1.51269	1.24705	1.04214	6.82128	5.95360	4.78000
46640	0.69276	0.71665	0.50434	4.39362	4.08436	3.71520	4.20987	3.01256	1.80802	2.85342	2.69895	2.41206	1.49954	1.24208	1.04729	6.78552	5.90756	4.74899
46810	0.69861	0.70891	0.49985	4.40507	4.06182	3.71426	4.20554	3.01614	1.81263	2.84074	2.69185	2.45509	1.49477	1.24145	1.04765	6.78456	5.91985	4.77709
46970	0.69945	0.70416	0.49629	4.36077	4.05382	3.71819	4.19731	3.03230	1.81731	2.83805	2.68318	2.41389	1.49884	1.24429	1.03818	6.77858	5.87034	4.74389
47140	0.69671	0.70964	0.50018	4.38427	4.01714	3.69324	4.20254	2.99899	1.81235	2.82173	2.66638	2.41530	1.50309	1.24765	1.04459	6.77031	5.92305	4.76456
47300	0.69423	0.71081	0.50262	4.34501	4.05232	3.70227	4.20328	3.01175	1.81967	2.87231	2.70156	2.43781	1.49838	1.25620	1.05338	6.76183	5.88815	4.77691
47460	0.70819	0.72339	0.50928	4.39491	4.07873	3.76567	4.23280	3.01940	1.82745	2.89707	2.72211	2.44769	1.52553	1.26496	1.05272	6.81980	5.89809	4.79001	25.99	6.1	0.00	7.34	0.01274	0.01290	0.01666	0.00778	0.00579	0.00635	0.00468	0.01266	0.01687	0.00676	0.00693	0.00892	0.01491	0.01097	0.01198	0.00217	0.00616	0.00866
47630	0.71615	0.72776	0.50989	4.37760	4.09422	3.73690	4.20761	3.02259	1.82995	2.87703	2.72697	2.42185	1.50086	1.24779	1.05702	6.84022	5.90272	4.76966
47790	0.70380	0.72035	0.52262	4.37198	4.06132	3.72387	4.21072	3.02806	1.83041	2.85548	2.65828	2.42974	1.50667	1.24522	1.06389	6.79166	5.88693	4.77321
47950	0.70139	0.72364	0.50986	4.36913	4.04787	3.73255	4.20660	3.01941	1.82163	2.85838	2.72838	2.43631	1.50754	1.24858	1.04569	6.88894	5.87671	4.75843
48120	0.69558	0.71319	0.50550	4.38673	4.04250	3.67807	4.21511	3.00837	1.82370	2.83825	2.69456	2.42810	1.49453	1.23890	1.05290	6.80779	5.92063	4.74304
48280	0.70689	0.71160	0.51032	4.38940	4.02803	3.69703	4.19255	3.01933	1.81850	2.83760	2.69021	2.43905	1.49341	1.23752	1.04334	6.78951	5.88271	4.75879
48440	0.69523	0.70100	0.49679	4.37437	4.02739	3.69179	4.20771	3.00929	1.81001	2.85141	2.66961	2.41410	1.49386	1.24232	1.03634	6.74260	5.84917	4.73173
48610	0.69768	0.71030	0.49248	4.38174	4.03057	3.67631	4.18151	3.01115	1.79794	2.83545	2.68792	2.40844	1.48470	1.23199	1.03529	6.74171	5.86474	4.75924
48770	0.68267	0.70481	0.49179	4.35921	4.02084	3.66350	4.19283	3.00950	1.80665	2.80296	2.65953	2.39678	1.49299	1.24572	1.04551	6.75512	5.87418	4.76863
48940	0.69197	0.70661	0.49602	4.34675	4.04823	3.69263	4.19248	3.01258	1.81064	2.86279	2.68311	2.43010	1.50609	1.23174	1.05305	6.77968	5.88528	4.77944
49100	0.70328	0.71179	0.50319	4.37191	4.05134	3.74927	4.20199	3.03458	1.81657	2.86366	2.67811	2.42587	1.49031	1.25355	1.04984	6.77105	5.89073	4.79825	25.99	6.2	0.00	7.34	0.01274	0.01290	0.01666	0.00778	0.00579	0.00635	0.00468	0.01266	0.01687	0.00676	0.00693	0.00892	0.01491	0.01097	0.01198	0.00217	0.00616	0.00866
49270	0.70752	0.72065	0.50544	4.38979	4.06068	3.70115	4.21368	3.01714	1.81721	2.88176	2.75072	2.44188	1.50080	1.25439	1.04750	6.82930	5.93147	4.79624
49430	0.70391	0.72576	0.50977	4.37160	4.06546	3.71837	4.22311	3.02352	1.81827	2.84160	2.70186	2.43464	1.50214	1.25767	1.05421	6.80646	5.91307	4.77758
49590	0.69010	0.71318	0.49788	4.37254	4.06201	3.73076	4.21878	3.02737	1.82143	2.83715	2.69240	2.44774	1.51969	1.26564	1.06205	6.76905	5.90362	4.76503
49760	0.70222	0.70975	0.50229	4.36019	4.06195	3.69948	4.20886	3.03888	1.83790	2.87540	2.70834	2.43624	1.51486	1.26352	1.06156	6.79284	5.93894	4.81185
49920	0.72176	0.72375	0.50940	4.40040	4.12814	3.74404	4.23979	3.03183	1.83044	2.84913	2.68124	2.44016	1.51312	1.25528	1.05433	6.80987	5.91391	4.82675
50090	0.70028	0.72188	0.50520	4.40960	4.06129	3.74432	4.22531	3.03234	1.83984	2.87285	2.69511	2.45651	1.51801	1.25663	1.06305	6.80172	5.89770	4.78835
50250	0.70346	0.71665	0.50824	4.37228	4.08412	3.81729	4.21326	3.03043	1.83347	2.85511	2.72222	2.45273	1.49810	1.25370	1.06092	7.21033	5.94031	4.77563
50410	0.71356	0.72008	0.51653	4.45893	4.10195	3.73323	4.23091	3.04563	1.83640	2.85461	2.73705	2.44986	1.53108	1.26995	1.07400	6.85480	5.98120	4.83390
50580	0.72158	0.72930	0.52799	4.44223	4.11594	3.72571	4.23594	3.04317	1.85191	2.89565	2.76100	2.49381	1.52052	1.28483	1.06672	6.88043	5.96322	4.82407
50740	0.71515	0.71806	0.51815	4.39481	4.09567	3.75373	4.23466	3.06281	1.84499	2.88175	2.72544	2.46855	1.52905	1.27843	1.06881	6.82338	5.92654	4.84770	25.99	6.2	0.00	7.30	0.01274	0.01290	0.01666	0.00778	0.00579	0.00635	0.00468	0.01267	0.01687	0.00676	0.00693	0.00892	0.01491	0.01097	0.01198	0.00217	0.00616	0.00866
50910	0.72027	0.73583	0.51753	4.41776	4.11120	3.72017	4.23414	3.03607	1.84828	2.85486	2.70914	2.48556	1.51474	1.26621	1.06240	6.81099	5.92466	4.80800
51070	0.72147	0.72073	0.50683	4.38577	4.05472	3.73408	4.23054	3.02666	1.82498	2.86481	2.68357	2.39949	1.51377	1.26248	1.05954	6.78989	5.88165	4.76697
51230	0.70630	0.72051	0.50497	4.36096	4.03849	3.69231	4.24765	3.04437	1.83262	2.85367	2.68438	2.43545	1.50325	1.25230	1.05080	6.82835	5.92059	4.77971
51400	0.70157	0.71575	0.50169	4.38883	4.08221	3.71169	4.23995	3.03975	1.82563	2.84883	2.69636	2.42609	1.50833	1.26760	1.05917	6.79381	5.88183	4.76972
51560	0.70438	0.71767	0.51174	4.38231	4.05404	3.70312	4.25466	3.05244	1.84327	2.88226	2.70264	2.43042	1.53795	1.27644	1.06747	6.85541	5.96901	4.84603
51730	0.71320	0.72411	0.52539	4.40987	4.12024	3.76361	4.26251	3.05785	1.86572	2.93745	2.74807	2.49675	1.53404	1.27015	1.07482	6.94521	6.00903	4.90632
51890	0.72445	0.74116	0.52391	4.42370	4.15486	3.80268	4.28636	3.09026	1.86997	2.89884	2.76353	2.48916	1.54347	1.27655	1.07617	6.92023	6.03639	4.86414
52050	0.73213	0.74437	0.52314	4.46014	4.17444	3.81150	4.29016	3.09490	1.86738	2.93369	2.75569	2.50131	1.55259	1.28635	1.09176	6.94198	6.03347	4.90767
52220	0.73318	0.74905	0.52683	4.48994	4.16057	3.81631	4.31372	3.11423	1.88746	2.94783	2.76827	2.50808	1.56185	1.31556	1.10103	6.99197	6.07095	4.92611
52380	0.74522	0.75390	0.52997	4.53549	4.17483	3.84503	4.32637	3.11377	1.90092	2.98283	2.78890	2.52862	1.57558	1.29587	1.09329	6.99780	6.03897	4.90767	26.05	6.1	0.00	7.30	0.01274	0.01290	0.01666	0.00778	0.00579	0.00635	0.00468	0.01266	0.01687	0.00676	0.00692	0.00892	0.01491	0.01097	0.01198	0.00217	0.00616	0.00866
52550	0.73752	0.75244	0.53521	4.51783	4.18549	3.83606	4.32640	3.14943	1.92685	2.96721	2.81917	2.56234	1.57469	1.31232	1.10271	6.97004	6.08360	4.88000
52710	0.73209	0.74607	0.53362	4.52362	4.19537	3.82412	4.36517	3.14663	1.88661	2.95502	2.80136	2.49523	1.57642	1.30053	1.10220	6.99614	6.07552	4.94042
52870	0.74334	0.74907	0.52869	4.52753	4.19366	3.83358	4.35097	3.12881	1.90201	2.93789	2.75720	2.50895	1.57644	1.31516	1.10962	6.95950	6.08094	4.93901
53040	0.72769	0.74875	0.53112	4.54594	4.18236	3.82988	4.36574	3.15756	1.90455	2.96144	2.77824	2.53203	1.57225	1.31270	1.09684	6.97961	6.05460	4.90442
53200	0.74195	0.76053	0.53496	4.54092	4.18714	3.87501	4.37730	3.14870	1.92089	2.95749	2.79161	2.53605	1.59139	1.31212	1.10495	7.02147	6.09066	4.92664
53360	0.74335	0.76103	0.53585	4.53352	4.21503	3.82308	4.35695	3.13964	1.90019	2.95195	2.81060	2.55554	1.57569	1.32266	1.11263	7.04163	6.09724	4.92101
53530	0.74354	0.75674	0.52878	4.54477	4.19509	3.82662	4.37042	3.16011	1.91481	2.93362	2.81770	2.57209	1.57718	1.31808	1.11110	7.02170	6.12036	4.95360
53690	0.74055	0.75120	0.54175	4.57406	4.21010	3.86468	4.36680	3.14973	1.91558	2.95672	2.82819	2.51252	1.59508	1.32029	1.11036	7.03405	6.09758	4.96954
53850	0.75198	0.76400	0.54758	4.55320	4.21029	3.89014	4.39165	3.17528	1.92832	2.98786	2.83399	2.53147	1.59471	1.34333	1.12369	7.06937	6.14675	4.98809
54020	0.76959	0.76422	0.54363	4.60370	4.24663	3.91299	4.38464	3.19831	1.93848	2.99921	2.88068	2.57230	1.60235	1.34329	1.13926	7.05501	6.18318	5.01137	26.05	6.1	0.00	7.37	0.01274	0.01290	0.01666	0.00777	0.00579	0.00635	0.00468	0.01266	0.01687	0.00676	0.00692	0.00892	0.01491	0.01097	0.01198	0.00217	0.00616	0.00866
54180	0.79517	0.77462	0.55235	4.62171	4.27779	3.92078	4.40793	3.19912	1.93833	3.05178	2.83854	2.59684	1.60648	1.33381	1.13226	7.06816	6.12033	4.95640
54340	0.76431	0.77036	0.55795	4.61217	4.23194	3.91560	4.37885	3.17935	1.94042	2.99538	2.82568	2.54952	1.59413	1.34294	1.12370	7.05949	6.12045	4.99924
54510	0.74609	0.76570	0.54357	4.57332	4.22718	3.89944	4.39711	3.18267	1.93200	2.94939	2.77877	2.52319	1.59023	1.32676	1.11166	7.05045	6.12415	4.95923
54670	0.73518	0.75391	0.53733	4.54981	4.21670	3.85320	4.38365	3.16211	1.92351	2.96276	2.79749	2.53589	1.57623	1.32384	1.10537	7.03224	6.13496	4.96260
54840	0.72864	0.75666	0.53037	4.54722	4.21424	3.87203	4.36601	3.14761	1.91695	2.99218	2.83694	2.52818	1.57402	1.30817	1.11099	7.02512	6.11018	4.94724
55000	0.73588	0.76508	0.53434	4.54225	4.24352	3.86251	4.37282	3.17537	1.92019	2.96670	2.78435	2.52438	1.58840	1.30845	1.11136	7.00809	6.11015	4.92980
55170	0.73917	0.75297	0.53266	4.54481	4.20686	3.85414	4.37726	3.15915	1.92065	2.98428	2.79688	2.51608	1.57991	1.30453	1.10384	7.04438	6.09419	4.94762
55330	0.74204	0.76387	0.53233	4.53783	4.22869	3.87724	4.37701	3.16982	1.93546	2.94827	2.79325	2.53411	1.59109	1.32679	1.10912	7.03156	6.14655	4.93719
55490	0.74035	0.76006	0.54187	4.56951	4.20346	3.88739	4.39491	3.17894	1.92955	2.96909	2.82176	2.54523	1.60647	1.33286	1.11812	7.05364	6.15896	4.97461
55660	0.75401	0.76401	0.53340	4.53835	4.21397	3.86715	4.38393	3.16525	1.92202	2.95431	2.79428	2.52320	1.58395	1.32955	1.11617	7.05094	6.12561	4.97994	25.99	6.1	0.00	6.40	0.01274	0.01290	0.01666	0.00778	0.00579	0.00635	0.00468	0.01266	0.01687	0.00676	0.00692	0.00892	0.01491	0.01097	0.01198	0.00217	0.00616	0.00866
55820	0.74949	0.77000	0.53876	4.57063	4.25151	3.87398	4.40316	3.17501	1.93802	3.01121	2.84946	2.54843	1.59264	1.33124	1.11707	7.07268	6.16672	4.98660
55990	0.74659	0.76113	0.53217	4.62781	4.26220	3.89226	4.38791	3.18552	1.92406	2.98634	2.83406	2.53864	1.59636	1.32591	1.11722	7.06865	6.11152	4.98435
56150	0.75195	0.76903	0.54006	4.58231	4.22245	3.86994	4.40789	3.18940	1.92247	2.97334	2.81576	2.53214	1.58787	1.31144	1.11084	7.05497	6.14725	4.93783
56310	0.74620	0.76257	0.53064	4.60225	4.24503	3.88542	4.38322	3.16472	1.92713	3.06931	3.02690	2.59625	1.59548	1.33263	1.11842	7.10210	6.23110	5.05812
56480	0.74468	0.76304	0.53501	4.60267	4.34377	3.95184	4.42574	3.18481	1.93521	3.04946	2.85725	2.59560	1.59861	1.34661	1.13313	7.13711	6.17275	5.04757
56640	0.78275	0.78983	0.55940	4.74345	4.29694	4.07181	4.44577	3.20730	1.96311	3.08632	2.88274	2.62776	1.64090	1.36772	1.15088	7.06386	6.35425	5.02715
56800	0.77713	0.78171	0.55473	4.57969	4.24150	3.89039	4.42514	3.19269	1.94270	3.02096	2.85128	2.55403	1.61067	1.34663	1.11423	7.08639	6.14848	4.92479
56970	0.73836	0.75976	0.55012	4.53554	4.20487	3.86642	4.38883	3.16125	1.92469	2.96973	2.80261	2.65269	1.59382	1.33443	1.10747	6.99732	6.11505	4.95850
57130	0.74374	0.75533	0.53047	4.55589	4.24824	3.90792	4.39274	3.16320	1.92567	2.98135	2.81044	2.56455	1.59771	1.31642	1.10670	7.06241	6.14980	4.94885
57300	0.75335	0.77110	0.53949	4.56856	4.22658	3.90202	4.40764	3.16670	1.92367	2.99621	2.85850	2.58319	1.61028	1.32954	1.14005	7.03865	6.09841	4.96262	26.05	6.2	0.00	7.28	0.01274	0.01290	0.01666	0.00778	0.00579	0.00635	0.00468	0.01266	0.01687	0.00676	0.00692	0.00892	0.01491	0.01097	0.01198	0.00217	0.00616	0.00866
57460	0.75260	0.76853	0.53917	4.57039	4.21793	3.85716	4.37050	3.19125	1.91480	2.95295	2.79043	2.52013	1.57839	1.31392	1.11030	7.00911	6.11111	4.93679
57620	0.73917	0.75278	0.52791	4.50891	4.19399	3.88004	4.38861	3.15070	1.90099	2.95397	2.79447	2.50661	1.57824	1.31420	1.09923	7.03235	6.10854	4.95353
57790	0.73789	0.75293	0.52772	4.53370	4.20618	3.86872	4.38864	3.15703	1.91708	2.95341	2.81635	2.50868	1.59057	1.32966	1.11182	7.03736	6.10432	4.93779
57950	0.75463	0.75913	0.53564	4.54927	4.22688	3.82530	4.38985	3.16068	1.90953	2.98624	2.79115	2.50729	1.58593	1.32001	1.11362	7.03448	6.10322	4.93253
58110	0.74183	0.75462	0.53003	4.53558	4.21718	3.85615	4.38332	3.16095	1.91516	2.97022	2.80387	2.51515	1.56977	1.31994	1.10716	6.99499	6.07957	4.94156
58280	0.74855	0.77517	0.52719	4.53580	4.21033	3.86067	4.39707	3.17665	1.93018	2.95601	2.77499	2.51985	1.59201	1.31323	1.10835	7.00337	6.07969	4.95980
58440	0.73907	0.75042	0.53487	4.52780	4.22613	3.81955	4.39280	3.16330	1.91531	2.97342	2.80099	2.50957	1.58621	1.31522	1.10447	7.00911	6.08033	4.93585
58600	0.73393	0.74977	0.52690	4.53592	4.20791	3.85095	4.37558	3.17140	1.91090	2.96490	2.80219	2.51351	1.58306	1.31648	1.11891	7.03918	6.10286	4.92100
58770	0.74179	0.74745	0.53165	4.56513	4.20355	3.85705	4.39003	3.17066	1.91831	2.97034	2.81096	2.53374	1.58071	1.31756	1.11167	7.03842	6.08885	4.98385
58930	0.74564	0.75822	0.52971	4.55242	4.24225	3.86364	4.40124	3.17440	1.92317	3.01517	2.82138	2.53388	1.59759	1.33071	1.11532	7.04719	6.12540	5.04743	25.99	6.1	0.00	7.28	0.01274	0.01290	0.01666	0.00778	0.00579	0.00635	0.00468	0.01266	0.01687	0.00676	0.00692	0.00892	0.01491	0.01097	0.01198	0.00217	0.00616	0.00866
59090	0.74699	0.76004	0.54006	4.58795	4.23870	3.88235	4.40391	3.16786	1.92709	2.99895	2.81827	2.54762	1.59454	1.31753	1.11748	7.05531	6.14437	4.97841
59260	0.74431	0.76357	0.53543	4.59364	4.23106	3.87302	4.41050	3.18728	1.94734	2.98832	2.81659	2.54261	1.58881	1.32985	1.11570	7.10059	6.13564	5.00256
59420	0.74746	0.75039	0.53179	4.50866	4.24427	3.87631	4.39918	3.19259	1.92583	2.99872	2.83734	2.55974	1.60509	1.31880	1.11243	7.12005	6.14526	4.97523
59590	0.75746	0.75744	0.54826	4.59597	4.23623	3.90002	4.40042	3.17782	1.91452	2.98940	2.81607	2.53114	1.58915	1.32695	1.12340	7.13221	6.16000	4.98218
59750	0.74703	0.76874	0.53403	4.57126	4.24248	3.86111	4.39317	3.16601	1.92287	2.95558	2.81259	2.56096	1.58187	1.32260	1.11194	7.06154	6.14466	4.94570
59910	0.73686	0.75073	0.53316	4.53833	4.20396	3.84938	4.40231	3.17135	1.91487	2.97563	2.81031	2.52141	1.58490	1.31861	1.10553	7.02166	6.09811	4.96390
60080	0.74305	0.74468	0.52798	4.54896	4.22223	3.85059	4.37797	3.16765	1.91770	2.96924	2.81515	2.54639	1.59464	1.32527	1.11144	7.04628	6.10151	4.95710
60240	0.74529	0.76031	0.53618	4.53010	4.22180	3.87370	4.39281	3.16603	1.91392	2.98966	2.80843	2.54914	1.58727	1.31763	1.10635	7.05645	6.14945	4.97098
60400	0.73858	0.75196	0.53449	4.57923	4.24889	3.90587	4.36920	3.16943	1.92314	2.98759	2.84559	2.60286	1.59959	1.33704	1.12965	7.10227	6.15865	5.01169
60570	0.77379	0.79691	0.56580	4.62731	4.26581	3.92324	4.41845	3.20765	1.95811	3.06760	2.88358	2.60445	1.60161	1.36380	1.15354	7.06698	6.17514	5.00774	25.99	6.2	0.00	7.34	0.01274	0.01290	0.01666	0.00778	0.00579	0.00635	0.00468	0.01266	0.01687	0.00676	0.00692	0.00892	0.01491	0.01097	0.01198	0.00217	0.00616	0.00866
60730	0.78959	0.78576	0.57524	4.63713	4.27241	3.97770	4.41692	3.19481	1.94873	2.99300	2.82480	2.62403	1.63050	1.36863	1.15753	7.08523	6.16416	5.02997
60890	0.78513	0.78952	0.55111	4.65669	4.36676	3.93543	4.40517	3.19476	1.94923	3.01654	2.89354	2.56492	1.60448	1.34547	1.12814	7.09292	6.12035	4.98295
61050	0.75189	0.77023	0.55750	4.57768	4.26542	3.93502	4.38707	3.18894	1.93920	3.00131	2.86707	2.55311	1.60941	1.33734	1.11684	7.02497	6.11954	4.97650
61220	0.74621	0.75926	0.53353	4.53019	4.22500	3.84615	4.37954	3.16700	1.92098	3.00547	2.81192	2.56264	1.58471	1.32964	1.11190	7.06211	6.14372	4.96555
61380	0.74814	0.75577	0.53858	4.56173	4.20626	3.85552	4.38256	3.18354	1.91766	2.96578	2.80358	2.52135	1.58342	1.31882	1.10183	7.04906	6.12847	4.96521
61550	0.74173	0.75276	0.53575	4.58393	4.22647	3.89350	4.37790	3.16685	1.91184	3.00381	2.82633	2.54083	1.58817	1.31921	1.11561	7.04686	6.13073	4.98322
61710	0.75514	0.76643	0.53330	4.52409	4.22537	3.88930	4.36907	3.16602	1.92428	2.96942	2.79009	2.54956	1.58910	1.32677	1.11524	7.09140	6.12914	4.99741
61870	0.75567	0.76715	0.53847	4.56390	4.22005	3.87440	4.39353	3.16206	1.91769	2.97307	2.82828	2.55834	1.58950	1.31522	1.10811	7.04693	6.10179	4.94430
62040	0.74202	0.74904	0.52707	4.57810	4.20746	3.82650	4.38263	3.15238	1.91154	3.00142	2.80767	2.53280	1.58351	1.32458	1.11310	7.03723	6.13847	4.95888
62200	0.74555	0.76060	0.53654	4.56860	4.21231	3.90426	4.38435	3.16687	1.92822	2.99747	2.80569	2.54854	1.59225	1.32997	1.11917	7.04476	6.12144	4.99072	26.05	6.1	0.00	7.27	0.01274	0.01290	0.01666	0.00778	0.00579	0.00635	0.00468	0.01266	0.01687	0.00676	0.00693	0.00892	0.01491	0.01097	0.01198	0.00217	0.00616	0.00866
62370	0.75000	0.76718	0.54427	4.60155	4.26130	3.90663	4.38595	3.17285	1.93169	3.01710	2.82207	2.54465	1.58842	1.32590	1.10992	7.03528	6.13997	4.98914
62530	0.74144	0.75882	0.53086	4.55693	4.23399	3.87661	4.38641	3.16358	1.92105	2.97859	2.82655	2.54000	1.59439	1.32578	1.11778	7.10539	6.17886	4.96998
62700	0.75087	0.76404	0.54077	4.55104	4.21555	3.85669	4.37931	3.17719	1.92231	2.96269	2.79036	2.53225	1.58171	1.31178	1.11255	7.04665	6.13689	4.95616
62860	0.75013	0.75156	0.54363	4.58675	4.25091	3.87768	4.37920	3.16482	1.91451	2.97785	2.82308	2.55993	1.58363	1.32894	1.10758	7.05386	6.10500	4.95514
63020	0.74389	0.75388	0.53468	4.53084	4.21871	3.87997	4.37462	3.17780	1.91979	2.96899	2.79801	2.51207	1.58485	1.32576	1.11191	7.02263	6.11453	4.95814
63190	0.75582	0.75922	0.53080	4.55528	4.24455	3.86216	4.39337	3.16559	1.92446	2.96494	2.83176	2.51762	1.58785	1.32682	1.11788	7.00668	6.07659	4.94021
63350	0.74918	0.76459	0.52713	4.52527	4.21101	3.82343	4.37189	3.15586	1.91289	2.95909	2.78699	2.48624	1.58000	1.30361	1.09603	6.98864	6.07867	4.92646
63510	0.72753	0.74403	0.52811	4.53035	4.17320	3.81675	4.36179	3.15554	1.90146	2.93504	2.77063	2.50502	1.58161	1.31812	1.10343	7.04582	6.07408	4.94740
63670	0.73039	0.74260	0.52347	4.51542	4.19443	3.84382	4.37391	3.15801	1.90301	2.96356	2.80148	2.51588	1.57562	1.31237	1.10496	7.00985	6.11083	4.93151
63840	0.72850	0.74099	0.52319	4.54513	4.21004	3.80421	4.37143	3.15488	1.90763	2.93711	2.76646	2.50639	1.57312	1.30503	1.10779	7.01002	6.14155	4.95691	26.05	6.1	0.00	7.39	0.01274	0.01290	0.01666	0.00778	0.00579	0.00635	0.00468	0.01266	0.01687	0.00676	0.00693	0.00892	0.01491	0.01097	0.01198	0.00217	0.00616	0.00866
64000	0.73624	0.75425	0.52738	4.51240	4.20957	3.86661	4.35223	3.13997	1.90832	2.94882	2.80024	2.50642	1.58390	1.31760	1.09720	7.03394	6.09539	4.92356
64170	0.73539	0.75167	0.52907	4.52079	4.18362	3.81913	4.37629	3.15422	1.90222	2.94483	2.77868	2.51528	1.58254	1.30769	1.10621	7.02349	6.10310	4.93269
64330	0.73558	0.75175	0.52847	4.54676	4.21849	3.84405	4.37008	3.14790	1.91426	2.98422	2.79910	2.52956	1.57956	1.30916	1.10351	7.03144	6.11327	4.92144
64490	0.74668	0.75971	0.53426	4.53409	4.19673	3.86935	4.38161	3.15355	1.92616	2.97030	2.78731	2.53691	1.58729	1.31686	1.10625	7.03046	6.12364	4.95043
64660	0.75095	0.75383	0.52985	4.58483	4.20310	3.85265	4.37104	3.16606	1.91415	2.97004	2.81672	2.56248	1.59173	1.31104	1.10958	7.06811	6.12772	4.96474
64820	0.74971	0.76074	0.54672	4.54970	4.22235	3.86412	4.39096	3.17175	1.91409	2.94664	2.80952	2.67714	1.58937	1.31741	1.10029	7.01214	6.21241	5.09110
64990	0.73678	0.76360	0.53939	4.53413	4.17881	3.85375	4.37210	3.14267	1.92203	2.98250	2.82267	2.55693	1.58992	1.31587	1.10648	7.03561	6.12445	4.98263
65150	0.74208	0.75790	0.53255	4.51612	4.20045	3.84059	4.36739	3.15017	1.92469	2.95289	2.78783	2.50302	1.58829	1.32424	1.10550	7.01993	6.05962	4.95176
65310	0.74892	0.76019	0.53424	4.51042	4.19840	3.83256	4.36693	3.16012	1.90616	2.92692	2.76263	2.49292	1.58141	1.30672	1.11346	6.97372	6.06416	4.90576
65480	0.73745	0.75200	0.53211	4.50445	4.17137	3.83435	4.35813	3.14421	1.92140	2.94224	2.79717	2.55225	1.58140	1.32540	1.11000	7.02766	6.07724	4.96407	26.05	5.9	0.00	7.42	0.01274	0.01290	0.01666	0.00778	0.00579	0.00635	0.00468	0.01266	0.01687	0.00676	0.00692	0.00892	0.01491	0.01097	0.01198	0.00217	0.00616	0.00866
65640	0.74814	0.77371	0.53602	4.56096	4.20412	3.85517	4.36696	3.16089	1.92463	2.98308	2.79935	2.54715	1.58923	1.32210	1.11584	7.04819	6.09415	4.95313
65810	0.74925	0.76348	0.53296	4.53453	4.21294	3.85050	4.36441	3.16575	1.91645	2.96391	2.82086	2.55508	1.59564	1.33186	1.11274	7.10372	6.23810	5.10353
65970	0.79215	0.82352	0.58547	4.76138	4.46790	4.15870	4.46684	3.24355	2.04135	3.43758	3.21186	3.01015	1.73872	1.57479	1.33852	7.63466	6.90504	5.66367
66130	1.03761	1.07006	0.83674	5.48832	4.92695	4.71699	4.68966	3.54795	2.20900	3.77929	3.57733	3.37953	1.91390	1.71894	1.44198	7.90038	6.92724	6.00584
66290	1.12888	1.15345	0.96866	5.24757	5.00846	4.57405	4.88188	3.57061	2.24810	3.66478	3.42095	3.05919	1.85333	1.62060	1.37487	7.48393	6.63572	5.42905
66460	0.97768	1.00210	0.74168	4.92723	4.68909	4.23249	4.61356	3.37886	2.14535	3.32869	3.22156	2.82060	1.72818	1.49101	1.27598	7.36625	6.45465	5.16828
66620	0.88669	0.91692	0.64691	4.79362	4.39435	3.98512	4.46398	3.24622	1.99383	3.17368	2.97489	2.66291	1.63576	1.41112	1.17912	7.18944	6.19856	5.12495
66780	0.78675	0.80095	0.56710	4.64112	4.33139	3.98823	4.42674	3.20261	1.94900	3.13845	2.94159	2.63672	1.63217	1.36328	1.18131	7.11754	6.21120	5.07274
66950	0.80034	0.79550	0.58569	4.63572	4.24948	3.93929	4.40807	3.21612	1.96300	3.06993	2.87042	2.64075	1.61273	1.36424	1.13655	7.11807	6.20926	5.05923
67110	0.76783	0.79076	0.57554	4.59602	4.26629	3.88530	4.38278	3.18694	1.93862	3.00174	2.82923	2.58790	1.60161	1.33415	1.13505	7.09922	6.17512	5.04446	26.05	6.1	0.00	7.30	0.01274	0.01290	0.01666	0.00778	0.00579	0.00635	0.00468	0.01266	0.01687	0.00676	0.00692	0.00892	0.01491	0.01097	0.01198	0.00217	0.00616	0.00866
67280	0.75963	0.77132	0.54764	4.59053	4.27824	3.88988	4.38541	3.20670	1.92649	3.00366	2.80675	2.58259	1.60029	1.32911	1.10873	7.07410	6.10443	4.95366
67440	0.75767	0.75960	0.54219	4.57323	4.22904	3.89927	4.37409	3.17254	1.91718	2.97493	2.81522	2.56100	1.59771	1.33224	1.11064	7.10380	6.17454	5.01854
67600	0.74440	0.75657	0.52894	4.59238	4.25505	3.93320	4.38118	3.16147	1.92352	2.97700	2.84061	2.54102	1.59984	1.33451	1.11394	7.05093	6.39365	5.02208
67770	0.74123	0.76119	0.53998	4.59366	4.24040	3.88308	4.39383	3.18407	1.94820	2.98018	2.83701	2.51973	1.60232	1.31836	1.13569	7.08422	6.12391	4.97527
67930	0.75260	0.76090	0.53757	4.59842	4.23974	3.87797	4.39952	3.17355	1.92047	2.98004	2.83154	2.57432	1.60194	1.34233	1.11478	7.05988	6.15486	5.03962
68100	0.75944	0.76763	0.53238	4.58505	4.23527	3.88432	4.39927	3.17745	1.93191	2.95802	2.82011	2.53702	1.59205	1.31876	1.11042	7.09945	6.14304	4.95879
68260	0.75428	0.76858	0.53927	4.55032	4.23215	3.83716	4.39525	3.16948	1.93419	2.96621	2.82410	2.55982	1.59235	1.32424	1.11237	7.03175	6.14078	4.94614
68430	0.74596	0.75971	0.54190	4.56917	4.23552	3.87738	4.37277	3.16509	1.92197	3.00309	2.84395	2.52768	1.58989	1.34206	1.11542	7.06786	6.14080	5.00897
68590	0.76853	0.76787	0.53619	4.57651	4.20909	3.85959	4.36795	3.16291	1.91810	2.99173	2.82547	2.54963	1.58470	1.32994	1.10801	7.07273	6.13417	4.97699
68750	0.74385	0.76059	0.53561	4.55835	4.23994	3.85597	4.38062	3.15805	1.92577	2.99165	2.82223	2.52865	1.59194	1.31822	1.12658	7.03447	6.12780	4.93913	26.05	6.1	0.00	7.31	0.01274	0.01290	0.01666	0.00778	0.00579	0.00635	0.00468	0.01266	0.01687	0.00676	0.00692	0.00892	0.01491	0.01097	0.01198	0.00217	0.00616	0.00866
68920	0.74068	0.75032	0.52977	4.56398	4.20550	3.82311	4.37711	3.15049	1.91185	2.94397	2.78365	2.52152	1.59900	1.32057	1.11121	7.01245	6.07544	4.93932
69080	0.74365	0.75193	0.52641	4.51615	4.22414	3.87241	4.36781	3.16303	1.92107	2.98810	2.83334	2.55677	1.58721	1.31562	1.11044	7.07895	6.14670	4.99229
69240	0.74170	0.75794	0.52783	4.57982	4.26168	3.88602	4.36838	3.18396	1.91714	2.99253	2.84962	2.57527	1.57422	1.32101	1.10919	7.10302	6.18541	5.00587
69410	0.75191	0.77011	0.55156	4.58780	4.28076	3.89162	4.39263	3.18027	1.93198	3.01886	2.85904	2.57043	1.60833	1.32673	1.10947	7.09502	6.15530	4.97380
69570	0.75784	0.77498	0.55180	4.61716	4.27141	3.92046	4.39576	3.20268	1.93223	3.02337	2.84835	2.58560	1.60520	1.34479	1.13465	7.10928	6.20984	5.01700
69730	0.76002	0.77614	0.55346	4.63755	4.26015	3.90217	4.39875	3.18650	1.93710	3.01095	2.85444	2.54867	1.58797	1.33398	1.11781	7.09967	6.20447	5.02999
69900	0.74938	0.77305	0.54933	4.61998	4.33712	4.01838	4.40077	3.20954	1.96390	3.18280	3.05514	2.84364	1.70734	1.38569	1.22247	7.46869	6.55577	5.45715
70060	0.86056	0.97728	0.70675	5.14205	4.93616	4.74282	4.67081	3.50810	2.22161	3.91420	3.68098	3.46733	1.90962	1.65610	1.48067	7.93878	6.79962	5.64172
70230	1.03976	1.09018	0.81474	5.20650	4.94056	4.60483	4.68654	3.52906	2.21350	3.56709	3.35164	3.12976	1.85569	1.58638	1.33554	7.63653	6.71975	5.52220
70390	0.99521	1.01589	0.79986	5.36910	5.05070	4.89436	4.71311	3.42993	2.26449	3.95163	3.81022	3.72819	2.08282	1.80165	1.53230	8.17893	7.23852	5.97150	26.11	6.0	0.00	7.44	0.01274	0.01290	0.01666	0.00777	0.00579	0.00635	0.00468	0.01266	0.01687	0.00676	0.00692	0.00892	0.01491	0.01097	0.01198	0.00217	0.00616	0.00866
70550	1.13533	1.31101	1.09260	5.86569	5.31289	4.95686	4.90002	3.67777	2.45200	3.98849	3.90080	3.61598	2.10249	1.83495	1.55633	8.13266	6.98009	5.66347
70720	1.19365	1.16023	0.93953	5.12888	4.84482	4.56957	4.76743	3.43456	2.16437	3.52522	3.28249	2.98909	1.85484	1.52221	1.30539	7.54244	6.60934	5.38027
70880	0.94814	0.92911	0.67696	4.86277	4.51393	4.13769	4.52286	3.29802	2.01010	3.25630	3.00984	2.79362	1.71694	1.42000	1.20749	7.18352	6.22789	5.10275
71050	0.81966	0.87007	0.63546	4.70542	4.35149	3.96119	4.45556	3.22817	2.00238	3.11116	2.87618	2.60864	1.65260	1.38721	1.18057	7.09731	6.18843	5.08262
71210	0.78615	0.79895	0.58233	4.61893	4.28108	3.93503	4.43294	3.19905	1.94206	3.04337	2.91581	2.57260	1.60914	1.34261	1.12646	7.08177	6.19907	5.06834
71370	0.76454	0.77160	0.55511	4.57950	4.26325	3.89161	4.39372	3.18764	1.91740	3.01894	2.82744	2.54727	1.60327	1.32972	1.13848	7.04356	6.14025	4.98301
71540	0.75873	0.76790	0.55803	4.56106	4.18831	3.86504	4.38207	3.16562	1.91418	2.97314	2.82149	2.56015	1.58337	1.33572	1.10772	7.03977	6.13888	4.98470
71700	0.73940	0.75805	0.53434	4.57994	4.19657	3.83879	4.38722	3.15179	1.91862	2.95580	2.79521	2.53739	1.58986	1.31383	1.11063	7.05456	6.11667	4.95836
71870	0.74432	0.75627	0.52910	4.53960	4.20990	3.89883	4.37625	3.15101	1.92216	2.98457	2.81594	2.55524	1.59280	1.32717	1.12039	7.08071	6.14121	4.96286
72030	0.74439	0.76317	0.53545	4.53511	4.22112	3.85077	4.37836	3.16832	1.91419	3.00957	2.78890	2.55725	1.58221	1.31541	1.11275	7.07838	6.14462	5.01358	26.05	6.0	0.00	7.35	0.01274	0.01290	0.01665	0.00777	0.00579	0.00635	0.00468	0.01266	0.01687	0.00676	0.00692	0.00892	0.01491	0.01097	0.01198	0.00217	0.00616	0.00866
72190	0.74440	0.75698	0.53712	4.55814	4.23190	3.87318	4.39317	3.16929	1.93337	2.95855	2.81586	2.53219	1.59316	1.32942	1.11600	7.04420	6.13152	4.96494
72360	0.74693	0.76204	0.52753	5.41176	5.45647	5.53479	4.38148	3.16695	1.92624	3.10237	3.12343	2.51367	1.58557	1.32109	1.11053	7.06667	6.13108	4.97980
72520	0.74519	0.76393	0.53464	4.57301	4.22483	3.88133	4.37435	3.17288	1.91917	3.02740	2.83189	2.56214	1.58584	1.31360	1.10830	7.03707	6.09615	4.93623
72690	0.73580	0.75887	0.53900	4.54636	4.23343	3.86599	4.37985	3.17229	1.92127	2.97672	2.79312	2.56293	1.57846	1.31905	1.12067	7.11200	6.10839	4.95755
72850	0.74519	0.75913	0.52786	4.58476	4.22375	3.86041	4.41049	3.18317	1.92938	2.97681	2.81165	2.52782	1.58055	1.32319	1.10872	7.04898	6.08841	4.95814
73010	0.73521	0.75787	0.53144	4.53718	4.21162	3.85610	4.38343	3.16560	1.91488	3.03745	2.83324	2.52632	1.58693	1.31831	1.11418	7.12827	6.17022	4.94936
73180	0.74098	0.75430	0.52782	4.54274	4.21460	3.89405	4.37754	3.16256	1.91049	2.94832	2.81374	2.54556	1.59019	1.32364	1.11227	7.02624	6.14397	4.97513
73340	0.74308	0.75834	0.54081	4.53241	4.22112	3.88906	4.37772	3.15352	1.91432	2.97768	2.78836	2.53055	1.59058	1.31327	1.09644	7.04966	6.11809	4.94039
73500	0.73938	0.77623	0.53414	4.56682	4.25457	3.89180	4.40028	3.16794	1.91227	2.99973	2.81992	2.54020	1.58951	1.33343	1.11661	7.07435	6.12697	5.01626
73670	0.73955	0.75735	0.53739	4.56411	4.24214	3.89982	4.39446	3.16979	1.90644	2.98517	2.80529	2.53862	1.57445	1.31263	1.11502	7.00911	6.14411	4.96740	26.05	6.3	0.00	7.43	0.01274	0.01290	0.01665	0.00777	0.00579	0.00635	0.00468	0.01266	0.01687	0.00676	0.00692	0.00892	0.01491	0.01097	0.01198	0.00217	0.00616	0.00865
73830	0.73762	0.75355	0.52883	4.58285	4.24018	3.86391	4.38803	3.15528	1.91427	3.03562	2.82122	2.54864	1.59149	1.32217	1.11248	7.08463	6.17956	5.01565
74000	0.73951	0.76333	0.53702	4.56442	4.22699	3.89913	4.38011	3.17710	1.93572	2.97605	2.80370	2.51092	1.59640	1.33139	1.11170	7.03296	6.12365	4.96991
74160	0.74886	0.77049	0.54202	4.54958	4.21367	3.85509	4.39333	3.18806	1.92423	2.99477	2.81349	2.51932	1.59813	1.33065	1.12628	7.07633	6.14110	4.99556
74320	0.74893	0.75825	0.53190	4.56463	4.29258	3.98360	4.38320	3.17597	1.92879	3.00908	2.83339	2.55201	1.58691	1.32773	1.11460	7.17009	6.15998	5.04386
74490	0.76476	0.78969	0.55428	4.63163	4.28251	3.92623	4.40186	3.20951	1.93843	3.03038	2.86345	2.57690	1.63180	1.33061	1.13196	7.05208	6.13872	4.99768
74650	0.76919	0.77708	0.55015	4.54788	4.22876	3.87268	4.38370	3.16830	1.92838	2.98079	2.84863	2.53887	1.59425	1.32378	1.12073	7.05724	6.15456	4.99948
74810	0.75150	0.76144	0.53982	4.57206	4.25771	3.91342	4.38665	3.18529	1.93165	3.01569	2.87744	2.63406	1.60908	1.35008	1.14462	7.25784	6.30550	5.20283
74980	0.79312	0.84973	0.64911	5.03172	4.91423	4.43078	4.57154	3.40273	2.18636	3.80721	3.68019	3.53782	1.88793	1.66324	1.54382	8.01922	6.96788	5.95788
75140	1.21191	1.12364	1.00246	5.63314	5.36250	4.94702	4.93365	3.76178	2.43281	3.94405	3.98611	3.80844	2.19648	1.90722	1.63432	8.00159	7.30914	5.94751
75300	1.37990	1.19231	0.98577	5.60191	5.18927	4.87605	4.90132	3.70806	2.28609	3.96101	3.67837	3.49843	2.00652	1.77980	1.52493	7.95453	6.81770	5.70745	26.11	6.2	0.00	7.30	0.01274	0.01290	0.01665	0.00777	0.00579	0.00635	0.00468	0.01266	0.01687	0.00676	0.00692	0.00891	0.01491	0.01097	0.01198	0.00217	0.00616	0.00865
75470	1.13953	1.12418	0.86895	5.34261	4.91877	4.53481	4.72524	3.51106	2.17570	3.57225	3.38838	3.13442	1.81888	1.61359	1.47231	7.56582	6.58813	5.35265
75630	1.04156	1.00104	0.72805	4.97690	4.61336	4.21119	4.59608	3.35593	2.06511	3.23989	2.99390	2.77541	1.67225	1.44174	1.25812	7.25041	6.31039	5.27844
75790	0.85671	0.87599	0.63812	4.76811	4.35650	3.97867	4.48341	3.23615	2.01365	3.06360	2.94605	2.73057	1.67095	1.38490	1.16407	7.12828	6.18137	5.00369
75960	0.78239	0.81008	0.56094	4.62443	4.27818	3.91688	4.42696	3.20897	1.96407	3.01593	2.81843	2.57610	1.59180	1.34633	1.14334	7.04351	6.18287	4.99105
76120	0.76873	0.77868	0.58035	4.61611	4.23058	3.88062	4.40135	3.17649	1.94052	3.00402	2.84297	2.55274	1.60401	1.33866	1.11946	7.03616	6.13850	4.98196
76280	0.75364	0.76907	0.53582	4.55384	4.24598	3.85757	4.39857	3.16659	1.91284	2.99201	2.80254	2.56196	1.59662	1.32644	1.11610	7.07002	6.13203	4.95550
76450	0.74932	0.76063	0.53642	4.59434	4.25183	3.86961	4.39647	3.18456	1.92317	3.00835	2.81040	2.54795	1.58798	1.32383	1.11347	7.06812	6.12876	4.96473
76610	0.74155	0.75612	0.54035	4.57304	4.22952	3.86699	4.39612	3.18132	1.91775	2.96795	2.79127	2.52570	1.60033	1.31858	1.10328	7.04230	6.14726	4.97029
76770	0.74324	0.76156	0.53273	4.58849	4.23744	3.95728	4.41327	3.19443	1.93637	3.01890	2.83691	2.56056	1.60661	1.34783	1.13441	7.10109	6.20024	5.00068
76940	0.74763	0.76820	0.55077	4.60001	4.31588	3.93049	4.41168	3.19763	1.95996	3.03583	2.88072	2.59252	1.62768	1.34673	1.13967	7.14037	6.19696	5.05142	26.05	6.3	0.00	7.29	0.01274	0.01290	0.01665	0.00777	0.00579	0.00635	0.00468	0.01266	0.01687	0.00676	0.00692	0.00892	0.01491	0.01097	0.01198	0.00217	0.00616	0.00865
77100	0.76265	0.78673	0.55083	4.60083	4.26873	3.91244	4.42198	3.20487	1.92914	3.00682	2.79758	2.55285	1.60744	1.33404	1.11353	7.08485	6.09957	4.97721
77260	0.76244	0.76712	0.55802	4.59218	4.23563	3.87182	4.40189	3.17583	1.93223	2.99009	2.83199	2.54574	1.59687	1.32879	1.11137	7.08302	6.13669	4.95466
77420	0.74377	0.75573	0.53195	4.58081	4.20656	3.86716	4.40538	3.17218	1.92949	2.97278	2.78496	2.53048	1.59200	1.33334	1.11361	7.07175	6.10837	4.97882
77590	0.75026	0.75903	0.53930	4.54454	4.22511	3.84700	4.38430	3.17496	1.91955	2.96070	2.80654	2.55985	1.58613	1.32476	1.10331	7.00678	6.08364	4.96553
77750	0.74425	0.75394	0.54140	4.56039	4.24364	3.85721	4.38760	3.16846	1.90985	2.95355	2.78606	2.54605	1.59942	1.31870	1.11725	7.05625	6.14868	4.98005
77910	0.74452	0.75666	0.54274	4.56989	4.23663	3.89902	4.39866	3.18008	1.92808	2.97069	2.81019	2.55088	1.59162	1.33354	1.11058	7.04175	6.13436	4.98710
78080	0.73817	0.74985	0.52282	4.60802	4.22258	3.84725	4.39723	3.17823	1.92302	2.96098	2.80703	2.54001	1.60103	1.32108	1.11954	7.05488	6.12635	4.97474
78240	0.74487	0.76781	0.53711	4.60654	4.22656	3.89012	4.39478	3.16840	1.92246	3.05700	2.80231	2.52091	1.60170	1.32057	1.10767	7.05086	6.12594	4.95519
78410	0.74572	0.76320	0.53272	4.54129	4.22577	3.87739	4.40143	3.18335	1.93781	2.98962	2.80839	2.54835	1.59557	1.32571	1.11754	7.08934	6.14100	4.98092
78570	0.74622	0.75598	0.53515	4.63663	4.24556	3.87482	4.41085	3.22866	1.93185	2.97041	2.82714	2.55415	1.65418	1.43338	1.13640	7.12010	6.15236	4.99827	26.11	6.0	0.00	7.44	0.01274	0.01290	0.01665	0.00777	0.00579	0.00635	0.00468	0.01266	0.01687	0.00676	0.00692	0.00891	0.01491	0.01097	0.01198	0.00217	0.00615	0.00865
78730	0.77452	0.77541	0.57090	4.58970	4.27132	3.90235	4.42860	3.21522	1.93484	3.02736	2.84501	2.55699	1.63338	1.34438	1.14683	7.05233	6.14744	5.04882
78900	0.75549	0.78845	0.56827	4.62956	4.25573	3.90369	4.41758	3.20313	1.96988	3.02243	2.89836	2.59529	1.60423	1.34410	1.14746	7.13771	6.16343	5.04833
79060	0.78341	0.78550	0.55493	4.60442	4.27780	3.84857	4.42101	3.21460	1.95950	3.04391	2.84572	2.58266	1.61973	1.36029	1.13452	7.14285	6.15537	4.98906
79220	0.76653	0.77680	0.55254	4.61664	4.25354	3.89197	4.40402	3.19948	1.93914	3.05446	2.86331	2.64557	1.61370	1.34167	1.13726	7.08483	6.16521	5.03355
79390	0.76572	0.81164	0.62874	4.71795	4.42564	4.06597	4.46069	3.33726	2.08173	3.41977	3.26460	3.07822	1.75144	1.52853	1.33128	7.53931	6.88918	5.81707
79550	0.99123	1.16345	0.96155	5.38861	5.20238	4.65089	4.94322	3.64039	2.47033	4.11608	4.08424	3.80718	2.09194	1.85388	1.71545	8.35847	7.29441	6.07703
79710	1.17715	1.20511	1.04401	5.62215	5.12248	4.98311	4.97384	3.57318	2.43056	3.71800	3.61196	3.22257	2.00766	1.74601	1.54965	7.60895	6.69048	5.44321
79880	1.14636	1.08980	0.80324	5.05418	4.82229	4.27765	4.60046	3.43341	2.11091	3.32471	3.09233	2.78078	1.74426	1.49902	1.27431	7.26294	6.34290	5.12883
80040	0.88229	0.89110	0.64400	4.76415	4.34663	4.02261	4.49055	3.25462	1.98666	3.11629	3.00060	2.63147	1.64833	1.36520	1.17406	7.21294	6.25387	5.25536
80200	0.77902	0.78771	0.56576	4.63749	4.30359	4.00340	4.44927	3.22687	1.95373	3.06335	2.90698	2.62822	1.61196	1.33819	1.13909	7.12254	6.20263	5.06722	26.05	6.3	0.00	7.32	0.01274	0.01290	0.01665	0.00777	0.00579	0.00635	0.00468	0.01266	0.01687	0.00676	0.00692	0.00891	0.01491	0.01097	0.01198	0.00217	0.00615	0.00865
80370	0.76224	0.77060	0.55553	4.62364	4.29039	3.99111	4.42199	3.22001	1.95719	3.16856	2.87707	2.56652	1.61103	1.32842	1.12446	7.16687	6.18658	5.05263
80530	0.75294	0.77271	0.53432	4.58896	4.25258	3.91227	4.42246	3.19184	1.98682	2.98767	2.81930	2.55633	1.61192	1.33947	1.13091	7.05130	6.14679	4.98831
80690	0.74332	0.75788	0.54223	4.57031	4.21226	3.86465	4.40682	3.18392	1.93696	2.99915	2.84548	2.58138	1.60312	1.32821	1.12671	7.05434	6.12785	4.99669
80860	0.74874	0.76592	0.54361	4.56344	4.21638	3.85926	4.38683	3.20412	1.94628	2.95432	2.79593	2.55489	1.58995	1.31269	1.11613	7.04143	6.12557	4.96830
81020	0.74037	0.76344	0.53830	4.53564	4.19861	3.85555	4.40144	3.17388	1.92181	2.95899	2.78501	2.54431	1.59927	1.31911	1.11651	7.05214	6.12598	4.98514
81180	0.76048	0.76291	0.54560	4.60663	4.35617	3.97136	4.41404	3.25081	2.02746	3.16850	3.08621	2.85707	1.72436	1.42193	1.23789	7.64129	6.79308	5.57953
81350	0.99333	1.08835	0.89279	5.29478	4.92795	4.71394	4.76421	3.59047	2.47981	3.66797	3.64531	3.29174	2.01626	1.74732	1.56749	7.82113	6.78684	5.60321
81510	1.15028	1.09302	0.81753	5.24977	4.77318	4.49054	4.79018	3.59424	2.19458	3.51621	3.34681	3.15015	1.82029	1.61408	1.38465	7.55532	6.52609	5.40024
81670	1.01189	0.97972	0.71352	4.98047	4.67868	4.24139	4.59512	3.34576	2.05634	3.28277	3.12415	2.90274	1.69189	1.43051	1.21493	7.29383	6.30619	5.15988
81840	0.82622	0.87850	0.61516	4.74417	4.40223	3.98980	4.51184	3.26984	2.04429	3.14158	3.07487	2.75326	1.69226	1.40885	1.20690	7.19952	6.31021	5.11303	26.11	6.1	0.00	7.26	0.01273	0.01290	0.01665	0.00777	0.00579	0.00635	0.00468	0.01266	0.01687	0.00676	0.00692	0.00891	0.01491	0.01097	0.01198	0.00217	0.00616	0.00865
82000	0.81403	0.81262	0.58600	4.67744	4.35984	4.06684	4.46558	3.22317	1.97149	3.12616	2.91759	2.62045	1.63824	1.35671	1.13769	7.13142	6.27468	5.04053
82160	0.76644	0.78895	0.58225	4.63109	4.32574	3.91493	4.45126	3.19988	1.94662	3.02191	2.86137	2.60787	1.62318	1.34801	1.15404	7.08755	6.15524	4.98198
82330	0.76958	0.77626	0.54578	4.63160	4.23525	3.86276	4.42063	3.17153	1.93744	3.00675	2.82395	2.61413	1.60301	1.32506	1.11989	7.10969	6.16293	4.93625
82490	0.75934	0.77169	0.53845	4.55279	4.23188	3.90508	4.38995	3.17180	1.93061	2.97169	2.76830	2.51925	1.59336	1.33847	1.10927	7.03970	6.12324	4.93533
82650	0.74728	0.74878	0.53509	4.52853	4.22353	3.85951	4.39663	3.17304	1.93671	2.96784	2.79200	2.53036	1.59722	1.33376	1.11725	7.02552	6.10001	4.97747
82820	0.73458	0.76052	0.53052	4.54412	4.20496	3.84692	4.39795	3.20975	1.92304	2.97063	2.79582	2.54167	1.63507	1.32970	1.11393	7.03166	6.12492	5.02477
82980	0.74943	0.76271	0.53614	4.55260	4.23202	3.91781	4.39006	3.17425	1.92932	2.95442	2.79406	2.55206	1.59088	1.32767	1.12440	7.04699	6.11330	4.93781
83140	0.74419	0.75948	0.53230	4.57462	4.22022	3.86356	4.37599	3.16368	1.91797	2.97582	2.79186	2.53071	1.59485	1.32009	1.11529	7.03970	6.10155	4.93041
83310	0.75542	0.75976	0.53566	4.54432	4.19171	3.85319	4.37081	3.17587	1.91543	2.94112	2.79789	2.50722	1.59038	1.31325	1.11105	7.03507	6.12646	4.93673
83470	0.75104	0.75626	0.54236	4.55092	4.23307	3.87999	4.41246	3.17300	1.91628	2.95879	2.78655	2.50736	1.58609	1.32577	1.11445	7.03081	6.08610	4.95562	26.05	6.1	0.00	7.26	0.01273	0.01290	0.01665	0.00777	0.00579	0.00635	0.00468	0.01266	0.01687	0.00676	0.00692	0.00891	0.01491	0.01097	0.01198	0.00217	0.00616	0.00865
83640	0.73521	0.75712	0.53450	4.53866	4.18669	3.85698	4.37779	3.16096	1.90974	2.97935	2.80523	2.54235	1.58937	1.32030	1.11756	7.06431	6.16903	5.06566
83800	0.74232	0.76199	0.55259	4.55282	4.21616	3.88236	4.40563	3.18980	1.91423	3.00284	2.82631	2.78824	1.59683	1.32557	1.11891	7.30754	6.31996	5.27621
83970	0.74658	0.77145	0.53689	4.92479	4.37796	3.89624	4.39147	3.18168	1.95278	2.95136	2.79517	2.55201	1.60049	1.34208	1.12205	7.07466	6.12978	4.96584
84130	0.74599	0.76962	0.53927	4.55590	4.23530	3.85517	4.38870	3.17657	1.92443	2.95144	2.79473	2.51822	1.59281	1.32499	1.11227	7.03741	6.14053	4.93337
84290	0.74504	0.76270	0.55015	4.54464	4.21267	3.89529	4.38813	3.16260	1.92394	2.95265	2.77846	2.51125	1.59616	1.32818	1.11786	7.14844	6.37720	5.23759
84460	0.74093	0.76245	0.53326	4.54638	4.18701	3.82848	4.38220	3.16277	1.91626	2.97390	2.79453	2.52153	1.58207	1.31221	1.10184	7.03543	6.09779	4.93550
84620	0.74477	0.74233	0.53074	4.53327	4.20049	3.82499	4.38255	3.16389	1.92154	2.94275	2.81616	2.53491	1.58951	1.32138	1.10706	7.01149	6.07888	4.92301
84780	0.74385	0.75768	0.54603	4.54022	4.20432	3.85126	4.37417	3.15221	1.91262	2.96634	2.83874	2.53375	1.58251	1.31607	1.10626	7.01709	6.11551	4.92005
84950	0.74335	0.75834	0.53109	4.54084	4.21738	3.84614	4.38571	3.16971	1.92817	2.96052	2.81986	2.54466	1.60155	1.32700	1.10834	7.02573	6.08393	4.97478
85110	0.74104	0.76298	0.54562	4.60223	4.33935	3.94318	4.43114	3.20740	1.97400	3.22412	3.03625	2.83899	1.66756	1.41208	1.21896	7.41780	6.65826	5.59598	26.05	6.0	0.00	7.36	0.01273	0.01290	0.01665	0.00777	0.00579	0.00635	0.00468	0.01266	0.01687	0.00676	0.00692	0.00891	0.01491	0.01097	0.01198	0.00217	0.00616	0.00865
85270	0.93844	0.95195	0.77926	5.16319	4.98284	4.63361	4.71143	3.45297	2.20488	3.74499	3.48783	3.31357	1.87291	1.58320	1.44807	7.90387	6.84059	5.63984
85430	1.07231	1.06008	0.90137	5.15966	4.78609	4.46513	4.66778	3.40532	2.17019	3.51757	3.30325	3.07493	1.86786	1.55570	1.35221	7.50696	6.58915	5.43706
85600	1.02230	1.03144	0.80567	5.13244	4.93912	4.61333	4.67864	3.44807	2.16403	3.81251	3.89166	3.39604	1.96969	1.67657	1.40366	8.10937	7.18467	5.79949
85760	1.06281	1.09851	0.91357	5.30260	5.09939	4.83087	4.75560	3.58248	2.33124	3.75882	3.72934	3.14394	1.91006	1.67130	1.44096	7.62238	6.52002	5.39812
85930	1.02462	1.00667	0.76449	4.89773	4.50124	4.12885	4.59951	3.35035	2.07992	3.24760	3.07513	2.89796	1.72015	1.44191	1.22671	7.32577	6.29900	5.09425
86090	0.88199	0.85209	0.59507	4.89605	4.34833	4.01547	4.45501	3.24702	1.96120	3.06296	2.85849	2.58216	1.64807	1.36448	1.15479	7.11846	6.17101	4.99725
86250	0.76714	0.78914	0.56762	4.61185	4.26039	3.91366	4.39805	3.16514	1.92002	2.96995	2.81830	2.54354	1.62522	1.34238	1.11947	7.01504	6.11564	4.94694
86420	0.75797	0.75907	0.54211	4.58401	4.22303	3.87186	4.37641	3.16790	1.90572	2.97724	2.81161	2.51185	1.58739	1.31663	1.10476	6.98616	6.10115	4.94755
86580	0.74663	0.74608	0.53568	4.53686	4.17854	3.84057	4.36074	3.16361	1.91317	2.95972	2.80599	2.54387	1.59430	1.30826	1.10281	7.00376	6.12909	4.94436
86740	0.73505	0.75046	0.54455	4.53343	4.20180	3.86286	4.34776	3.13348	1.89749	2.95169	2.76157	2.53116	1.59167	1.32052	1.12620	7.00206	6.12007	4.90859	26.05	6.0	0.00	7.31	0.01273	0.01290	0.01665	0.00777	0.00579	0.00635	0.00468	0.01266	0.01687	0.00676	0.00692	0.00891	0.01491	0.01097	0.01198	0.00217	0.00616	0.00865
86910	0.73644	0.75051	0.52555	4.51567	4.23236	3.93352	4.33994	3.13326	1.90745	2.93974	2.76978	2.49099	1.57058	1.29943	1.10916	6.96087	6.06177	4.92945
87070	0.72931	0.74383	0.53133	4.50567	4.15688	3.83044	4.34567	3.13349	1.89786	2.90139	2.76259	2.47190	1.55430	1.30356	1.08752	6.95297	6.05563	4.85442
87230	0.72947	0.74390	0.52963	4.53332	4.14623	3.84285	4.33535	3.13471	1.88841	2.94168	2.76436	2.49736	1.56098	1.29629	1.09059	6.91857	6.05845	4.91386
87400	0.72751	0.73939	0.52417	4.48706	4.20274	3.84452	4.32199	3.11048	1.87901	2.92490	2.79315	2.50135	1.56106	1.29440	1.08466	6.94432	6.05377	4.87210
87560	0.73628	0.74477	0.52259	4.49192	4.18842	3.79670	4.33047	3.11624	1.88466	2.91144	2.78552	2.50664	1.55981	1.29246	1.08359	7.02523	6.05578	4.90656
87720	0.72370	0.73560	0.51986	4.51420	4.16683	3.81856	4.32111	3.10943	1.87514	2.93879	2.79660	2.55365	1.56146	1.32313	1.12201	7.12040	6.10270	5.02557
87890	0.74501	0.82855	0.59031	4.68468	4.37129	4.08466	4.39220	3.18481	1.97042	3.20664	3.16312	2.94676	1.74123	1.44411	1.28099	7.37235	6.58987	5.48317
88050	0.93271	0.96448	0.76026	5.20464	4.87379	4.66671	4.63301	3.41841	2.18740	3.91703	3.69149	3.38902	1.92186	1.63138	1.48657	7.81157	6.82462	5.61342
88210	1.14002	1.16255	1.02387	5.38684	5.02195	4.65754	4.80327	3.61101	2.30653	3.73805	3.49395	3.13048	1.90745	1.64409	1.46836	7.48050	6.60488	5.36351
88380	1.01165	1.12057	0.88416	5.01609	4.79551	4.29237	4.57903	3.41351	2.16027	3.36157	3.25207	2.90975	1.79242	1.49252	1.31826	7.28695	6.36335	5.21491	26.11	6.1	0.00	7.44	0.01273	0.01290	0.01665	0.00777	0.00579	0.00635	0.00468	0.01266	0.01687	0.00676	0.00692	0.00891	0.01491	0.01097	0.01198	0.00217	0.00616	0.00865
88540	0.87306	0.95068	0.68856	4.68703	4.37704	4.06453	4.50880	3.23376	1.98073	3.33976	3.00080	2.74870	1.69602	1.39644	1.21648	7.25217	6.19133	5.12399
88700	0.82929	0.82841	0.62916	4.58740	4.22958	3.89107	4.39143	3.18958	1.93127	3.03979	2.82932	2.59798	1.61708	1.34458	1.12768	6.99276	6.11215	4.92767
88870	0.75868	0.79062	0.55009	4.53526	4.18895	3.86191	4.36544	3.13041	1.92024	2.96780	2.81557	2.58216	1.58044	1.31721	1.09646	6.96968	6.07088	4.89649
89030	0.72697	0.74016	0.54517	4.46587	4.16104	3.77234	4.30937	3.12481	1.90032	2.91656	2.74722	2.49924	1.57016	1.30299	1.11002	6.92217	6.00799	4.87921
89200	0.71968	0.73413	0.52208	4.49742	4.17191	3.79812	4.33030	3.12596	1.87563	2.90831	2.73118	2.47804	1.55962	1.29880	1.08384	6.92202	5.98906	4.86826
89360	0.72831	0.73896	0.52567	4.44463	4.17708	3.79217	4.32229	3.10706	1.89639	2.90463	2.72719	2.46664	1.54746	1.29004	1.07837	6.95620	6.05419	4.90138
89520	0.73221	0.73892	0.51863	4.46386	4.12847	3.77794	4.31530	3.10554	1.88041	2.90852	2.74393	2.48615	1.54483	1.29019	1.08026	6.91790	6.00075	4.85261
89690	0.72731	0.73903	0.52776	4.44152	4.17692	3.93492	4.30465	3.12759	1.88665	2.92116	2.77034	2.50720	1.56021	1.29444	1.09034	6.95755	6.05350	4.89793
89850	0.72078	0.73417	0.53189	4.71321	4.18072	3.83029	4.32098	3.11801	1.89004	2.89676	2.73757	2.47765	1.56251	1.29456	1.09039	6.94590	6.02280	4.89166
90010	0.71822	0.74004	0.53126	4.48153	4.15950	3.79544	4.32837	3.11270	1.87756	2.93979	2.79031	2.49108	1.55060	1.28787	1.09064	6.94891	6.03818	4.83724	26.11	6.2	0.00	7.27	0.01273	0.01290	0.01665	0.00777	0.00579	0.00635	0.00468	0.01266	0.01687	0.00676	0.00692	0.00891	0.01491	0.01097	0.01198	0.00217	0.00616	0.00865
90180	0.72547	0.73700	0.52813	4.50105	4.15711	3.82096	4.31856	3.13310	1.89656	2.93800	2.76531	2.47599	1.58304	1.30066	1.09382	6.96637	6.06048	4.88377
90340	0.73399	0.74015	0.51471	4.46808	4.14943	3.78863	4.43596	3.11941	1.88806	3.04448	2.86760	2.58329	1.55807	1.30025	1.09411	6.96848	6.03832	4.88711
90510	0.73925	0.74012	0.52191	4.47041	4.16372	3.80800	4.33947	3.12548	1.89153	2.93789	2.74498	2.48047	1.57111	1.30370	1.10898	6.95816	6.05952	4.89242
90670	0.72862	0.74984	0.52342	4.51419	4.18916	3.81704	4.35376	3.14282	1.88474	2.94454	2.77700	2.53902	1.57010	1.30691	1.08307	6.98009	6.12827	5.05180
90830	0.74183	0.75142	0.56098	4.65222	4.42063	4.00824	4.39588	3.24751	2.02563	3.33591	3.15898	2.93426	1.75307	1.53786	1.33506	7.61884	6.61793	5.71454
91000	0.99774	1.05741	0.87830	5.29024	4.91122	4.63637	4.74342	3.57557	2.33205	4.11540	3.81495	3.48261	1.96657	1.80968	1.54264	8.05486	7.12998	5.89043
91160	1.20446	1.27078	0.94403	5.44969	4.90165	4.58394	4.85812	3.60894	2.34090	3.78679	3.53141	3.15186	1.98042	1.59696	1.41949	7.42391	6.66459	5.47758
91330	1.02617	1.02304	0.81333	4.85885	4.65344	4.29047	4.66841	3.38323	2.11364	3.38717	3.10570	2.91668	1.76508	1.58071	1.32032	7.30554	6.62866	5.25372
91490	0.92283	0.94040	0.70108	4.72215	4.39320	4.15377	4.48621	3.29028	2.05016	3.15402	2.96431	2.67668	1.66217	1.38351	1.18721	7.13111	6.26387	5.07090
91660	0.80199	0.80063	0.56955	4.64489	4.28578	3.92122	4.39471	3.19388	1.94428	3.02800	2.92768	2.63489	1.60819	1.35743	1.14183	7.02821	6.11284	4.95551	26.11	6.0	0.00	7.28	0.01273	0.01290	0.01665	0.00777	0.00579	0.00635	0.00468	0.01266	0.01687	0.00676	0.00692	0.00891	0.01491	0.01097	0.01198	0.00217	0.00616	0.00865
91820	0.76268	0.76745	0.54342	4.54967	4.21127	3.89590	4.37135	3.14343	1.92200	2.94818	2.77743	2.49819	1.60047	1.32574	1.12181	7.03906	6.08447	4.93339
91980	0.75278	0.75610	0.52971	4.51607	4.23464	3.81560	4.37114	3.15048	1.92296	2.92538	2.76990	2.48343	1.59009	1.33005	1.12323	7.05166	6.07854	4.95681
92150	0.74082	0.74852	0.54034	4.51871	4.20479	3.86409	4.35536	3.15181	1.91271	2.95133	2.77737	2.51793	1.57959	1.32022	1.10843	7.02828	6.06539	4.93926
92310	0.73939	0.75272	0.53108	4.54344	4.21108	3.84490	4.36986	3.14770	1.90907	2.94729	2.80106	2.52936	1.57126	1.30840	1.10855	6.95351	6.10318	4.91209
92470	0.74252	0.73933	0.53064	4.52510	4.21752	3.83109	4.38491	3.17729	1.91544	2.95152	2.79602	2.50739	1.57699	1.31539	1.10268	7.00965	6.06673	4.93736
92630	0.73267	0.75083	0.53338	4.51532	4.19860	3.87537	4.35795	3.15341	1.91154	2.94342	2.81746	2.53785	1.58563	1.30988	1.10910	6.98509	6.05060	4.88604
92800	0.73561	0.75944	0.52428	4.47874	4.18931	3.84054	4.36224	3.14997	1.89764	2.95645	2.77489	2.50430	1.57781	1.29732	1.09993	6.98207	6.07156	4.92902
92960	0.73804	0.74630	0.56075	4.50936	4.19315	3.81025	4.36862	3.13975	1.91749	2.96986	2.79250	2.50488	1.56421	1.30401	1.10082	6.97226	6.03889	4.91637
93130	0.73422	0.73605	0.52473	4.48150	4.16040	3.83710	4.36348	3.13611	1.89354	2.95505	2.79784	2.50470	1.57478	1.30978	1.09408	6.97023	6.06910	4.90079
93290	0.74479	0.74819	0.54987	4.52835	4.19447	3.84800	4.36737	3.15852	1.89833	2.93804	2.77276	2.50145	1.56939	1.31059	1.10711	7.00210	6.09152	4.93187	26.17	6.0	0.00	7.38	0.01273	0.01290	0.01665	0.00777	0.00579	0.00635	0.00468	0.01266	0.01686	0.00676	0.00692	0.00891	0.01491	0.01097	0.01198	0.00217	0.00616	0.00865
93450	0.74747	0.75845	0.53364	4.54797	4.24454	3.85586	4.36429	3.16564	1.91415	2.97357	2.78986	2.53089	1.57069	1.31657	1.09978	6.99809	6.08826	4.94288
93620	0.74883	0.75758	0.55050	4.53124	4.19156	3.82093	4.37940	3.16240	1.90773	2.96723	2.79815	2.52644	1.58271	1.32048	1.12140	6.97039	6.10981	4.91131
93780	0.75750	0.76991	0.53739	4.56832	4.22422	3.84610	4.40040	3.14652	1.92785	2.99114	2.80436	2.52830	1.59114	1.32623	1.11826	6.99983	6.11048	4.92882
93940	0.75245	0.76037	0.53921	4.53527	4.19341	3.84572	4.36638	3.15882	1.93214	2.98154	2.87524	2.60838	1.60341	1.32551	1.13424	7.02610	6.18401	5.09426
94110	0.77794	0.79607	0.59904	4.96087	4.57518	4.26973	4.47918	3.29869	2.07014	3.56048	3.49692	3.45201	1.83136	1.57420	1.38874	7.81944	7.05691	5.94938
94270	1.13866	1.10982	0.92763	5.57428	5.28573	4.98507	4.77555	3.49961	2.29169	4.16329	3.88781	3.65641	2.00323	1.73539	1.50758	8.12838	7.06873	5.96002
94430	1.11080	1.15366	0.95354	5.39038	4.94654	4.67107	4.73258	3.51948	2.25972	3.53216	3.52139	3.17412	1.88463	1.64145	1.44350	7.47812	6.60885	5.50992
94600	1.03866	1.00518	0.81826	5.05696	4.63332	4.26949	4.65835	3.39963	2.12114	3.37246	3.16959	2.79749	1.78036	1.50830	1.27615	7.33207	6.41018	5.14031
94760	0.94269	0.91206	0.66986	4.74844	4.42333	4.02918	4.47893	3.27378	1.98712	3.16101	3.00709	2.68458	1.69229	1.39326	1.18050	7.15159	6.23208	5.09197
94920	0.80742	0.81005	0.58334	4.62213	4.28873	3.89969	4.42058	3.19386	1.93930	3.03493	2.86398	2.57673	1.61618	1.36329	1.11835	7.07179	6.18654	5.02223	26.11	6.3	0.00	7.33	0.01273	0.01290	0.01665	0.00777	0.00579	0.00635	0.00468	0.01266	0.01686	0.00676	0.00692	0.00891	0.01491	0.01097	0.01198	0.00217	0.00615	0.00865
95080	0.75122	0.76568	0.54983	4.57037	4.27767	3.92430	4.40143	3.20422	1.95746	2.96823	2.81438	2.54529	1.60044	1.32801	1.11994	7.04517	6.13452	4.98073
95250	0.80610	0.78852	0.54236	4.56727	4.21429	3.85527	4.38390	3.16820	1.92903	3.01994	2.82634	2.55806	1.60126	1.33982	1.11849	7.04836	6.10707	4.95996
95410	0.75169	0.76024	0.53725	4.53988	4.22123	3.84922	4.38447	3.17109	1.91871	2.98353	2.81487	2.51833	1.59155	1.32539	1.11703	7.04965	6.10239	4.94041
95570	0.74438	0.76751	0.53171	4.52497	4.20150	3.84219	4.37155	3.17347	1.92121	2.96480	2.79817	2.51716	1.58438	1.32187	1.10806	7.06714	6.11945	4.95882
95740	0.73837	0.75312	0.52801	4.54431	4.21927	3.84418	4.37457	3.16683	1.91018	2.96653	2.77579	2.52881	1.58319	1.31651	1.11753	7.04190	6.10793	4.96373
95900	0.73690	0.74341	0.52796	4.52767	4.21998	3.85309	4.39634	3.16646	1.92899	2.95774	2.79391	2.51170	1.57566	1.30857	1.10726	7.07468	6.11335	4.91915
96060	0.73913	0.75857	0.53658	4.52998	4.21774	3.84045	4.36765	3.15632	1.90946	2.92128	2.76417	2.48406	1.59490	1.31310	1.10292	7.04555	6.11883	4.94213
96230	0.73237	0.77332	0.53446	4.53493	4.22447	3.85280	4.40128	3.15949	1.90858	3.00407	2.83418	2.51182	1.58082	1.32202	1.11361	7.02438	6.11477	4.92959
96390	0.73141	0.75004	0.53466	4.50461	4.19053	3.85348	4.40968	3.17558	1.94018	2.98178	2.81342	2.53635	1.59565	1.33252	1.12671	7.06128	6.17902	4.94193
96560	0.74663	0.76273	0.53961	4.54895	4.20773	3.89261	4.39658	3.18089	1.93050	2.95089	2.79231	2.53807	1.59728	1.32887	1.11331	7.05242	6.14071	4.99577	26.11	6.0	0.00	7.35	0.01273	0.01290	0.01665	0.00777	0.00579	0.00635	0.00468	0.01266	0.01686	0.00676	0.00692	0.00891	0.01491	0.01096	0.01198	0.00217	0.00616	0.00865
96720	0.73820	0.75996	0.53902	4.59854	4.22749	3.89300	4.40227	3.16842	1.92571	2.95575	2.82332	2.56032	1.60575	1.33302	1.10965	7.05781	6.13193	4.97674
96880	0.73970	0.74922	0.53072	4.56482	4.23014	3.91685	4.39327	3.17760	1.93463	2.96609	2.79846	2.53621	1.59321	1.32391	1.13019	7.05272	6.15181	5.02205
97050	0.74955	0.76596	0.55383	4.62607	4.33319	4.00455	4.44574	3.23186	1.98348	3.24153	3.07422	2.78563	1.68294	1.43537	1.21551	7.34220	6.58600	5.36341
97210	0.89979	0.94315	0.68137	5.20037	4.77705	4.47984	4.63190	3.47017	2.24420	3.65573	3.45303	3.31130	1.92558	1.60668	1.46284	7.68958	6.76091	5.55238
97370	1.04044	1.00871	0.77686	5.20426	4.87354	4.53686	4.73772	3.52476	2.23535	3.48444	3.34157	3.20182	1.87610	1.56096	1.36551	7.56340	6.74719	5.66349
97540	1.06079	0.98205	0.80920	5.03157	4.86027	4.39156	4.68030	3.33462	2.15970	3.42751	3.15027	2.94508	1.77179	1.53259	1.28467	7.44353	6.57041	5.20835
97700	0.93134	0.94765	0.68682	4.84576	4.46877	4.15421	4.51272	3.29019	2.03629	3.11765	3.02892	2.72762	1.69011	1.38628	1.17830	7.17635	6.26082	5.15701
97870	0.78664	0.80077	0.58083	4.72369	4.29087	4.00045	4.44953	3.21402	1.97991	3.07867	2.91538	2.59411	1.65530	1.35410	1.14538	7.10865	6.17383	4.97754
98030	0.77929	0.78552	0.56391	4.61597	4.28850	3.92627	4.41598	3.19059	1.93899	3.04782	2.85675	2.63657	1.59960	1.33828	1.12218	7.10017	6.20411	5.00545
98200	0.76616	0.80266	0.57265	4.60771	4.30960	3.92211	4.43643	3.20523	1.95508	3.00301	2.87420	2.59580	1.61440	1.34034	1.13478	7.09418	6.18161	4.98863	26.11	6.3	0.00	7.27	0.01273	0.01290	0.01665	0.00777	0.00579	0.00635	0.00468	0.01266	0.01686	0.00676	0.00692	0.00891	0.01490	0.01096	0.01198	0.00217	0.00616	0.00865
98360	0.76849	0.77455	0.56040	4.59064	4.23620	3.88713	4.42067	3.18394	1.94038	2.98397	2.81856	2.54578	1.59845	1.32983	1.13012	7.03813	6.13712	4.97428
98520	0.74690	0.76410	0.54891	4.59375	4.24290	3.87554	4.41129	3.18413	1.94494	2.99430	2.80055	2.53240	1.59671	1.33300	1.13413	7.08496	6.17422	5.01339
98690	0.74859	0.77095	0.54371	4.54860	4.26240	3.87086	4.41361	3.17980	1.94531	3.00890	2.85610	2.57339	1.60731	1.33589	1.13075	7.08237	6.16686	4.98148
98850	0.76600	0.76924	0.54426	4.55510	4.23377	3.87791	4.42555	3.20552	1.92572	3.00035	2.81908	2.56167	1.61776	1.34733	1.12401	7.05779	6.14343	4.99671
99010	0.75154	0.76631	0.54277	4.56242	4.27956	3.89185	4.41835	3.20767	1.94085	3.04820	2.85036	2.60148	1.60507	1.33515	1.12234	7.06988	6.11353	4.95784
99180	0.75309	0.77498	0.54804	4.63225	4.26092	3.92737	4.40795	3.18985	1.96594	2.99621	2.85125	2.59475	1.61707	1.34735	1.14345	7.08419	6.16121	5.06124
99340	0.76673	0.79223	0.57856	4.57287	4.25030	3.91607	4.43511	3.18788	1.96014	3.01510	2.85662	2.56712	1.62087	1.33147	1.13765	7.10448	6.12565	4.95939
99500	0.75202	0.77746	0.55141	4.58114	4.25613	3.90509	4.37958	3.16267	1.92571	2.95627	2.81479	2.53254	1.61385	1.33657	1.12279	7.05445	6.12957	4.93696
99670	0.74870	0.76566	0.53907	4.57481	4.23260	3.85126	4.40773	3.21029	1.93361	2.95986	2.77536	2.51083	1.58273	1.32406	1.12790	7.02911	6.10141	4.95018
99830	0.74830	0.75704	0.53827	4.61961	4.32979	3.92546	4.37955	3.18249	1.92701	2.96492	2.80674	2.54550	1.60139	1.32672	1.12678	7.07601	6.12904	4.98329	26.11	6.1	0.00	7.29	0.01273	0.01290	0.01665	0.00777	0.00579	0.00635	0.00468	0.01266	0.01686	0.00676	0.00692	0.00891	0.01490	0.01097	0.01198	0.00217	0.00615	0.00865
100000	0.75398	0.75897	0.53979	4.59600	4.23112	3.88226	4.39629	3.17179	1.92165	3.02385	2.81960	2.54861	1.58128	1.32431	1.10710	7.04236	6.14547	4.98199
100160	0.73301	0.75174	0.53038	4.53562	4.23353	3.86681	4.37536	3.15797	1.91824	3.00006	2.79709	2.52421	1.58745	1.32008	1.11629	7.07449	6.16386	4.97937
100330	0.74120	0.75006	0.52917	4.55504	4.22012	3.88878	4.36433	3.16058	1.92257	2.98639	2.81842	2.57034	1.59586	1.33641	1.13254	7.10413	6.15995	5.04934
100490	0.75959	0.76820	0.53399	4.57802	4.26522	3.97794	4.38992	3.19232	1.92925	3.09694	2.89500	2.56290	1.61528	1.35594	1.14028	7.12299	6.15691	4.98434
100650	0.76864	0.79615	0.56655	4.59612	4.28411	3.91482	4.43080	3.20119	1.95890	3.07475	2.85750	2.62664	1.61953	1.36224	1.12791	7.09269	6.18241	5.00799
100820	0.75876	0.79501	0.56574	4.58313	4.32018	3.91942	4.42406	3.21708	1.94174	2.97681	2.82406	2.54276	1.61547	1.34323	1.12229	7.07609	6.12238	4.98544
