WetView ver 7.1	07-19-2018	10:27:04
AC9 Absorption and Attenuation Meter
00000266		; Serial number
2	; structure version number
Reserved
0.000000	0.000000		; Depth calibration
19200			; Baud rate
0.100000			; Path length (meters)
31			; number of temperature calibration bins
				12.59339	13.44920	14.48425	15.49668	16.50852	17.49564	18.50545	19.52458	20.50176	21.48889	22.47318	23.48707	24.50962	25.49370	26.49784	27.51372	28.50746	29.47237	30.47938	31.50214	32.50470	33.49235	34.50337	35.50914	36.50618	37.52058	38.51018	39.51308	40.49994	41.49866	42.47204	; temperature bins
a650	Blue	20.34952		-0.00383	-0.00415	-0.00430	-0.00391	-0.00363	-0.00317	-0.00269	-0.00237	-0.00179	-0.00130	-0.00099	-0.00071	-0.00015	0.00000	0.00004	-0.00001	0.00015	0.00036	0.00058	0.00101	0.00161	0.00132	0.00160	0.00169	0.00242	0.00273	0.00336	0.00365	0.00427	0.00566	0.00670		; offset and temperature correction info
a676	Green	20.51193		-0.00398	-0.00384	-0.00360	-0.00306	-0.00302	-0.00255	-0.00235	-0.00212	-0.00163	-0.00136	-0.00118	-0.00089	-0.00029	0.00000	0.00068	0.00082	0.00099	0.00137	0.00145	0.00212	0.00260	0.00252	0.00321	0.00354	0.00457	0.00535	0.00617	0.00648	0.00742	0.00887	0.01002		; offset and temperature correction info
a715	Brown	20.23230		-0.00421	-0.00394	-0.00391	-0.00291	-0.00264	-0.00192	-0.00204	-0.00179	-0.00188	-0.00239	-0.00180	-0.00187	-0.00099	0.00000	0.00084	0.00162	0.00188	0.00224	0.00321	0.00381	0.00466	0.00528	0.00588	0.00696	0.00859	0.01041	0.01148	0.01282	0.01333	0.01456	0.01617		; offset and temperature correction info
c510	Red	20.40042		-0.00261	-0.00247	-0.00258	-0.00225	-0.00203	-0.00197	-0.00199	-0.00203	-0.00154	-0.00103	-0.00069	-0.00019	-0.00007	0.00000	0.00011	-0.00021	-0.00042	-0.00056	-0.00040	0.00011	0.00036	0.00050	0.00077	0.00079	0.00050	0.00042	0.00043	0.00092	0.00147	0.00200	0.00232		; offset and temperature correction info
c532	Magenta	20.40760		-0.00248	-0.00265	-0.00278	-0.00279	-0.00296	-0.00292	-0.00238	-0.00206	-0.00129	-0.00096	-0.00092	-0.00052	-0.00009	0.00000	0.00007	-0.00049	-0.00136	-0.00107	-0.00079	-0.00065	-0.00074	-0.00105	-0.00152	-0.00192	-0.00236	-0.00269	-0.00252	-0.00233	-0.00172	-0.00128	-0.00067		; offset and temperature correction info
c555	Black	20.50654		-0.00053	-0.00063	-0.00106	-0.00094	-0.00068	-0.00055	-0.00053	-0.00039	-0.00028	-0.00025	-0.00011	-0.00035	-0.00007	0.00000	-0.00037	-0.00055	-0.00036	-0.00014	0.00019	0.00044	0.00032	0.00040	0.00050	0.00028	0.00014	0.00013	0.00030	0.00073	0.00117	0.00176	0.00241		; offset and temperature correction info
a412	LtBlue	17.15231		-0.01972	-0.01823	-0.01612	-0.01381	-0.01272	-0.01080	-0.00959	-0.00866	-0.00710	-0.00532	-0.00354	-0.00148	-0.00028	0.00000	0.00176	0.00297	0.00394	0.00440	0.00453	0.00487	0.00804	0.00856	0.01065	0.01248	0.01388	0.01439	0.01659	0.01881	0.02256	0.02450	0.02719		; offset and temperature correction info
a440	LtGreen	18.00171		-0.00729	-0.00642	-0.00581	-0.00502	-0.00426	-0.00349	-0.00244	-0.00218	-0.00179	-0.00101	-0.00046	-0.00006	0.00036	0.00000	0.00040	0.00045	0.00030	-0.00015	-0.00024	-0.00035	0.00012	-0.00013	-0.00033	-0.00089	-0.00142	-0.00189	-0.00231	-0.00205	-0.00140	-0.00140	-0.00146		; offset and temperature correction info
a488	Yellow	18.86491		-0.00113	-0.00102	-0.00106	-0.00064	-0.00027	-0.00020	-0.00030	-0.00037	-0.00047	-0.00059	-0.00052	-0.00012	0.00008	0.00000	0.00025	0.00012	-0.00013	-0.00043	-0.00065	-0.00076	-0.00025	0.00010	0.00090	0.00111	0.00113	0.00104	0.00073	0.00068	0.00120	0.00186	0.00258		; offset and temperature correction info
c650	Blue	20.46075		-0.00145	-0.00097	-0.00092	-0.00139	-0.00185	-0.00196	-0.00237	-0.00266	-0.00238	-0.00163	-0.00083	-0.00041	-0.00010	0.00000	0.00005	-0.00001	0.00015	0.00034	0.00029	0.00065	0.00101	0.00164	0.00126	0.00156	0.00175	0.00270	0.00287	0.00371	0.00407	0.00473	0.00534		; offset and temperature correction info
c676	Green	20.10118		-0.00170	-0.00144	-0.00149	-0.00177	-0.00188	-0.00194	-0.00198	-0.00196	-0.00177	-0.00156	-0.00140	-0.00091	-0.00033	0.00000	0.00050	0.00092	0.00110	0.00141	0.00167	0.00199	0.00216	0.00265	0.00269	0.00289	0.00315	0.00374	0.00367	0.00408	0.00486	0.00561	0.00646		; offset and temperature correction info
c715	Brown	19.91219		-0.01201	-0.01097	-0.00859	-0.00680	-0.00651	-0.00592	-0.00535	-0.00440	-0.00387	-0.00303	-0.00222	-0.00153	-0.00028	0.00000	0.00093	0.00149	0.00247	0.00322	0.00330	0.00427	0.00373	0.00464	0.00536	0.00551	0.00643	0.00733	0.00779	0.00884	0.00899	0.01021	0.01120		; offset and temperature correction info
a510	Red	19.21192		0.00201	0.00193	0.00158	0.00098	0.00089	0.00049	0.00011	-0.00016	-0.00016	-0.00005	0.00028	0.00025	0.00006	0.00000	0.00035	-0.00022	-0.00023	-0.00080	-0.00144	-0.00154	-0.00153	-0.00204	-0.00220	-0.00219	-0.00190	-0.00128	-0.00069	-0.00018	0.00068	0.00152	0.00241		; offset and temperature correction info
a532	Magenta	19.41084		-0.00097	-0.00072	-0.00060	-0.00081	-0.00062	-0.00071	-0.00040	0.00020	0.00028	0.00043	0.00000	-0.00035	0.00007	0.00000	-0.00011	-0.00059	-0.00080	-0.00098	-0.00137	-0.00162	-0.00163	-0.00130	-0.00073	-0.00018	0.00090	0.00185	0.00175	0.00247	0.00291	0.00327	0.00349		; offset and temperature correction info
a555	Black	19.69776		0.00171	0.00183	0.00183	0.00186	0.00191	0.00170	0.00115	0.00131	0.00097	0.00073	0.00060	0.00013	0.00015	0.00000	0.00014	-0.00029	-0.00066	-0.00082	-0.00116	-0.00139	-0.00134	-0.00167	-0.00119	-0.00093	-0.00048	0.00053	0.00111	0.00095	0.00178	0.00206	0.00273		; offset and temperature correction info
c412	LtBlue	19.91180		-0.02051	-0.01853	-0.01589	-0.01311	-0.01059	-0.00877	-0.00705	-0.00581	-0.00413	-0.00231	-0.00098	-0.00066	-0.00011	0.00000	-0.00013	-0.00085	-0.00170	-0.00170	-0.00302	-0.00330	-0.00429	-0.00551	-0.00626	-0.00775	-0.00978	-0.01181	-0.01113	-0.01108	-0.01116	-0.01192	-0.01291		; offset and temperature correction info
c440	LtGreen	20.06241		-0.01064	-0.00992	-0.00892	-0.00766	-0.00639	-0.00531	-0.00478	-0.00384	-0.00287	-0.00187	-0.00102	-0.00063	-0.00023	0.00000	-0.00007	-0.00053	-0.00090	-0.00119	-0.00169	-0.00197	-0.00226	-0.00257	-0.00260	-0.00289	-0.00394	-0.00470	-0.00481	-0.00493	-0.00520	-0.00580	-0.00620		; offset and temperature correction info
c488	Yellow	20.35984		-0.01125	-0.01082	-0.00966	-0.00833	-0.00726	-0.00661	-0.00579	-0.00500	-0.00389	-0.00278	-0.00167	-0.00113	-0.00041	0.00000	0.00055	0.00121	0.00187	0.00226	0.00222	0.00251	0.00281	0.00359	0.00414	0.00427	0.00401	0.00404	0.00486	0.00563	0.00638	0.00684	0.00718		; offset and temperature correction info
0.003500	0.004000	0.015000	0.020000	0.015000	0.020000	2500.000000	2000.000000	1000.000000	; maxANoise	maxCNoise	maxADifference	maxCDifference	minACounts	minCCounts	minRCounts	maxTempSdev	maxDepthSdev
0			; auxilliary capabilities
1			; acquisition binsize
0	0.48008	0.44152	0.27384	2.64368	2.22458	1.82018	9.86570	5.93533	2.75639	1.00613	0.94216	0.82816	2.07679	1.58467	1.21226	10.02079	6.30780	3.31970	25.69	6.1	0.00	7.24	0.01272	0.01288	0.01662	0.00770	0.00575	0.00630	0.00467	0.01264	0.01684	0.00672	0.00691	0.00886	0.01488	0.01095	0.01196	0.00214	0.00608	0.00857
160	0.47514	0.42338	0.27178	2.61883	2.19943	1.79926	9.87845	5.94513	2.76888	0.99762	0.90447	0.79268	2.09969	1.58797	1.21663	9.95748	6.26665	3.31966
330	0.47787	0.42393	0.26557	2.66959	2.22882	1.80876	9.87716	5.94400	2.75854	1.01578	0.91802	0.78863	2.09112	1.59385	1.22303	9.97654	6.28083	3.31713
490	0.49111	0.43881	0.28127	2.64002	2.19785	1.79917	9.87155	5.93503	2.76359	1.01134	0.91472	0.78839	2.08481	1.58532	1.20500	9.95665	6.28271	3.31193
660	0.47340	0.42626	0.26985	2.64878	2.19394	1.79312	9.89407	5.94191	2.76197	1.00860	0.93852	0.79577	2.09128	1.58401	1.21390	9.97180	6.31140	3.32835
820	0.46914	0.41944	0.26660	2.66318	2.18918	1.79310	9.86188	5.92868	2.77468	0.98432	0.90153	0.78811	2.07369	1.60214	1.20819	9.95542	6.27930	3.31929
980	0.47225	0.43250	0.27187	2.64762	2.21290	1.79135	9.88684	5.93691	2.77109	0.99471	0.89372	0.77794	2.08687	1.60200	1.21504	9.96180	6.28172	3.30393
1150	0.47013	0.42246	0.26518	2.62958	2.19138	1.78657	9.86053	5.92657	2.76424	0.99935	0.91068	0.78305	2.08218	1.58765	1.22630	9.97273	6.27201	3.34000
1310	0.47765	0.44015	0.27502	2.68385	2.20385	1.81452	9.86428	5.95301	2.78978	1.00894	0.93439	0.89050	2.09538	1.62142	1.23785	10.03997	6.35022	3.45245
1480	0.49688	0.45539	0.31588	2.69974	2.30377	1.89031	9.89135	5.98021	2.84407	1.10522	1.00496	0.90027	2.14713	1.64978	1.28121	10.01747	6.35679	3.40877
1640	0.53468	0.48222	0.33003	2.77690	2.30079	1.91148	9.91736	5.98805	2.83366	1.12149	1.06208	0.92363	2.13321	1.61933	1.24756	10.07568	6.35213	3.41377	25.69	6.2	0.00	7.30	0.01272	0.01288	0.01661	0.00770	0.00575	0.00630	0.00467	0.01264	0.01684	0.00672	0.00691	0.00886	0.01488	0.01095	0.01196	0.00214	0.00608	0.00857
1800	0.52932	0.45426	0.29303	2.76381	2.30982	1.92687	9.91556	5.97511	2.78638	1.10856	0.99291	0.89159	2.13154	1.63468	1.26269	10.05029	6.34585	3.40208
1970	0.50154	0.46836	0.30545	2.68181	2.26871	1.86570	9.90028	5.97535	2.80946	1.10255	0.94804	0.81154	2.10187	1.60631	1.24072	9.99339	6.30122	3.34590
2130	0.49542	0.43607	0.28192	2.67659	2.23293	1.81080	9.87214	5.94779	2.78046	1.04154	0.96911	0.80650	2.09385	1.59710	1.22355	9.98131	6.33496	3.33229
2300	0.49758	0.44171	0.28499	2.64365	2.19333	1.81544	9.88830	5.94474	2.75974	0.99118	0.90448	0.81141	2.07968	1.58947	1.22896	9.99505	6.30431	3.30922
2460	0.48235	0.42738	0.27181	2.65344	2.19614	1.79140	9.85884	5.94104	2.76515	0.99921	0.91685	0.80603	2.07450	1.58522	1.20465	9.98513	6.28461	3.32514
2630	0.47048	0.43876	0.27164	2.63084	2.17732	1.81881	9.84985	5.92937	2.76402	1.00355	0.90807	0.80403	2.08378	1.57892	1.21015	9.98327	6.29040	3.32488
2790	0.48161	0.43815	0.27324	2.67996	2.19478	1.79826	9.86388	5.93151	2.76464	1.01037	0.91780	0.77287	2.07890	1.58153	1.21643	9.94679	6.26860	3.29594
2960	0.47204	0.43711	0.26629	2.62052	2.18340	1.80592	9.86339	5.92481	2.75503	0.98426	0.90502	0.78150	2.06674	1.57641	1.21064	9.96213	6.25692	3.30263
3120	0.45900	0.42062	0.25475	2.62027	2.18230	1.76251	9.86050	5.92485	2.75004	0.98889	0.90759	0.75833	2.05691	1.57645	1.19566	9.95081	6.26257	3.31595
3280	0.45675	0.42720	0.26613	2.64341	2.18276	1.78842	9.86317	5.93942	2.77114	0.99157	0.90169	0.80963	2.08812	1.59129	1.21890	9.94795	6.26026	3.30848	25.69	6.2	0.00	7.28	0.01272	0.01288	0.01661	0.00770	0.00574	0.00630	0.00467	0.01264	0.01684	0.00672	0.00691	0.00886	0.01488	0.01095	0.01196	0.00214	0.00608	0.00857
3450	0.48060	0.42969	0.26355	2.64164	2.21580	1.83111	9.86237	5.92574	2.76383	1.03091	0.93591	0.81700	2.07647	1.58221	1.21369	9.97318	6.29167	3.31220
3610	0.47319	0.41835	0.26126	2.64189	2.19199	1.78756	9.86865	5.93128	2.76241	0.99653	0.91116	0.76726	2.06453	1.58459	1.21480	9.95423	6.31534	3.30754
3770	0.47286	0.43079	0.27004	2.64194	2.19771	1.80444	9.85227	5.92423	2.75485	1.02821	0.94588	0.78639	2.07236	1.57570	1.21965	9.96061	6.26429	3.30757
3940	0.47470	0.42226	0.26940	2.63920	2.20215	1.78798	9.85049	5.93742	2.75911	0.98416	0.91034	0.78636	2.07680	1.59205	1.21688	9.95793	6.28420	3.32055
4100	0.50780	0.42443	0.26738	2.62250	2.16513	1.74803	9.83949	5.92133	2.76322	0.98115	0.90447	0.77441	2.08327	1.58733	1.21213	9.94117	6.30832	3.30763
4270	0.47642	0.43005	0.26836	2.65824	2.17145	1.78393	9.89691	5.94294	2.75431	1.00065	0.91010	0.79921	2.07947	1.57919	1.21921	9.96524	6.25138	3.32933
4430	0.47052	0.42645	0.27651	2.67205	2.20072	1.81142	9.84760	5.93300	2.76076	1.00536	0.90341	0.81311	2.08710	1.59773	1.22351	9.95855	6.27654	3.31637
4600	0.48450	0.43958	0.27766	2.67757	2.21715	1.78658	9.87407	5.92499	2.75727	1.01646	0.93102	0.81092	2.08472	1.57643	1.22345	9.98443	6.30205	3.34607
4760	0.48424	0.43064	0.28328	2.63745	2.22119	1.78203	9.84698	5.93845	2.75895	1.01992	0.93655	0.80448	2.08572	1.58584	1.21988	9.99816	6.27943	3.33119
4920	0.48680	0.42334	0.26897	2.65953	2.22664	1.80122	9.88475	5.95772	2.77628	1.01717	0.90681	0.81902	2.07962	1.60598	1.24121	10.00428	6.28745	3.34617	25.63	6.1	0.00	7.22	0.01272	0.01288	0.01661	0.00770	0.00575	0.00630	0.00467	0.01264	0.01684	0.00672	0.00691	0.00886	0.01488	0.01095	0.01196	0.00214	0.00608	0.00857
5090	0.49301	0.43894	0.27927	2.63338	2.22370	1.79498	9.87075	5.92232	2.75890	1.00992	0.90581	0.79158	2.07748	1.58296	1.21699	9.98846	6.28110	3.32420
5250	0.48120	0.44307	0.26510	2.63133	2.19697	1.82111	9.85345	5.93076	2.76157	1.00558	0.92093	0.81344	2.07682	1.58375	1.21802	9.94948	6.28515	3.31913
5410	0.47305	0.42715	0.26271	2.64552	2.21133	1.77277	9.86071	5.94118	2.76874	0.99388	0.93183	0.79537	2.06331	1.57863	1.21321	9.96421	6.27005	3.31924
5580	0.46980	0.42925	0.26081	2.63358	2.18140	1.79176	9.85320	5.93030	2.75390	1.00849	0.90411	0.78802	2.07772	1.58700	1.20753	9.96225	6.30104	3.32711
5740	0.46222	0.42360	0.27138	2.63560	2.21133	1.77898	9.86773	5.92414	2.76333	0.99832	0.92716	0.78483	2.07619	1.59117	1.23078	9.98206	6.31555	3.33928
5910	0.48092	0.44253	0.27621	2.64643	2.21575	1.80885	9.88172	5.95165	2.77678	1.01824	0.90460	0.80744	2.08477	1.59511	1.22556	9.97297	6.33412	3.32615
6070	0.48893	0.45345	0.27554	2.64310	2.18635	1.81454	9.85745	5.93266	2.75980	1.02445	0.93787	0.79300	2.07297	1.58893	1.21636	9.95628	6.28624	3.32523
6230	0.47434	0.42729	0.26068	2.63243	2.19037	1.82367	9.84742	5.93449	2.76530	1.03309	0.93161	0.79861	2.08135	1.58431	1.20501	9.97339	6.29344	3.33344
6400	0.47074	0.42683	0.27020	2.62233	2.18995	1.79099	9.87636	5.93837	2.76655	1.00366	0.90613	0.79221	2.07809	1.58506	1.21763	9.95463	6.28134	3.31237
6560	0.47739	0.43523	0.27457	2.64060	2.18256	1.77355	9.87695	5.93582	2.75781	1.00834	0.92251	0.80446	2.07817	1.58705	1.21480	9.99884	6.26441	3.33802	25.69	6.0	0.00	7.31	0.01272	0.01288	0.01661	0.00770	0.00575	0.00630	0.00467	0.01264	0.01684	0.00672	0.00691	0.00886	0.01488	0.01095	0.01196	0.00214	0.00608	0.00857
6720	0.47418	0.43522	0.27494	2.64598	2.20247	1.78839	9.85983	5.94149	2.76318	1.00960	0.90463	0.76743	2.07173	1.58736	1.21483	9.98416	6.26927	3.31584
6890	0.46865	0.42638	0.26098	2.65896	2.23673	1.79082	9.85607	5.93856	2.76074	1.01142	0.90167	0.78052	2.06854	1.58352	1.21921	9.99150	6.31853	3.32722
7050	0.48041	0.44438	0.28616	2.66255	2.21723	1.80026	9.87954	5.94473	2.76474	1.03297	0.93279	0.80301	2.09198	1.59511	1.22431	9.97136	6.28247	3.33481
7210	0.48081	0.44736	0.27833	2.70412	2.21415	1.83119	9.88651	5.94124	2.77025	0.99295	0.95352	0.81349	2.08557	1.60738	1.23277	9.98705	6.27851	3.30721
7380	0.47272	0.44475	0.27211	2.67068	2.20490	1.79448	9.86315	5.94860	2.77594	0.98896	0.90722	0.79184	2.07566	1.59113	1.21403	9.95240	6.26979	3.30227
7540	0.46462	0.42741	0.27339	2.65419	2.20010	1.79457	9.85927	5.91439	2.75076	0.97952	0.89727	0.77560	2.06439	1.57372	1.21472	9.96198	6.29461	3.31627
7710	0.46452	0.42479	0.25977	2.64849	2.19303	1.78732	9.85989	5.92315	2.75245	0.98876	0.90485	0.77787	2.06993	1.57094	1.21497	9.96322	6.29340	3.30480
7870	0.46536	0.42013	0.27428	2.64013	2.16968	1.79042	9.83609	5.93717	2.76343	0.99063	0.91944	0.80268	2.07342	1.59888	1.21571	9.95776	6.26130	3.31812
8040	0.46797	0.44000	0.26334	2.64992	2.18402	1.80994	9.85029	5.92084	2.75424	0.99946	0.90142	0.76419	2.06473	1.57647	1.21081	9.93605	6.28798	3.33659
8200	0.46820	0.42655	0.26506	2.63431	2.18675	1.77544	9.84135	5.91394	2.75848	0.97577	0.89656	0.79682	2.07167	1.58982	1.21440	9.94514	6.26896	3.29441	25.69	6.2	0.00	7.31	0.01272	0.01288	0.01661	0.00770	0.00575	0.00630	0.00467	0.01264	0.01683	0.00672	0.00690	0.00886	0.01488	0.01095	0.01195	0.00214	0.00608	0.00857
8360	0.46233	0.42685	0.25948	2.65983	2.20093	1.78785	9.84461	5.91907	2.75194	0.97641	0.91872	0.79132	2.06938	1.58695	1.21130	9.95564	6.27296	3.33755
8530	0.47504	0.43193	0.26169	2.63961	2.21147	1.80999	9.85107	5.94253	2.76452	1.02929	0.92187	0.78074	2.08553	1.59738	1.24062	10.00630	6.33361	3.34861
8700	0.48440	0.43165	0.27761	2.67645	2.26622	1.83901	9.87200	5.94168	2.76731	1.05388	0.93072	0.82166	2.07404	1.60975	1.22597	10.04995	6.30007	3.35465
8860	0.50532	0.44843	0.28536	2.70175	2.23612	1.80193	9.85993	5.94849	2.79180	1.02601	0.95043	0.83359	2.09103	1.59291	1.23074	9.99617	6.30235	3.37782
9020	0.48130	0.44136	0.27046	2.69296	2.24776	1.81293	9.87052	5.92259	2.76585	1.03025	0.90376	0.78059	2.06997	1.58125	1.22368	9.97057	6.30198	3.32758
9190	0.47901	0.43794	0.27462	2.65272	2.19899	1.79755	9.83877	5.92018	2.75131	1.01116	0.91658	0.79344	2.07196	1.57794	1.22330	9.96934	6.27479	3.29959
9350	0.47366	0.42637	0.26528	2.64025	2.18621	1.77945	9.85808	5.92698	2.75906	0.98805	0.91526	0.78048	2.06222	1.57934	1.20530	9.96223	6.26919	3.31751
9510	0.46224	0.41770	0.25429	2.63833	2.19311	1.78839	9.86442	5.92777	2.76412	0.98621	0.91297	0.78660	2.08032	1.59618	1.21946	9.98667	6.29227	3.33147
9680	0.47693	0.43556	0.26827	2.64697	2.20275	1.78767	9.86664	5.92995	2.76449	0.99171	0.91576	0.77455	2.06951	1.58257	1.21439	9.98450	6.27993	3.31023
9840	0.46068	0.41712	0.25813	2.67036	2.18462	1.78828	9.85736	5.93326	2.75852	0.99932	0.90770	0.79446	2.07008	1.59412	1.21996	9.96327	6.29663	3.34144	25.69	6.1	0.00	7.31	0.01272	0.01288	0.01661	0.00770	0.00575	0.00630	0.00467	0.01264	0.01684	0.00672	0.00691	0.00886	0.01488	0.01095	0.01196	0.00214	0.00608	0.00857
10010	0.46828	0.43624	0.27363	2.66828	2.22627	1.78946	9.87312	5.94432	2.76376	1.01491	0.93283	0.79927	2.07820	1.59152	1.20668	9.99361	6.29725	3.34627
10170	0.46602	0.42179	0.26798	2.65637	2.19944	1.78791	9.87004	5.94949	2.77479	1.00956	0.91850	0.81468	2.07969	1.58463	1.21458	10.02322	6.30929	3.34016
10330	0.49034	0.44014	0.26484	2.63916	2.19456	1.81014	9.85201	5.95752	2.76374	1.00038	0.92266	0.80001	2.07774	1.59589	1.21679	9.99537	6.31554	3.33485
10500	0.47210	0.42861	0.26906	2.68437	2.22074	1.83101	9.87435	5.93923	2.76302	1.04924	0.94435	0.81383	2.09986	1.60521	1.22687	9.98576	6.30716	3.36472
10660	0.47676	0.42647	0.27353	2.65763	2.24391	1.84475	9.87725	5.93899	2.78184	1.05975	0.93373	0.79890	2.08974	1.59084	1.23130	9.98700	6.28995	3.33598
10830	0.47522	0.43874	0.27085	2.69006	2.22344	1.80774	9.86733	5.94305	2.76381	1.04504	0.96138	0.84985	2.09740	1.60322	1.21157	9.96214	6.28154	3.31540
10990	0.48467	0.44593	0.27742	2.68282	2.19580	1.81786	9.89076	5.94969	2.76666	1.01067	0.96521	0.82604	2.09016	1.60742	1.24183	9.99630	6.32285	3.34148
11150	0.48315	0.42733	0.27246	2.63974	2.21216	1.84687	9.87762	5.94593	2.78465	1.03312	0.91697	0.80755	2.08370	1.58796	1.21386	9.98700	6.28384	3.31435
11320	0.46865	0.42600	0.26493	2.62464	2.19346	1.79963	9.89799	5.94841	2.77401	1.01236	0.91275	0.78284	2.08252	1.58308	1.20310	9.96977	6.26576	3.32085
11480	0.46754	0.42870	0.26102	2.64674	2.20368	1.86892	9.85993	5.92342	2.75225	1.00815	0.90928	0.79834	2.06848	1.59302	1.20795	9.95761	6.27426	3.30683	25.69	6.1	0.00	7.23	0.01272	0.01288	0.01661	0.00770	0.00575	0.00630	0.00467	0.01264	0.01684	0.00672	0.00691	0.00886	0.01488	0.01095	0.01196	0.00214	0.00608	0.00857
11650	0.46838	0.43557	0.26871	2.63981	2.18927	1.78286	9.85993	5.92654	2.74996	0.98611	0.90481	0.77959	2.06459	1.57684	1.20911	9.94783	6.25151	3.33882
11810	0.46029	0.41769	0.25966	2.63042	2.17774	1.77658	9.84880	5.92459	2.75837	1.01360	0.93432	0.80504	2.07098	1.58777	1.20947	9.94474	6.27122	3.30788
11970	0.47641	0.43816	0.26754	2.63937	2.19293	1.78011	9.86030	5.93122	2.75589	1.00848	0.89408	0.76378	2.07125	1.57687	1.20708	9.96688	6.27408	3.30285
12140	0.46615	0.42449	0.26166	2.63696	2.19149	1.77874	9.85538	5.93551	2.76585	0.98843	0.92333	0.79281	2.07052	1.58442	1.20700	9.97234	6.28538	3.32123
12300	0.46587	0.41868	0.26296	2.62376	2.18277	1.78028	9.88329	5.93252	2.77092	0.98811	0.90812	0.78800	2.07683	1.59588	1.21077	9.99392	6.31211	3.34111
12470	0.47887	0.43723	0.27094	2.64526	2.18570	1.79948	9.85827	5.92052	2.76004	1.00135	0.91028	0.79949	2.07915	1.58380	1.20649	9.96904	6.26719	3.32673
12630	0.48667	0.43004	0.28295	2.62972	2.20867	1.81905	9.88020	5.94139	2.78080	1.03575	0.94818	0.80289	2.09974	1.59806	1.22209	9.99496	6.32839	3.36396
12790	0.49043	0.44255	0.27573	2.69710	2.21072	1.80643	9.88063	5.94332	2.75997	1.02178	0.93167	0.80872	2.08621	1.59840	1.21510	10.00137	6.28805	3.32992
12960	0.46843	0.43367	0.26179	2.65430	2.21429	1.79849	9.85163	5.95490	2.76735	1.04329	0.96024	0.81087	2.09038	1.59376	1.22895	9.98772	6.28891	3.33370
13120	0.46578	0.43257	0.26725	2.67889	2.19426	1.80262	9.86715	5.94038	2.76938	0.99406	0.89824	0.78904	2.08815	1.59766	1.22462	9.99033	6.28844	3.31161	25.69	6.1	0.00	7.21	0.01272	0.01288	0.01661	0.00770	0.00575	0.00630	0.00467	0.01264	0.01684	0.00672	0.00691	0.00886	0.01488	0.01095	0.01196	0.00214	0.00608	0.00857
13290	0.47394	0.43668	0.28234	2.69148	2.21809	1.82932	9.89700	5.95632	2.76483	1.00501	0.90711	0.86135	2.07357	1.59576	1.21339	9.98187	6.25966	3.31420
13450	0.47020	0.43459	0.27909	2.67198	2.20306	1.80247	9.88632	5.93972	2.77940	0.99322	0.93167	0.79929	2.08077	1.60897	1.23155	9.99106	6.28524	3.33328
13610	0.48415	0.43952	0.28191	2.65275	2.22011	1.82733	9.89101	5.94057	2.76960	1.04125	0.92963	0.81841	2.10460	1.60991	1.22570	10.01443	6.32171	3.33756
13780	0.49616	0.44239	0.28481	2.66270	2.24285	1.82821	9.86721	5.96325	2.77778	1.02771	0.92378	0.82633	2.08601	1.60049	1.22143	10.00191	6.30832	3.33582
13940	0.47926	0.44000	0.28517	2.69156	2.24062	1.81322	9.89237	5.94089	2.77909	1.01184	0.93119	0.82407	2.08603	1.59494	1.22488	9.99033	6.28312	3.33051
14110	0.48302	0.44236	0.28763	2.65739	2.19807	1.81128	9.86758	5.93873	2.76607	1.00165	0.91043	0.79042	2.07223	1.58441	1.21437	9.97722	6.26173	3.31512
14270	0.46624	0.42770	0.26490	2.65547	2.19723	1.80150	9.87072	5.92798	2.75873	1.00935	0.90311	0.80359	2.07801	1.57211	1.21114	10.00129	6.28000	3.35468
14440	0.46507	0.42866	0.26615	2.66473	2.21449	1.81616	9.86407	5.94109	2.76914	1.09644	0.91938	0.79048	2.07666	1.59664	1.22486	9.97557	6.29281	3.36172
14600	0.46933	0.42974	0.27394	2.68035	2.23948	1.80862	9.88170	5.92970	2.78384	1.00360	0.91147	0.78791	2.07556	1.58691	1.22647	10.01723	6.30299	3.32673
14770	0.46930	0.42358	0.26039	2.66485	2.23779	1.81029	9.86243	5.93675	2.76977	1.00234	0.93044	0.81613	2.08680	1.59596	1.21932	10.02053	6.30977	3.34984	25.69	6.1	0.00	7.17	0.01272	0.01289	0.01661	0.00770	0.00574	0.00630	0.00467	0.01264	0.01684	0.00672	0.00690	0.00886	0.01488	0.01095	0.01196	0.00214	0.00608	0.00857
14930	0.47635	0.44210	0.28000	2.64187	2.20566	1.80143	9.88079	5.93320	2.75967	1.02086	0.92067	0.80528	2.08211	1.58571	1.20997	9.95854	6.30672	3.33819
15090	0.47203	0.42315	0.26343	2.66871	2.21526	1.79070	9.86323	5.92777	2.77204	0.97214	0.91300	0.83016	2.07102	1.58488	1.22692	10.00769	6.29097	3.32578
15260	0.48503	0.43212	0.27274	2.65227	2.18730	1.80474	9.85800	5.93423	2.76406	1.00490	0.91590	0.78894	2.08593	1.57463	1.21641	9.96442	6.28874	3.30846
15420	0.48441	0.43055	0.27377	2.64788	2.21078	1.80674	9.86372	5.93579	2.76659	0.98520	0.91052	0.80318	2.07825	1.59172	1.20689	10.00531	6.27270	3.32848
15590	0.47407	0.43331	0.26405	2.66263	2.21154	1.84015	9.85430	5.93755	2.75829	1.00080	0.91868	0.83403	2.09440	1.59037	1.21678	9.98567	6.29327	3.34461
15750	0.47860	0.44323	0.26116	2.65889	2.18003	1.81064	9.86618	5.94301	2.77100	1.02647	0.95453	0.82616	2.08062	1.58696	1.21985	10.00344	6.30843	3.33299
15920	0.47539	0.43597	0.27387	2.69811	2.22598	1.82333	9.88036	5.94470	2.76694	1.05474	0.92738	0.79364	2.08676	1.58837	1.21853	9.98391	6.30033	3.35572
16080	0.48906	0.43823	0.27550	2.64848	2.21094	1.78847	9.85658	5.93425	2.74985	0.99625	0.91777	0.76834	2.08576	1.57821	1.21585	9.95309	6.25826	3.30178
16240	0.47902	0.43961	0.28181	2.66418	2.19277	1.81031	9.87604	5.94421	2.77242	0.99791	0.92403	0.80776	2.08480	1.58429	1.21272	9.97452	6.29560	3.33401
16410	0.48217	0.42520	0.27627	2.64327	2.20456	1.80204	9.88781	5.93834	2.75779	1.01205	0.90244	0.78880	2.08445	1.58708	1.21108	9.95912	6.29233	3.31179	25.63	6.0	0.00	7.27	0.01272	0.01288	0.01661	0.00770	0.00574	0.00630	0.00467	0.01264	0.01684	0.00672	0.00691	0.00886	0.01488	0.01095	0.01196	0.00214	0.00608	0.00857
16570	0.47520	0.42633	0.27519	2.64685	2.18177	1.81226	9.87060	5.95312	2.76517	0.98537	0.92399	0.81376	2.07303	1.58250	1.21699	9.95212	6.27115	3.31682
16730	0.46458	0.42141	0.25985	2.63777	2.18563	1.78767	9.86260	5.92462	2.75410	0.98812	0.91193	0.76728	2.07218	1.58919	1.20856	9.94338	6.27893	3.30429
16900	0.48667	0.44431	0.27495	2.69878	2.18823	1.77913	9.87011	5.92988	2.76166	0.98386	0.92063	0.79664	2.07311	1.59658	1.21790	9.93526	6.26675	3.32670
17060	0.48339	0.42487	0.27887	2.65554	2.21900	1.81092	9.84580	5.95170	2.78438	1.01775	0.91614	0.82789	2.09831	1.60931	1.21236	9.97582	6.30570	3.36578
17220	0.48826	0.43675	0.28503	2.68528	2.24586	1.80914	9.87221	5.94583	2.75954	1.05667	0.94059	0.82700	2.08610	1.58609	1.22406	9.98831	6.32981	3.35927
17390	0.47547	0.43021	0.27189	2.70475	2.27182	1.83028	9.87282	5.93091	2.76320	1.03268	0.91987	0.80112	2.07564	1.58385	1.21191	9.98594	6.30461	3.34371
17550	0.47617	0.43533	0.29017	2.65858	2.20109	1.83760	9.88540	5.94778	2.76015	1.02603	0.96102	0.83417	2.07831	1.59919	1.21835	10.00020	6.32244	3.33659
17710	0.50765	0.45226	0.27915	2.67254	2.25611	1.84560	9.88040	5.93375	2.78314	0.99679	0.94162	0.82615	2.08462	1.59444	1.21023	9.98160	6.28466	3.36051
17880	0.48592	0.43998	0.27981	2.68750	2.21525	1.81025	9.86734	5.93329	2.76239	1.02881	0.92437	0.78509	2.07243	1.57888	1.20950	9.95758	6.31971	3.30342
18040	0.47194	0.41463	0.25705	2.67896	2.22918	1.78684	9.85894	5.93199	2.75400	0.98040	0.89576	0.79637	2.07264	1.56627	1.21318	9.96092	6.30241	3.33509	25.63	6.0	0.00	7.20	0.01272	0.01289	0.01661	0.00771	0.00574	0.00630	0.00467	0.01264	0.01684	0.00672	0.00690	0.00886	0.01488	0.01095	0.01196	0.00214	0.00608	0.00857
18200	0.46440	0.41922	0.25875	2.64115	2.19646	1.81343	9.84953	5.92613	2.75680	0.98725	0.90676	0.80221	2.06336	1.57804	1.20362	9.97649	6.29377	3.31974
18370	0.46080	0.42290	0.25758	2.63132	2.16880	1.78481	9.86153	5.92233	2.75223	0.97764	0.89101	0.78613	2.07106	1.57629	1.20152	9.96710	6.27940	3.31610
18530	0.46074	0.41758	0.25758	2.64441	2.19659	1.79017	9.87188	5.93254	2.75642	0.99646	0.90947	0.80710	2.06737	1.58375	1.20908	9.96473	6.28662	3.31635
18690	0.46877	0.42145	0.26865	2.63792	2.18530	1.78802	9.85826	5.93276	2.75330	1.00144	0.89539	0.78650	2.07610	1.58541	1.21487	9.97113	6.26634	3.33846
18860	0.47926	0.43277	0.27173	2.63417	2.17727	1.79875	9.89044	5.94349	2.77949	1.00796	0.94037	0.83173	2.08402	1.58726	1.22821	9.97546	6.29810	3.35205
19020	0.46586	0.42417	0.27559	2.62730	2.20811	1.81473	9.86769	5.93842	2.76469	1.02596	0.90243	0.78017	2.07829	1.57632	1.21770	9.96133	6.26448	3.36545
19180	0.46766	0.41929	0.26237	2.67312	2.21468	1.78080	9.86824	5.93139	2.74929	1.01969	0.92550	0.79512	2.07325	1.58547	1.20510	9.94784	6.26991	3.29360
19350	0.47977	0.42088	0.25502	2.63687	2.18782	1.78396	9.85851	5.92430	2.76237	1.03141	0.92273	0.80082	2.08106	1.58461	1.20669	9.98052	6.28904	3.33180
19510	0.47640	0.42438	0.26276	2.64340	2.19621	1.80169	9.88587	5.95071	2.76930	1.00334	0.91819	0.79765	2.07199	1.58147	1.21326	9.98300	6.30139	3.36966
19670	0.46556	0.42244	0.26340	2.64433	2.19764	1.79234	9.84716	5.93583	2.77146	0.99680	0.94788	0.80583	2.07999	1.59280	1.21068	9.99064	6.29573	3.31516	25.69	5.9	0.00	7.22	0.01272	0.01288	0.01661	0.00770	0.00574	0.00630	0.00467	0.01264	0.01684	0.00672	0.00691	0.00886	0.01488	0.01095	0.01196	0.00214	0.00608	0.00857
19840	0.47523	0.43729	0.26597	2.67583	2.23601	1.79980	9.88251	5.93943	2.76781	1.02701	0.92119	0.78991	2.10169	1.59888	1.22060	10.01943	6.32054	3.36725
20000	0.46251	0.43250	0.26853	2.65673	2.20234	1.80487	9.86155	5.92751	2.75750	1.03287	0.93146	0.81271	2.07515	1.58173	1.21850	9.96564	6.31288	3.33930
20160	0.47415	0.43132	0.26596	2.64559	2.20096	1.81073	9.87628	5.92825	2.75899	1.00062	0.88751	0.77979	2.07464	1.57895	1.20960	9.95935	6.27792	3.33405
20330	0.47460	0.42064	0.26075	2.63753	2.19188	1.79729	9.85214	5.93755	2.76661	1.01071	0.93284	0.80699	2.07659	1.58369	1.20983	9.95450	6.27227	3.33095
20490	0.47753	0.43556	0.28771	2.65836	2.21438	1.79184	9.86346	5.93934	2.77647	1.00253	0.91435	0.79496	2.07057	1.59499	1.23848	9.96832	6.30054	3.31607
20650	0.47702	0.42829	0.26194	2.63864	2.18837	1.79786	9.86642	5.93450	2.76144	0.97407	0.89155	0.77975	2.06915	1.58140	1.20653	9.95100	6.26864	3.30418
20820	0.46413	0.43037	0.26432	2.63883	2.17763	1.76676	9.87535	5.93500	2.76950	1.01322	0.92005	0.80377	2.08248	1.58496	1.22178	9.99281	6.29680	3.33970
20980	0.47012	0.42887	0.26264	2.65917	2.18567	1.80225	9.88078	5.95148	2.76456	1.01464	0.93014	0.82299	2.08121	1.59412	1.23725	9.97741	6.31052	3.36854
21140	0.48761	0.43997	0.27340	2.66443	2.22363	1.79141	9.87912	5.96623	2.77854	1.00625	0.96527	0.79091	2.09523	1.58640	1.23029	9.97142	6.30145	3.36659
21310	0.49425	0.45235	0.27861	2.68071	2.20439	1.78924	9.89177	5.94239	2.76256	1.01519	0.96593	0.82326	2.08953	1.59269	1.21460	9.94605	6.29272	3.31877	25.69	6.0	0.00	7.14	0.01272	0.01289	0.01661	0.00770	0.00574	0.00630	0.00467	0.01264	0.01684	0.00672	0.00691	0.00886	0.01488	0.01095	0.01196	0.00214	0.00608	0.00857
21470	0.47532	0.42474	0.27056	2.65785	2.22755	1.82015	9.88807	5.94132	2.77267	1.00577	0.91831	0.80910	2.08253	1.61158	1.22544	9.97937	6.28616	3.35391
21640	0.48919	0.46822	0.27747	2.63051	2.19174	1.77628	9.90067	5.94502	2.77334	0.99439	0.89219	0.77438	2.07873	1.59650	1.23701	9.95708	6.27081	3.31994
21800	0.48348	0.44588	0.28351	2.64771	2.18182	1.77660	9.84981	5.94174	2.76070	0.98806	0.88630	0.79047	2.07718	1.59526	1.21628	9.95192	6.27699	3.31390
21960	0.47557	0.43347	0.26230	2.64059	2.19785	1.79283	9.85719	5.93202	2.75949	1.00046	0.93301	0.81007	2.09042	1.58173	1.21349	10.00865	6.29190	3.32449
22130	0.48001	0.42829	0.28122	2.65059	2.18919	1.77295	9.86612	5.93357	2.75623	0.99850	0.89876	0.78331	2.08098	1.58067	1.22701	9.97328	6.27079	3.32166
22290	0.46994	0.43192	0.27509	2.63712	2.19308	1.81645	9.85725	5.92410	2.75605	0.98127	0.89690	0.78607	2.07285	1.58096	1.21205	9.94327	6.26748	3.34303
22460	0.46716	0.42234	0.25700	2.64442	2.20624	1.78705	9.83660	5.92394	2.75169	1.07702	0.94286	0.81817	2.08168	1.58236	1.21691	9.94235	6.26696	3.34485
22620	0.46490	0.42670	0.26175	2.63000	2.18742	1.76419	9.86513	5.92550	2.76884	0.98698	0.90844	0.79541	2.07563	1.57882	1.21008	9.94533	6.25076	3.30110
22780	0.47082	0.42740	0.26461	2.65033	2.17057	1.76731	9.85110	5.94444	2.76145	0.98870	0.89071	0.77801	2.07399	1.58127	1.20996	9.95306	6.25655	3.30262
22950	0.46987	0.43230	0.26121	2.62537	2.17646	1.77769	9.85933	5.93297	2.77916	1.00602	0.87634	0.77922	2.07443	1.57565	1.21546	9.93373	6.25947	3.29743	25.69	6.0	0.00	7.25	0.01272	0.01289	0.01661	0.00770	0.00574	0.00630	0.00467	0.01264	0.01684	0.00672	0.00691	0.00886	0.01488	0.01095	0.01196	0.00213	0.00608	0.00857
23110	0.46441	0.42348	0.26947	2.62745	2.18131	1.77291	9.87923	5.93791	2.75703	0.98801	0.88618	0.79346	2.07105	1.57737	1.20688	9.93877	6.27507	3.31307
23270	0.47816	0.42232	0.26923	2.66849	2.20407	1.80545	9.85281	5.93135	2.75330	0.98279	0.89716	0.78961	2.08046	1.58442	1.20751	9.92981	6.27794	3.32678
23440	0.47542	0.42922	0.27051	2.63301	2.20527	1.78879	9.86943	5.93458	2.76327	0.99861	0.92547	0.85047	2.07636	1.58362	1.24177	9.96383	6.30323	3.31536
23600	0.47762	0.43295	0.28503	2.63651	2.18429	1.80014	9.86684	5.93350	2.75744	0.98085	0.89938	0.79727	2.08025	1.59049	1.20981	9.94330	6.28667	3.34311
23770	0.47441	0.44549	0.26213	2.65185	2.18709	1.79890	9.89126	5.94063	2.76580	0.99513	0.92301	0.81435	2.08077	1.58153	1.21118	10.00221	6.28875	3.34995
23930	0.47752	0.43397	0.27621	2.64804	2.20749	1.82199	9.87306	5.94734	2.77414	1.04842	0.94131	0.82335	2.07927	1.59488	1.22217	9.99837	6.36246	3.40545
24090	0.47717	0.44447	0.28458	2.70156	2.24587	1.82242	9.91382	5.97791	2.78719	1.10219	0.99056	0.83094	2.10177	1.61367	1.25272	10.06230	6.36537	3.39343
24260	0.51343	0.45722	0.28945	2.67405	2.23407	1.86244	9.92707	5.98967	2.79617	1.07594	0.97381	0.82639	2.08466	1.60648	1.26015	10.01372	6.30348	3.40753
24420	0.48366	0.43986	0.28399	2.71244	2.26621	1.86540	9.86641	5.96149	2.78080	1.03241	0.97055	0.80548	2.09189	1.59357	1.21889	9.98388	6.30586	3.33392
24590	0.48807	0.45049	0.30665	2.65038	2.22552	1.81407	9.89798	5.97195	2.77246	1.00520	0.93885	0.82203	2.10685	1.60910	1.23519	9.99309	6.32260	3.34018	25.69	6.0	0.00	7.22	0.01272	0.01289	0.01661	0.00770	0.00574	0.00630	0.00467	0.01264	0.01684	0.00672	0.00691	0.00886	0.01488	0.01095	0.01196	0.00214	0.00608	0.00857
24750	0.48566	0.43921	0.26940	2.70569	2.22398	1.83447	9.89928	5.97433	2.79859	1.08056	0.95424	0.81778	2.08407	1.60354	1.25073	9.97717	6.31578	3.32262
24920	0.47598	0.43575	0.29323	2.66118	2.22190	1.82843	9.86431	5.97168	2.76991	1.01185	0.97492	0.84043	2.09828	1.59542	1.23775	9.97552	6.31240	3.33012
25080	0.48130	0.43380	0.28263	2.68927	2.24838	1.83128	9.88150	5.95807	2.76899	1.04779	0.93018	0.83642	2.08714	1.60080	1.22066	9.97634	6.31717	3.35164
25240	0.48943	0.43920	0.27068	2.63242	2.22973	1.81850	9.88989	5.93666	2.77458	1.00791	0.94259	0.80877	2.09003	1.59107	1.21975	9.95746	6.29553	3.32490
25410	0.48256	0.43534	0.27307	2.65311	2.23780	1.79098	9.88113	5.94129	2.77111	1.00797	0.91885	0.78356	2.08818	1.59084	1.22005	9.99650	6.28251	3.35540
25580	0.46800	0.42843	0.27274	2.66365	2.19778	1.79426	9.87681	5.95640	2.77259	1.00959	0.94378	0.81081	2.08499	1.59331	1.22063	9.99112	6.31106	3.32658
25740	0.48532	0.43986	0.27112	2.65035	2.22612	1.78438	9.88483	5.95990	2.77975	1.01510	0.93641	0.83910	2.08723	1.60899	1.22566	9.98719	6.29976	3.32635
25900	0.46785	0.42792	0.26345	2.65265	2.19646	1.79259	9.88835	5.94701	2.76858	1.00114	0.93610	0.80085	2.07501	1.58749	1.21557	9.96602	6.30561	3.31506
26070	0.48730	0.44577	0.28072	2.68698	2.20887	1.81176	9.87891	5.96316	2.77342	1.01888	0.92487	0.80516	2.09365	1.58915	1.22160	9.96777	6.33197	3.32938
26230	0.51327	0.44215	0.27892	2.65164	2.19228	1.81224	9.87558	5.95014	2.77649	1.02975	0.93164	0.78869	2.09443	1.59217	1.22620	10.00392	6.31085	3.34920	25.69	6.1	0.00	7.26	0.01272	0.01289	0.01661	0.00770	0.00574	0.00630	0.00467	0.01264	0.01684	0.00672	0.00691	0.00886	0.01488	0.01095	0.01196	0.00214	0.00608	0.00857
26390	0.48852	0.43415	0.27162	2.66894	2.19413	1.79143	9.88675	5.94154	2.78248	1.02442	0.91898	0.81758	2.07747	1.58413	1.21702	9.98632	6.30257	3.33763
26560	0.46700	0.43155	0.26881	2.65824	2.22179	1.79414	9.87546	5.95434	2.77990	1.00505	0.91674	0.79791	2.08017	1.58610	1.21935	9.99356	6.32785	3.35954
26720	0.46867	0.43214	0.26326	2.65241	2.19344	1.79721	9.87725	5.93484	2.76447	1.00817	0.97994	0.80504	2.08204	1.58550	1.22403	10.01345	6.33714	3.37189
26890	0.47109	0.43025	0.27206	2.66155	2.22107	1.79616	9.87521	5.94708	2.77166	1.02171	0.94963	0.81519	2.08310	1.60213	1.22992	9.98849	6.29680	3.32398
27050	0.47973	0.44703	0.28784	2.66370	2.21279	1.82060	9.88329	5.95187	2.76522	0.99577	0.93760	0.82030	2.08641	1.60285	1.22003	9.95833	6.28438	3.37932
27210	0.48027	0.44506	0.28037	2.66785	2.24634	1.85744	9.88915	5.94773	2.77940	1.00253	0.92184	0.84987	2.08474	1.58680	1.22738	9.96710	6.28488	3.35790
27380	0.47658	0.43653	0.28597	2.65018	2.21312	1.85287	9.87552	5.94623	2.79908	0.99971	0.94797	0.84500	2.11209	1.60239	1.23863	10.03359	6.38526	3.39193
27540	0.48983	0.45671	0.28689	2.67366	2.20996	1.80113	9.88230	5.96505	2.76741	1.00960	0.94175	0.82727	2.09302	1.60543	1.22687	9.96441	6.29465	3.33220
27710	0.48413	0.43244	0.27700	2.65523	2.21132	1.79476	9.87922	5.94480	2.78300	1.02020	0.91563	0.79653	2.07949	1.58567	1.21442	9.98425	6.29094	3.32181
27870	0.48516	0.44497	0.27385	2.65777	2.19756	1.80799	9.87780	5.95007	2.76324	1.00919	0.94186	0.79479	2.07466	1.59261	1.21125	9.95445	6.31404	3.32279	25.69	6.2	0.00	7.22	0.01272	0.01289	0.01661	0.00770	0.00574	0.00630	0.00467	0.01264	0.01684	0.00672	0.00691	0.00886	0.01488	0.01095	0.01196	0.00214	0.00608	0.00857
28040	0.46813	0.43961	0.28054	2.63821	2.21711	1.80852	9.88662	5.94632	2.76403	1.04452	0.93618	0.81205	2.08665	1.60551	1.22014	9.98893	6.27759	3.32531
28200	0.48154	0.44310	0.28062	2.65936	2.24448	1.84450	9.88311	5.95242	2.76820	1.02159	0.96789	0.85818	2.08679	1.59134	1.22413	9.96806	6.30330	3.36131
28360	0.48416	0.43159	0.27693	2.69626	2.22326	1.82626	9.88415	5.96706	2.76338	1.01103	0.90993	0.78664	2.09278	1.59559	1.22563	9.94589	6.27228	3.30189
28530	0.48469	0.43367	0.27547	2.63858	2.16630	1.78359	9.88175	5.94206	2.76421	0.98695	0.89558	0.78272	2.06620	1.57841	1.20808	9.97002	6.26386	3.30809
28690	0.47622	0.42686	0.27145	2.61849	2.19398	1.78572	9.88483	5.93602	2.76012	0.97393	0.87999	0.77810	2.08854	1.58924	1.21735	9.94095	6.26181	3.30098
28860	0.48588	0.43464	0.26665	2.63633	2.18230	1.78204	9.90163	5.93759	2.78019	1.00460	0.91892	0.80896	2.09257	1.60056	1.21932	9.99731	6.26502	3.31288
29020	0.48854	0.44230	0.29413	2.64453	2.22169	1.85794	9.87780	5.95180	2.79570	1.03199	0.94276	0.81158	2.09694	1.60236	1.22838	10.01275	6.32277	3.33286
29190	0.48136	0.46081	0.28722	2.63786	2.20132	1.77791	9.89150	5.94396	2.76648	1.01419	0.95905	0.84177	2.09549	1.59427	1.22537	9.98304	6.32622	3.35359
29350	0.48884	0.44320	0.29596	2.68449	2.19464	1.79587	9.88385	5.95796	2.78110	1.01358	0.93001	0.79979	2.08803	1.60272	1.22991	9.98469	6.29887	3.40629
29520	0.47090	0.44187	0.28590	2.64864	2.19856	1.82095	9.91057	5.94833	2.76597	1.00601	0.90901	0.82300	2.07748	1.58617	1.22762	9.95597	6.29172	3.34289	25.69	6.2	0.00	7.21	0.01272	0.01289	0.01661	0.00770	0.00574	0.00630	0.00467	0.01264	0.01684	0.00672	0.00691	0.00886	0.01488	0.01095	0.01196	0.00214	0.00608	0.00857
29680	0.47370	0.43690	0.26961	2.67311	2.22574	1.80785	9.87919	5.93598	2.76261	1.00368	0.93041	0.84070	2.08660	1.60413	1.21804	9.98405	6.31080	3.33895
29840	0.49291	0.44396	0.27454	2.69634	2.25058	1.81915	9.89548	5.93754	2.78153	1.04134	0.93690	0.82275	2.09908	1.59984	1.21417	10.01718	6.31290	3.36477
30010	0.49486	0.44661	0.28059	2.66994	2.21354	1.83689	9.88548	5.95758	2.78234	1.03727	0.93281	0.83685	2.10137	1.62720	1.24288	10.00164	6.33694	3.34330
30170	0.47936	0.44493	0.27593	2.64400	2.21429	1.81594	9.88005	5.96568	2.79422	1.03019	0.95298	0.80993	2.10201	1.60261	1.21773	9.96330	6.28927	3.32642
30330	0.47868	0.44160	0.27052	2.65219	2.17557	1.78869	9.87746	5.94154	2.78302	1.00662	0.91826	0.77996	2.08210	1.58854	1.21122	9.96402	6.26731	3.32931
30500	0.46893	0.42511	0.26546	2.64984	2.25052	1.80565	9.88338	5.94771	2.76803	1.01800	0.90475	0.80461	2.07884	1.58388	1.21026	9.96422	6.26755	3.30599
30660	0.47042	0.42101	0.26656	2.63597	2.18369	1.82016	9.89141	5.94782	2.77204	0.99567	0.90180	0.83020	2.07751	1.59126	1.20243	9.95628	6.25288	3.27575
30820	0.47944	0.42731	0.26249	2.60900	2.18791	1.77581	9.88740	5.92648	2.75371	0.96848	0.91033	0.78491	2.06659	1.57648	1.20901	9.97042	6.27847	3.32129
30990	0.46439	0.42736	0.26703	2.63142	2.17398	1.76901	9.86126	5.92832	2.75116	0.98960	0.88572	0.79151	2.07074	1.57542	1.21414	9.95113	6.29997	3.31657
31150	0.46991	0.43184	0.27504	2.65310	2.18821	1.78673	9.87982	5.93813	2.76215	1.02681	0.90872	0.79466	2.08990	1.58445	1.21725	9.95465	6.26879	3.33470	25.63	6.1	0.00	7.21	0.01272	0.01289	0.01661	0.00770	0.00574	0.00630	0.00467	0.01264	0.01684	0.00672	0.00691	0.00886	0.01488	0.01095	0.01196	0.00214	0.00608	0.00857
31310	0.47694	0.45725	0.27635	2.63908	2.22916	1.80351	9.87550	5.95345	2.77071	1.00124	0.89700	0.77513	2.07546	1.58515	1.21876	9.98085	6.26807	3.31483
31480	0.49668	0.43002	0.27068	2.62138	2.18996	1.78782	9.88093	5.94523	2.76635	1.03128	0.93272	0.80702	2.07665	1.57488	1.22662	9.97052	6.27792	3.31717
31640	0.47084	0.42255	0.26769	2.66686	2.21042	1.79807	9.87476	5.94365	2.76184	0.97918	0.91995	0.77436	2.07944	1.59531	1.21649	9.95980	6.27568	3.35485
31800	0.48347	0.43859	0.28092	2.65829	2.22478	1.80951	9.87285	5.92962	2.77283	1.01377	0.92062	0.80324	2.08688	1.59882	1.22875	9.97052	6.32581	3.33096
31970	0.47319	0.42399	0.26990	2.67322	2.22122	1.82187	9.86127	5.93981	2.77921	1.03629	0.94819	0.83231	2.07964	1.59423	1.22695	9.98529	6.29895	3.32690
32130	0.47652	0.42875	0.27228	2.66329	2.17714	1.80107	9.87556	5.94181	2.76660	0.97805	0.90209	0.77494	2.06613	1.58680	1.21742	9.95609	6.28126	3.31721
32290	0.46476	0.42014	0.25389	2.62177	2.17758	1.77685	9.86220	5.92526	2.75371	0.96281	0.89197	0.78450	2.06867	1.58029	1.21190	9.94280	6.24952	3.30219
32460	0.46752	0.42441	0.25546	2.60850	2.15574	1.77982	9.85241	5.92795	2.75944	0.97386	0.89991	0.78190	2.06274	1.57532	1.21013	9.95094	6.28326	3.31359
32620	0.46713	0.41977	0.26281	2.64944	2.17101	1.77444	9.86798	5.93549	2.75384	0.96914	0.91145	0.79203	2.06391	1.57114	1.21450	9.95042	6.25462	3.30131
32780	0.47180	0.41898	0.26910	2.61033	2.17723	1.81027	9.87665	5.94553	2.77272	1.01375	0.91479	0.80045	2.08203	1.59893	1.23349	9.96115	6.29997	3.37373	25.69	6.1	0.00	7.27	0.01272	0.01289	0.01661	0.00770	0.00574	0.00630	0.00467	0.01264	0.01684	0.00672	0.00691	0.00886	0.01488	0.01095	0.01196	0.00214	0.00608	0.00857
32950	0.47509	0.43661	0.26902	2.65715	2.23412	1.82346	9.87838	5.93518	2.76738	0.98979	0.90653	0.80627	2.08091	1.59737	1.22648	9.95486	6.26909	3.31648
33110	0.47881	0.43260	0.28334	2.63172	2.18411	1.78330	9.87560	5.95833	2.77544	1.00801	0.92080	0.80567	2.08341	1.58839	1.22485	9.99036	6.28868	3.32912
33270	0.47306	0.42609	0.26046	2.62259	2.18171	1.79000	9.86076	5.93462	2.76689	0.99213	0.93102	0.77437	2.08518	1.58399	1.22729	10.00671	6.27761	3.32709
33440	0.48231	0.44069	0.27694	2.62743	2.19151	1.78298	9.87135	5.94351	2.77470	1.01477	0.91056	0.82084	2.07587	1.58595	1.22137	9.97198	6.30436	3.35876
33600	0.46895	0.42933	0.26805	2.65052	2.20522	1.79096	9.86396	5.93865	2.76663	1.02969	0.92821	0.81413	2.08579	1.59412	1.22500	9.99099	6.32055	3.35259
33770	0.47973	0.44366	0.26191	2.63556	2.19848	1.80542	9.89442	5.96306	2.79725	1.00708	0.95343	0.80464	2.08838	1.58952	1.22702	9.94261	6.29913	3.34826
33930	0.47880	0.43908	0.28470	2.64506	2.20128	1.80719	9.86267	5.96292	2.76688	1.03872	0.93445	0.79848	2.07810	1.59752	1.22732	9.95651	6.27694	3.31975
34090	0.47292	0.43889	0.27220	2.63970	2.18552	1.80128	9.87604	5.92706	2.76542	1.00126	0.91379	0.79007	2.07800	1.58665	1.21037	9.95568	6.28144	3.30810
34260	0.47545	0.42833	0.25927	2.63252	2.18817	1.77456	9.88103	5.93542	2.76438	0.98423	0.88949	0.79155	2.08239	1.58135	1.21028	9.96012	6.27815	3.33053
34420	0.46788	0.42749	0.26480	2.63673	2.18083	1.78947	9.86832	5.92772	2.76372	0.99048	0.89754	0.77393	2.06881	1.59472	1.24154	9.97425	6.32189	3.31846	25.69	6.1	0.00	7.26	0.01272	0.01289	0.01661	0.00770	0.00574	0.00630	0.00467	0.01264	0.01684	0.00672	0.00691	0.00886	0.01488	0.01095	0.01196	0.00214	0.00608	0.00857
34590	0.51344	0.46666	0.30004	2.63984	2.25420	1.83036	9.89188	5.96369	2.79356	1.07627	0.99084	0.87949	2.13742	1.62113	1.25407	10.02457	6.32514	3.39663
34750	0.52346	0.47781	0.29323	2.71236	2.24684	1.82171	9.88756	5.96190	2.80599	1.03596	0.98279	0.86809	2.09788	1.61299	1.24593	10.03246	6.31100	3.38403
34910	0.50826	0.47259	0.28934	2.69169	2.23665	1.87196	9.89701	5.97891	2.81248	1.16084	1.21429	0.99679	2.11269	1.61711	1.25205	10.01046	6.33988	3.35975
35080	0.49429	0.43502	0.27674	2.68803	2.23449	1.83255	9.88071	5.95332	2.77550	1.05728	0.94929	0.79950	2.10053	1.59386	1.22122	9.98365	6.34978	3.33674
35240	0.49361	0.43351	0.26113	2.66149	2.20858	1.77959	9.87005	5.95801	2.77736	1.04869	0.94249	0.82861	2.09944	1.61384	1.24464	9.98903	6.30996	3.34720
35410	0.48967	0.47070	0.29226	2.72200	2.27199	1.85865	9.91686	5.96902	2.81936	1.04673	0.95287	0.84878	2.09264	1.60560	1.21885	10.02042	6.30364	3.41320
35570	0.48804	0.43999	0.29541	2.74390	2.26196	1.90393	9.88312	5.95767	2.78085	1.05001	0.95280	0.82929	2.08557	1.59198	1.22891	9.99099	6.28024	3.37771
35740	0.49801	0.43920	0.29565	2.66001	2.19654	1.80030	9.88546	5.94323	2.78399	1.01292	0.94148	0.81224	2.08535	1.58806	1.22057	9.96970	6.33307	3.31476
35900	0.47483	0.43371	0.27066	2.69223	2.22409	1.81153	9.87221	5.95499	2.79055	1.04591	0.94995	0.81936	2.08638	1.61121	1.23653	9.97259	6.29937	3.31659
36060	0.50305	0.44723	0.29758	2.67313	2.22754	1.81235	9.92264	5.96389	2.78192	1.00974	0.96941	0.83210	2.11277	1.60106	1.27876	10.00171	6.32847	3.42908	25.69	6.2	0.00	7.24	0.01272	0.01289	0.01661	0.00770	0.00574	0.00630	0.00467	0.01264	0.01684	0.00672	0.00691	0.00886	0.01488	0.01095	0.01196	0.00214	0.00608	0.00857
36230	0.48581	0.44567	0.26992	2.67741	2.27452	1.82632	9.90797	5.95006	2.79989	1.03094	0.94535	0.79472	2.09751	1.59422	1.22573	9.99613	6.28963	3.30906
36390	0.48362	0.44646	0.27756	2.63758	2.20645	1.78831	9.86521	5.94490	2.77050	0.99433	0.89670	0.78568	2.09330	1.59020	1.21463	9.98703	6.28154	3.31812
36560	0.48457	0.43017	0.26044	2.64329	2.19626	1.78523	9.85979	5.94831	2.77341	0.99808	0.91364	0.80284	2.08152	1.59315	1.22315	9.95679	6.29061	3.33363
36720	0.46591	0.43252	0.27015	2.64522	2.21634	1.79083	9.89654	5.94691	2.76278	1.00880	0.93566	0.80790	2.09140	1.58855	1.21822	9.97711	6.28023	3.31508
36880	0.46882	0.42335	0.27576	2.63202	2.21434	1.78342	9.88265	5.94807	2.77534	1.00179	0.93110	0.78682	2.08305	1.59298	1.21481	10.01725	6.28092	3.36206
37050	0.49042	0.42522	0.27143	2.63972	2.20859	1.80113	9.88098	5.93889	2.77419	1.02428	0.93841	0.79843	2.07834	1.58890	1.22812	9.98527	6.29012	3.31667
37210	0.47404	0.43742	0.28802	2.64932	2.21050	1.81309	9.89672	5.95207	2.77028	1.03311	0.94404	0.81653	2.07777	1.58901	1.22885	10.01083	6.32388	3.36089
37380	0.48807	0.44401	0.27396	2.63871	2.27261	1.78840	9.87316	5.93241	2.77858	1.01700	0.94708	0.82757	2.08525	1.59994	1.22828	9.98114	6.29311	3.37103
37540	0.48095	0.44249	0.28882	2.72266	2.30249	1.84653	9.87876	5.97400	2.79991	1.11598	1.04119	0.93921	2.11644	1.62449	1.27553	10.09698	6.36814	3.49681
37700	0.52682	0.50875	0.34477	2.79956	2.36282	1.95282	9.98037	6.05467	2.87363	1.14689	1.08146	0.91295	2.17935	1.69426	1.29189	10.04207	6.45994	3.45415	25.69	6.1	0.00	7.21	0.01272	0.01289	0.01661	0.00770	0.00575	0.00630	0.00467	0.01264	0.01684	0.00672	0.00691	0.00886	0.01488	0.01095	0.01196	0.00214	0.00608	0.00857
37870	0.56543	0.48728	0.32039	2.76808	2.36103	1.89111	9.94176	6.01679	2.81948	1.07141	1.04460	0.94634	2.11571	1.63209	1.30193	10.06299	6.42111	3.39787
38030	0.50531	0.45420	0.28944	2.70062	2.27138	1.85446	9.89904	5.94183	2.78234	1.05051	0.96848	0.83821	2.11125	1.59605	1.24844	10.01352	6.35869	3.35400
38200	0.48332	0.44102	0.27591	2.67204	2.25002	1.82648	9.89218	5.94563	2.77028	1.00633	0.92797	0.80005	2.08699	1.59965	1.23369	10.00636	6.28945	3.35624
38360	0.48318	0.43709	0.27772	2.65050	2.20442	1.79953	9.86727	5.93508	2.76259	1.00161	0.91364	0.77250	2.06727	1.58086	1.21782	9.97936	6.28420	3.30517
38530	0.46324	0.42220	0.27396	2.65135	2.17913	1.78817	9.89231	5.94489	2.76408	1.02238	0.91658	0.78433	2.08090	1.58032	1.20654	9.94748	6.25265	3.32523
38690	0.46873	0.42440	0.26693	2.63468	2.18592	1.78562	9.86801	5.94632	2.77688	0.99803	0.91241	0.79342	2.06692	1.57984	1.20427	9.93750	6.27622	3.32165
38850	0.46619	0.41690	0.25831	2.64617	2.21844	1.77086	9.85846	5.96092	2.78916	1.00321	0.92953	0.78666	2.06785	1.57538	1.21657	9.97306	6.27012	3.36224
39020	0.46060	0.41444	0.26012	2.61201	2.19125	1.77825	9.87115	5.92991	2.76285	0.98342	0.90611	0.78593	2.06909	1.57305	1.21031	9.95397	6.27867	3.31118
39180	0.47752	0.42088	0.25838	2.64418	2.20393	1.77849	9.88700	5.94927	2.77003	0.99547	0.90548	0.77975	2.06730	1.58227	1.20786	9.96263	6.26945	3.29986
39340	0.46507	0.42940	0.26813	2.61813	2.20829	1.80207	9.87288	5.92764	2.76846	0.98574	0.90659	0.79822	2.07720	1.57669	1.21001	9.95056	6.26878	3.32405	25.69	6.2	0.00	7.17	0.01272	0.01289	0.01661	0.00770	0.00575	0.00630	0.00467	0.01264	0.01684	0.00672	0.00691	0.00886	0.01488	0.01095	0.01196	0.00214	0.00608	0.00857
39510	0.46904	0.42073	0.25825	2.65218	2.18002	1.78221	9.86727	5.93427	2.75618	1.00637	0.91016	0.76365	2.08539	1.59376	1.20518	9.97788	6.27851	3.30761
39670	0.47360	0.42465	0.26081	2.65236	2.20412	1.77990	9.86007	5.93224	2.75272	1.01805	0.89432	0.78593	2.07716	1.59643	1.22164	9.98015	6.29147	3.33963
39840	0.48316	0.43663	0.26957	2.67076	2.20200	1.80074	9.88953	5.94209	2.76247	1.03133	0.95477	0.81607	2.08716	1.59578	1.21373	9.97272	6.29471	3.31775
40000	0.47356	0.42652	0.27246	2.66672	2.21220	1.83252	9.86204	5.93626	2.75950	0.99504	0.93749	0.79136	2.07610	1.58734	1.22085	9.99059	6.30650	3.30856
40160	0.47363	0.44897	0.27950	2.62892	2.19740	1.78429	9.89663	5.93931	2.75866	1.00112	0.92307	0.79813	2.07959	1.58145	1.22028	9.94737	6.29726	3.30846
40330	0.47631	0.41860	0.26363	2.65421	2.18901	1.77528	9.86389	5.93868	2.79177	1.00839	0.90564	0.79446	2.07629	1.60246	1.22816	9.96973	6.28675	3.31989
40490	0.47352	0.43125	0.27333	2.65175	2.18825	1.78877	9.87386	5.95440	2.77058	1.01139	0.91439	0.81433	2.07222	1.58212	1.22811	9.95767	6.30407	3.33026
40660	0.47638	0.44542	0.27763	2.68811	2.22201	1.82224	9.86623	5.93395	2.75488	1.00642	0.93885	0.79277	2.07125	1.57677	1.21876	10.01077	6.30504	3.33736
40820	0.46970	0.42922	0.26674	2.66238	2.20311	1.80973	9.89849	5.97651	2.76263	1.04378	0.94995	0.80064	2.07995	1.58111	1.22155	10.00300	6.29892	3.32607
40990	0.48159	0.42998	0.26972	2.67331	2.21093	1.78874	9.88206	5.94587	2.77531	1.03302	0.91890	0.78056	2.07768	1.59317	1.22502	9.97325	6.28222	3.32623	25.63	6.2	0.00	7.21	0.01272	0.01289	0.01661	0.00770	0.00575	0.00630	0.00467	0.01264	0.01684	0.00672	0.00691	0.00887	0.01488	0.01095	0.01196	0.00214	0.00608	0.00857
41150	0.48071	0.43610	0.26721	2.63048	2.19714	1.78604	9.90670	5.93527	2.75773	0.99953	0.89832	0.77576	2.07428	1.58501	1.20998	9.96768	6.27679	3.32742
41310	0.45856	0.43051	0.25875	2.66037	2.21349	1.79989	9.88786	5.93263	2.77061	1.01277	0.92686	0.81401	2.07995	1.57980	1.22168	10.00311	6.30584	3.34949
41480	0.49119	0.43448	0.28873	2.63042	2.22064	1.82498	9.90980	5.95585	2.77691	1.04180	0.93471	0.83562	2.09383	1.59493	1.24117	9.98905	6.31684	3.34313
41640	0.47979	0.44659	0.27477	2.66164	2.20387	1.83284	9.88854	5.95198	2.78759	1.01881	0.91719	0.79810	2.07691	1.58518	1.21085	9.95419	6.27896	3.31099
41810	0.46689	0.42498	0.27892	2.65813	2.20886	1.80646	9.88336	5.94154	2.76349	1.01907	0.89994	0.81721	2.08190	1.61000	1.22768	9.99246	6.29390	3.30493
41970	0.46671	0.43827	0.27780	2.66287	2.18484	1.83629	9.85515	5.94512	2.77451	1.01121	0.92477	0.80975	2.07616	1.59914	1.22516	9.96768	6.26975	3.34327
42130	0.47793	0.43620	0.27654	2.65540	2.19767	1.79808	9.87195	5.95095	2.75921	1.02745	0.93711	0.79428	2.08110	1.59052	1.23556	10.00684	6.29964	3.34865
42300	0.47820	0.43017	0.28422	2.66054	2.23121	1.81238	9.89076	5.93560	2.76286	1.02808	0.93332	0.82652	2.07894	1.59175	1.22464	10.00684	6.29053	3.31059
42460	0.48239	0.44150	0.27030	2.62894	2.18294	1.78327	9.87158	5.93493	2.76007	1.00443	0.91818	0.77446	2.08237	1.58794	1.21103	9.96954	6.26905	3.30768
42630	0.46734	0.42454	0.27021	2.61510	2.16858	1.77354	9.86628	5.94010	2.75832	0.99757	0.87029	0.76162	2.07635	1.58047	1.21415	9.96604	6.27770	3.30592	25.69	6.1	0.00	7.24	0.01272	0.01289	0.01661	0.00770	0.00575	0.00630	0.00467	0.01264	0.01684	0.00672	0.00691	0.00886	0.01488	0.01095	0.01196	0.00214	0.00608	0.00857
42790	0.46231	0.42473	0.26385	2.63323	2.17648	1.78987	9.87700	5.94408	2.74462	1.01205	0.90843	0.79318	2.07729	1.58949	1.22035	9.97037	6.27993	3.32716
42960	0.47942	0.42492	0.27308	2.65053	2.19756	1.77566	9.87429	5.94219	2.76190	0.98642	0.89795	0.80263	2.09036	1.58643	1.21903	9.98193	6.26328	3.29374
43120	0.46581	0.42679	0.26014	2.61774	2.16093	1.78957	9.86468	5.92722	2.75132	0.99498	0.89764	0.79651	2.07951	1.58763	1.20551	9.96769	6.26306	3.29966
43290	0.47397	0.42478	0.27211	2.62445	2.17395	1.75986	9.87114	5.93628	2.75386	0.99134	0.93801	0.79008	2.07604	1.59626	1.21270	9.97842	6.30277	3.29042
43450	0.46757	0.42718	0.27453	2.63972	2.22552	1.78120	9.88459	5.96407	2.77296	1.00161	0.91174	0.79982	2.08443	1.60727	1.26705	9.95975	6.27901	3.30845
43620	0.47317	0.41788	0.26928	2.64189	2.21939	1.77135	9.86486	5.93032	2.75870	1.00425	0.92778	0.84509	2.08133	1.58600	1.21494	9.98947	6.28220	3.31436
43780	0.47725	0.43390	0.27095	2.65238	2.20200	1.78532	9.88638	5.94023	2.76831	1.01250	0.90331	0.81378	2.07137	1.57980	1.22131	9.97347	6.29012	3.33830
43940	0.47121	0.42926	0.26542	2.63750	2.19577	1.79832	9.86936	5.93354	2.76512	1.01416	0.92194	0.78996	2.07348	1.58313	1.22172	9.97894	6.31874	3.35650
44110	0.47608	0.42913	0.27047	2.67058	2.19377	1.78932	9.87244	5.93137	2.75040	0.99496	0.89972	0.78521	2.07232	1.59108	1.22541	9.97254	6.30369	3.31700
44270	0.46966	0.42801	0.25744	2.67266	2.20346	1.80120	9.85039	5.94633	2.78600	0.99096	0.91053	0.81693	2.07726	1.60652	1.22951	9.96440	6.27688	3.36117	25.69	6.0	0.00	7.23	0.01272	0.01289	0.01661	0.00770	0.00575	0.00630	0.00467	0.01264	0.01684	0.00672	0.00691	0.00886	0.01488	0.01095	0.01196	0.00214	0.00608	0.00857
44440	0.49362	0.44759	0.28601	2.65347	2.22726	1.79262	9.88982	5.95859	2.77329	1.01504	0.90491	0.82002	2.08661	1.59362	1.21994	9.95987	6.29134	3.32051
44600	0.48282	0.44017	0.26708	2.65793	2.19786	1.81270	9.88087	5.94474	2.75864	1.02850	0.92268	0.81544	2.06957	1.59481	1.21471	9.98897	6.28345	3.31358
44770	0.47167	0.42978	0.25888	2.64788	2.18892	1.78151	9.86048	5.94607	2.75903	0.97770	0.92081	0.79285	2.07564	1.58721	1.21246	9.96976	6.28484	3.33157
44930	0.48074	0.43140	0.26620	2.63660	2.20122	1.78533	9.88143	5.94463	2.75763	1.01678	0.94415	0.79520	2.08249	1.59755	1.23373	9.96234	6.29411	3.31366
45100	0.46809	0.43071	0.27341	2.61495	2.18821	1.82834	9.90632	5.94032	2.76459	1.04618	0.91090	0.81212	2.09663	1.58576	1.23028	10.00065	6.30751	3.32349
45260	0.48888	0.43416	0.26640	2.64390	2.18161	1.77592	9.86122	5.94676	2.75690	1.01156	0.91994	0.78905	2.08106	1.58519	1.20623	9.96770	6.26666	3.29181
45420	0.45956	0.42994	0.26298	2.61916	2.19286	1.80820	9.88525	5.93654	2.76742	0.99041	0.89335	0.76813	2.07268	1.58408	1.21382	9.96440	6.27433	3.34482
45590	0.46097	0.41952	0.25447	2.62405	2.18704	1.76622	9.86202	5.93378	2.75116	0.97679	0.90358	0.78841	2.06864	1.57909	1.21186	9.95194	6.27646	3.28692
45750	0.46373	0.42584	0.25294	2.64786	2.19435	1.75947	9.86516	5.93679	2.76786	0.98869	0.90567	0.78092	2.06490	1.58029	1.21767	9.96213	6.25193	3.29841
45920	0.45778	0.41652	0.25828	2.60270	2.17851	1.75734	9.87748	5.92562	2.76037	0.96979	0.87703	0.77973	2.08098	1.58309	1.21171	9.95887	6.26103	3.28430	25.69	6.1	0.00	7.20	0.01272	0.01289	0.01661	0.00770	0.00575	0.00630	0.00467	0.01264	0.01684	0.00672	0.00691	0.00886	0.01488	0.01095	0.01196	0.00214	0.00608	0.00857
46080	0.46107	0.42425	0.26345	2.63137	2.18666	1.80353	9.86601	5.92470	2.76467	0.99817	0.90674	0.78500	2.07368	1.57780	1.22067	9.93499	6.25560	3.32180
46240	0.46902	0.43067	0.26221	2.63435	2.18031	1.77595	9.89321	5.94608	2.75645	0.99213	0.90043	0.78334	2.06985	1.57724	1.21042	9.96949	6.26187	3.31136
46410	0.46003	0.42544	0.26098	2.62365	2.18525	1.80749	9.87778	5.93315	2.76768	0.97359	0.91009	0.80121	2.08366	1.61486	1.24050	9.96526	6.30042	3.34627
46570	0.49503	0.44448	0.28712	2.66544	2.22942	1.82370	9.88087	5.96484	2.79299	0.99329	0.90532	0.79536	2.08796	1.60254	1.22634	9.99283	6.31621	3.36670
46740	0.48720	0.43458	0.27597	2.65533	2.19742	1.81328	9.87254	5.94166	2.77637	1.00459	0.92154	0.80797	2.07472	1.59743	1.23878	9.95681	6.30545	3.35458
46900	0.49557	0.44283	0.28751	2.65091	2.21021	1.78018	9.88661	5.95528	2.77353	0.97337	0.93336	0.79734	2.08255	1.58350	1.21403	9.95599	6.27369	3.33051
47060	0.48605	0.42070	0.27185	2.63226	2.23357	1.82645	9.88426	5.96060	2.76414	1.00683	0.91801	0.77925	2.09189	1.60164	1.23270	10.00566	6.28515	3.29021
47230	0.47659	0.42818	0.27092	2.63909	2.18613	1.79610	9.90606	5.93977	2.77140	1.02398	0.89994	0.84368	2.07316	1.59071	1.21973	9.99087	6.34860	3.36817
47390	0.47818	0.43222	0.26768	2.62816	2.16261	1.78770	9.88204	5.94505	2.77339	0.99252	0.88988	0.77235	2.08398	1.58050	1.20418	9.95671	6.27124	3.29201
47560	0.46074	0.42032	0.26286	2.62746	2.17169	1.74937	9.87151	5.92741	2.75422	0.99009	0.88553	0.76053	2.07668	1.57566	1.21150	9.95893	6.26786	3.28823	25.75	6.1	0.00	7.28	0.01272	0.01289	0.01661	0.00770	0.00575	0.00630	0.00467	0.01264	0.01684	0.00672	0.00691	0.00886	0.01488	0.01095	0.01196	0.00214	0.00608	0.00857
47720	0.46659	0.41233	0.25836	2.63191	2.16097	1.77903	9.87126	5.95000	2.76507	0.97574	0.89620	0.78590	2.06705	1.59105	1.20312	9.97079	6.32593	3.34839
47880	0.48198	0.45284	0.27458	2.65994	2.19731	1.82851	9.90126	5.96785	2.77761	1.03304	0.94093	0.81448	2.09082	1.60574	1.23926	10.00728	6.33666	3.31420
48050	0.48438	0.43717	0.28992	2.64104	2.20504	1.80459	9.91072	5.96214	2.77196	1.00622	0.90461	0.79802	2.08465	1.60109	1.21399	9.97967	6.29169	3.31810
48210	0.48186	0.42575	0.26250	2.63529	2.18951	1.80562	9.88958	5.95058	2.75946	0.99063	0.88874	0.78411	2.07287	1.59413	1.21226	9.95295	6.28835	3.30036
48380	0.46230	0.42125	0.26319	2.62440	2.17539	1.76052	9.88711	5.94904	2.76546	0.99646	0.90851	0.76188	2.07337	1.58546	1.20880	9.97182	6.25444	3.28079
48540	0.46868	0.41794	0.25473	2.61441	2.16829	1.76703	9.88792	5.92626	2.75591	0.97454	0.89490	0.75772	2.06799	1.58519	1.21165	9.97461	6.28504	3.31816
48700	0.46967	0.42672	0.25693	2.64016	2.18313	1.78765	9.90762	5.94336	2.76148	0.96485	0.88732	0.78060	2.06961	1.58352	1.21315	9.97357	6.27327	3.29111
48870	0.46889	0.42377	0.25700	2.61866	2.16738	1.79055	9.88687	5.94449	2.75766	0.98035	0.87797	0.78460	2.08002	1.59274	1.21910	9.99103	6.28897	3.30180
49030	0.47210	0.42325	0.25966	2.64995	2.18652	1.77057	9.88717	5.94505	2.76933	1.01155	0.89194	0.78003	2.07952	1.59533	1.21366	9.96862	6.31223	3.30715
49200	0.47066	0.43086	0.26929	2.64495	2.17960	1.78659	9.87414	5.94828	2.76369	1.00658	0.90971	0.79100	2.08375	1.58428	1.21867	9.96345	6.27546	3.28800	25.69	6.1	0.00	7.20	0.01272	0.01289	0.01661	0.00770	0.00574	0.00630	0.00467	0.01264	0.01684	0.00672	0.00691	0.00886	0.01488	0.01095	0.01196	0.00214	0.00608	0.00857
49360	0.47539	0.43052	0.26652	2.65483	2.18886	1.77562	9.89487	5.95319	2.76271	0.98462	0.90352	0.78568	2.07728	1.58741	1.21312	9.96861	6.27899	3.30125
49520	0.47295	0.42316	0.25952	2.63450	2.19060	1.77228	9.90884	5.96643	2.77398	0.98933	0.90505	0.79568	2.09110	1.58984	1.21608	9.99196	6.26232	3.29693
49690	0.48015	0.43577	0.26741	2.60782	2.17337	1.78279	9.93144	5.94491	2.77949	0.97448	0.88695	0.78637	2.08052	1.58418	1.21606	9.99538	6.27610	3.29829
49850	0.46394	0.42432	0.26469	2.62155	2.19248	1.77605	9.90284	5.95114	2.76258	0.99521	0.90578	0.77766	2.08830	1.58471	1.20669	9.95963	6.29409	3.32560
50010	0.47378	0.42431	0.27089	2.64267	2.18225	1.80894	9.90952	5.95255	2.77344	1.01831	0.90588	0.77930	2.09168	1.59787	1.22463	10.00004	6.29037	3.32967
50180	0.47240	0.43094	0.26996	2.63435	2.20034	1.78000	9.89438	5.94982	2.77615	0.99126	0.90995	0.77520	2.07868	1.57911	1.21301	9.97780	6.27749	3.32673
50340	0.47310	0.42045	0.27122	2.62316	2.19440	1.78467	9.89765	5.95942	2.76621	0.99836	0.89978	0.80538	2.08209	1.58641	1.21941	9.99652	6.32759	3.34386
50510	0.47656	0.41856	0.26420	2.63714	2.21669	1.79838	9.90927	5.95211	2.77060	0.99490	0.91685	0.78798	2.10124	1.59203	1.22003	9.98142	6.31106	3.33395
50670	0.48198	0.42922	0.26624	2.66299	2.19060	1.81077	9.90680	5.95288	2.76207	1.05076	0.91482	0.79079	2.08475	1.59362	1.21099	9.99942	6.33403	3.33628
50840	0.47594	0.43046	0.27102	2.63816	2.19409	1.78618	9.92129	5.96149	2.76975	0.98430	0.91337	0.78262	2.07126	1.58025	1.21572	10.00046	6.28304	3.30124	25.75	5.9	0.00	7.21	0.01272	0.01289	0.01661	0.00770	0.00574	0.00630	0.00467	0.01264	0.01684	0.00672	0.00691	0.00886	0.01488	0.01095	0.01196	0.00214	0.00607	0.00856
51000	0.46420	0.41916	0.26455	2.62451	2.17223	1.77601	9.92284	5.95940	2.76212	1.00305	0.88560	0.78506	2.07248	1.57912	1.21191	9.98504	6.28138	3.30839
51160	0.46830	0.42330	0.26573	2.63431	2.20062	1.78960	9.93412	5.96105	2.77237	0.99332	0.92366	0.80286	2.08326	1.58950	1.24964	9.99570	6.28279	3.32656
51330	0.48061	0.43516	0.27704	2.66069	2.20435	1.80623	9.90916	5.96830	2.77851	0.99865	0.88775	0.79561	2.08246	1.60880	1.23136	9.99373	6.31679	3.33594
51490	0.48007	0.43499	0.27644	2.65292	2.18583	1.78637	9.93009	5.97149	2.78716	1.02013	0.92237	0.78712	2.10612	1.59618	1.21771	10.00699	6.31468	3.31658
51650	0.48144	0.45999	0.28988	2.64478	2.21192	1.80750	9.94715	6.00352	2.80206	1.03818	0.94486	0.80551	2.10789	1.59944	1.22640	9.99756	6.30307	3.31115
51820	0.49749	0.43390	0.26532	2.65719	2.22562	1.83781	9.91615	5.97608	2.76486	1.02004	0.93375	0.78123	2.09678	1.59092	1.21581	10.03978	6.30580	3.33609
51980	0.47723	0.43456	0.28037	2.63081	2.19721	1.80658	9.91999	5.97211	2.77903	0.99048	0.90763	0.78101	2.08214	1.58974	1.20953	9.98111	6.28896	3.32562
52150	0.47500	0.43199	0.26648	2.63253	2.17022	1.76757	9.92402	5.97218	2.77818	1.00117	0.88451	0.77157	2.07471	1.57760	1.21601	10.00895	6.29133	3.32425
52310	0.46136	0.42531	0.26178	2.63879	2.20681	1.78659	9.88889	5.98499	2.77118	0.98155	0.91123	0.77014	2.09027	1.59923	1.22166	9.98763	6.26362	3.33872
52470	0.47520	0.43648	0.26667	2.65003	2.17088	1.80029	9.90141	5.95156	2.78397	1.00591	0.91932	0.77791	2.07525	1.59745	1.21839	9.97780	6.28558	3.31193	25.75	6.0	0.00	7.23	0.01272	0.01288	0.01661	0.00770	0.00574	0.00630	0.00467	0.01264	0.01684	0.00672	0.00691	0.00886	0.01488	0.01095	0.01196	0.00214	0.00608	0.00857
52640	0.47003	0.43661	0.27638	2.63594	2.18837	1.79991	9.91662	5.98121	2.78609	1.02414	0.92564	0.77364	2.09638	1.59421	1.21867	9.99775	6.28976	3.30304
52800	0.47044	0.42541	0.26816	2.63206	2.16363	1.76728	9.88300	5.96021	2.77684	1.01488	0.90924	0.78186	2.07441	1.57711	1.20842	9.99165	6.27428	3.32157
52960	0.46377	0.41870	0.27081	2.66125	2.18276	1.76555	9.89597	5.95624	2.76528	0.97268	0.88219	0.78276	2.08621	1.58319	1.21459	9.96654	6.25527	3.28906
53130	0.46449	0.41975	0.26680	2.61255	2.16661	1.77830	9.89053	5.96165	2.76432	0.99252	0.87801	0.78291	2.08636	1.58755	1.21235	9.95840	6.29392	3.30355
53290	0.48079	0.41917	0.26851	2.62804	2.19614	1.76445	9.92319	5.96781	2.78323	0.98814	0.89777	0.78689	2.09569	1.62138	1.22499	9.99082	6.28295	3.33530
53450	0.49362	0.44563	0.29706	2.65671	2.20789	1.82966	9.95682	5.99964	2.80578	1.05718	0.97373	0.85100	2.10953	1.62008	1.25263	10.03893	6.39460	3.38536
53620	0.49164	0.44702	0.29767	2.70402	2.24762	1.85294	9.95433	5.98728	2.79802	1.06317	0.92739	0.88206	2.12399	1.62483	1.24051	10.00790	6.34398	3.35247
53780	0.48383	0.44580	0.28285	2.68488	2.24935	1.83786	9.94011	5.97153	2.78723	1.06574	0.92368	0.82979	2.10345	1.59821	1.24553	10.01101	6.31888	3.36372
53950	0.47781	0.42805	0.28445	2.66745	2.23526	1.82658	9.90703	5.96198	2.79011	0.99595	0.93308	0.80720	2.07658	1.57697	1.22036	10.01080	6.31017	3.28722
54110	0.48139	0.42954	0.27497	2.63624	2.17812	1.79331	9.91380	5.95145	2.76893	0.98950	0.91523	0.78597	2.08626	1.59835	1.21979	10.03884	6.29631	3.31576	25.69	6.1	0.00	7.23	0.01271	0.01289	0.01661	0.00770	0.00574	0.00630	0.00467	0.01264	0.01684	0.00672	0.00691	0.00886	0.01488	0.01095	0.01196	0.00214	0.00608	0.00857
54280	0.47191	0.41891	0.27296	2.66396	2.19101	1.81827	9.89964	5.95940	2.76577	1.01068	0.91316	0.80047	2.08295	1.57569	1.21039	9.97557	6.30444	3.33421
54440	0.46810	0.43902	0.28962	2.62135	2.18208	1.78079	9.90873	5.95726	2.77032	0.97372	0.89181	0.76463	2.08078	1.58685	1.20705	9.96917	6.26950	3.29424
54600	0.46123	0.43125	0.26672	2.62690	2.16139	1.77109	9.91789	5.95725	2.75514	0.97335	0.87624	0.75541	2.09791	1.60320	1.23584	10.00462	6.28614	3.34037
54770	0.47167	0.43053	0.27072	2.65234	2.18804	1.80788	9.92229	5.97119	2.77964	1.01701	0.89468	0.75525	2.09264	1.59204	1.22504	9.97671	6.32439	3.29825
54930	0.49101	0.44543	0.26943	2.62978	2.19117	1.77454	9.91807	5.95635	2.76577	0.98946	0.89667	0.77141	2.09675	1.59802	1.22865	10.00245	6.30811	3.31785
55100	0.48652	0.44537	0.27460	2.64866	2.21203	1.77265	9.91368	5.96558	2.77664	0.98900	0.89486	0.79306	2.09490	1.59484	1.20739	10.02390	6.29054	3.28710
55260	0.46913	0.42282	0.26030	2.64870	2.17284	1.77491	9.91207	5.96449	2.77570	0.97006	0.88104	0.76445	2.08246	1.59552	1.22783	9.98228	6.27353	3.30800
55430	0.46715	0.42161	0.26088	2.64617	2.17945	1.77731	9.92049	5.96492	2.76408	0.97507	0.91252	0.78922	2.08845	1.59613	1.22101	10.00276	6.28864	3.30988
55590	0.48274	0.44293	0.27294	2.60577	2.16400	1.75889	9.92445	5.96858	2.77115	0.98112	0.87175	0.77434	2.07956	1.58981	1.22212	9.99903	6.27533	3.28678
55760	0.46889	0.42649	0.26693	2.61575	2.19019	1.78596	9.91964	5.95230	2.76609	0.99389	0.89408	0.76404	2.08085	1.57957	1.20966	10.02224	6.27870	3.31036	25.69	6.1	0.00	7.28	0.01272	0.01289	0.01661	0.00770	0.00575	0.00630	0.00467	0.01264	0.01684	0.00672	0.00691	0.00886	0.01488	0.01095	0.01196	0.00214	0.00608	0.00857
55920	0.46598	0.41862	0.26032	2.64536	2.15025	1.75805	9.91704	5.95958	2.76800	0.96116	0.87999	0.77414	2.08775	1.59279	1.20738	9.98169	6.26038	3.28154
56080	0.46555	0.43038	0.26055	2.61203	2.15334	1.74837	9.91710	5.96439	2.77626	1.05208	0.89156	0.78160	2.08634	1.58478	1.20966	9.97756	6.31264	3.31559
56250	0.46117	0.41592	0.25605	2.62343	2.18286	1.78043	9.90257	5.95971	2.76866	0.98841	0.89198	0.77460	2.08219	1.58613	1.21917	10.01375	6.28320	3.33015
56410	0.47318	0.42856	0.27218	2.65612	2.20735	1.76841	9.92831	6.10402	2.81245	0.98823	0.92156	0.79161	2.08501	1.59737	1.22754	9.98820	6.29181	3.34898
56570	0.46352	0.42730	0.26562	2.62074	2.17486	1.77135	9.93619	5.97327	2.77502	0.98567	0.88021	0.75865	2.08505	1.58892	1.21461	9.99874	6.26206	3.29393
56740	0.48024	0.42122	0.26931	2.62698	2.17419	1.77456	9.92230	5.95909	2.77530	0.96497	0.89197	0.77428	2.08174	1.58403	1.21391	10.01499	6.27989	3.30960
56900	0.47717	0.41884	0.26556	2.61962	2.16549	1.76018	9.93216	5.96101	2.77234	0.97530	0.85224	0.75810	2.08333	1.59881	1.21828	9.97529	6.27213	3.30169
57060	0.46622	0.41512	0.25473	2.62098	2.15893	1.74473	9.92119	5.98458	2.76976	0.97870	0.87058	0.77478	2.07967	1.59549	1.21746	9.98871	6.26936	3.28743
57230	0.46246	0.41962	0.26454	2.59898	2.15776	1.75426	9.94816	5.96962	2.77575	0.98754	0.89428	0.78233	2.10552	1.59888	1.22741	10.00836	6.28036	3.31182
57390	0.47314	0.43502	0.26670	2.68384	2.17766	1.76783	9.94070	5.98027	2.77085	1.02363	0.93744	0.78659	2.09867	1.59522	1.23865	10.04687	6.30325	3.32414	25.69	6.2	0.00	7.21	0.01272	0.01289	0.01661	0.00770	0.00575	0.00630	0.00467	0.01264	0.01684	0.00672	0.00691	0.00886	0.01488	0.01095	0.01196	0.00214	0.00608	0.00857
57560	0.47316	0.43994	0.26385	2.62662	2.17872	1.77059	9.95747	5.98143	2.78510	0.98345	0.89525	0.78376	2.09915	1.59233	1.23063	10.01439	6.29218	3.30697
57720	0.48576	0.42819	0.27337	2.59803	2.16181	1.74764	9.94896	5.97395	2.77468	0.96588	0.89225	0.77155	2.09822	1.59990	1.22066	10.01428	6.30667	3.31461
57890	0.47490	0.41978	0.26413	2.61527	2.18254	1.75148	9.93345	5.96781	2.77188	0.96453	0.87493	0.74069	2.08734	1.58735	1.20679	9.99896	6.27270	3.29158
58050	0.45457	0.42262	0.26771	2.60726	2.14369	1.76077	9.93952	5.96810	2.77124	0.97197	0.85403	0.75603	2.08903	1.59255	1.21364	10.00051	6.29854	3.31666
58210	0.46380	0.41796	0.25965	2.65348	2.16820	1.76486	9.95064	5.96915	2.78457	0.98483	0.87842	0.76293	2.09877	1.59502	1.22877	9.99286	6.26636	3.30312
58380	0.46496	0.42771	0.25921	2.60038	2.17068	1.76470	9.94077	5.98627	2.78594	0.97592	0.88423	0.77003	2.10055	1.59632	1.22743	9.98408	6.28743	3.27341
58540	0.47815	0.42843	0.27039	2.63815	2.16832	1.78930	9.93903	5.97440	2.77594	0.95753	0.91918	0.76808	2.08973	1.60459	1.21455	10.01957	6.27631	3.31392
58710	0.46702	0.42547	0.26508	2.63339	2.16484	1.75888	9.93562	5.96827	2.77269	0.98057	0.87312	0.77483	2.08275	1.59834	1.21456	9.99855	6.28063	3.30136
58870	0.47236	0.43285	0.26979	2.63178	2.16808	1.77248	9.96816	5.98525	2.77772	0.97381	0.91343	0.77310	2.10191	1.60061	1.22433	9.98397	6.28239	3.31962
59040	0.47907	0.43599	0.28234	2.62549	2.16656	1.76020	9.92845	5.96764	2.85480	0.96658	0.88015	0.78535	2.09890	1.61819	1.24202	10.00597	6.28946	3.34407	25.69	6.1	0.00	7.19	0.01272	0.01289	0.01661	0.00770	0.00575	0.00630	0.00467	0.01264	0.01684	0.00672	0.00691	0.00886	0.01488	0.01095	0.01196	0.00214	0.00608	0.00857
59200	0.46852	0.43202	0.26098	2.61238	2.18989	1.76122	9.92610	5.97414	2.78029	1.00495	0.89191	0.77606	2.09255	1.58909	1.21851	10.00949	6.29590	3.30922
59360	0.46093	0.46243	0.27016	2.62133	2.18449	1.75765	9.95271	5.97258	2.78195	1.00382	0.90948	0.78391	2.08534	1.59928	1.21590	9.99469	6.28558	3.31371
59530	0.46464	0.42127	0.26254	2.62027	2.15890	1.76585	9.92114	5.98049	2.78215	0.99773	0.88861	0.76403	2.08760	1.63243	1.21488	9.99541	6.31002	3.31844
59690	0.46913	0.41429	0.26164	2.63538	2.16355	1.75201	9.93490	5.96574	2.76028	0.97875	0.89921	0.76347	2.09637	1.59108	1.22779	9.98229	6.27439	3.28637
59860	0.47240	0.42090	0.26256	2.60255	2.18437	1.74208	9.91972	5.96815	2.77049	0.95072	0.86449	0.74741	2.10134	1.59348	1.21492	9.97857	6.28474	3.32114
60020	0.46508	0.42450	0.26043	2.62149	2.17583	1.75463	9.93738	5.97706	2.77171	0.94956	0.87356	0.74771	2.09170	1.59253	1.22340	9.99624	6.28289	3.30705
60180	0.47978	0.42136	0.26352	2.61014	2.17387	1.76038	9.94030	5.97112	2.77198	0.97107	0.89527	0.77242	2.08180	1.58365	1.21242	10.03094	6.28704	3.30051
60350	0.46282	0.42346	0.25845	2.61191	2.16660	1.76139	9.93353	5.96577	2.76856	0.95943	0.88128	0.77813	2.09027	1.59980	1.21655	10.00783	6.31398	3.33410
60510	0.46551	0.43061	0.26659	2.65171	2.19385	1.77529	9.92907	5.98829	2.78022	0.97598	0.88336	0.77103	2.10656	1.61805	1.22391	9.99883	6.30974	3.29996
60680	0.47152	0.41668	0.26021	2.64401	2.17020	1.77466	9.92317	5.96647	2.76882	1.00190	0.88219	0.79594	2.07908	1.59026	1.22343	10.00572	6.30051	3.29773	25.75	6.1	0.00	7.22	0.01272	0.01289	0.01661	0.00770	0.00575	0.00630	0.00467	0.01264	0.01684	0.00672	0.00691	0.00886	0.01488	0.01095	0.01196	0.00214	0.00608	0.00857
60840	0.47016	0.42545	0.27008	2.62035	2.17109	1.77398	9.96177	5.96912	2.77718	0.98915	0.89724	0.76667	2.08595	1.58981	1.22551	10.00955	6.28326	3.29301
61000	0.46380	0.42057	0.26173	2.61236	2.16455	1.76587	9.94308	5.96299	2.76843	0.95948	0.89485	0.76168	2.07529	1.57593	1.21212	10.02893	6.26819	3.29442
61170	0.47239	0.42410	0.26091	2.61313	2.19963	1.75989	9.90090	5.96486	2.76782	0.95480	0.87314	0.76671	2.08965	1.59047	1.21834	10.00106	6.27479	3.28482
61330	0.47299	0.42021	0.26610	2.60659	2.16647	1.76738	9.93111	5.98048	2.76817	0.96744	0.87462	0.76036	2.07475	1.57801	1.21141	10.00500	6.27103	3.27281
61490	0.45921	0.41954	0.25626	2.61750	2.18951	1.75400	9.90993	5.96605	2.76584	0.96367	0.89348	0.74802	2.08968	1.58457	1.22101	9.97142	6.28843	3.33932
61660	0.47622	0.42685	0.25618	2.62579	2.18674	1.76478	9.94301	5.96493	2.77659	0.98976	0.89749	0.75581	2.08672	1.59013	1.21424	9.99579	6.26580	3.30572
61820	0.47413	0.41773	0.26692	2.65253	2.20056	1.76329	9.93923	5.97437	2.78169	1.01836	0.90946	0.78949	2.08345	1.59836	1.21529	10.00893	6.29959	3.33359
61990	0.47918	0.43020	0.27067	2.63513	2.19290	1.78673	9.94705	5.96983	2.77373	0.99541	0.87756	0.75544	2.09264	1.59362	1.22585	10.01131	6.28437	3.29253
62150	0.46564	0.41638	0.26410	2.60971	2.16975	1.76336	9.93297	5.98017	2.77651	0.96132	0.86354	0.76753	2.08803	1.58851	1.21850	10.01245	6.29984	3.30558
62320	0.48967	0.45433	0.27219	2.64233	2.17121	1.76248	9.94049	5.97516	2.77289	0.99063	0.88080	0.79399	2.08831	1.58856	1.22765	9.99071	6.30277	3.32650	25.75	6.1	0.00	7.21	0.01272	0.01289	0.01661	0.00770	0.00575	0.00630	0.00467	0.01264	0.01684	0.00672	0.00691	0.00886	0.01488	0.01095	0.01196	0.00214	0.00608	0.00857
62480	0.46706	0.42316	0.26303	2.61563	2.16065	1.76605	9.93466	5.97809	2.78462	0.98117	0.87438	0.76655	2.09377	1.60220	1.21441	10.10284	6.33164	3.29998
62640	0.46191	0.42816	0.27682	2.61036	2.16935	1.77068	9.95260	5.99145	2.77994	0.97778	0.87300	0.75761	2.09351	1.59006	1.21640	10.00405	6.27326	3.31639
62810	0.47808	0.42008	0.26718	2.60027	2.17860	1.76785	9.94750	5.97585	2.77135	0.97474	0.89960	0.76322	2.08938	1.60225	1.23251	10.01772	6.29182	3.32551
62970	0.47275	0.41976	0.26550	2.62001	2.15983	1.77736	9.95564	5.97146	2.78716	0.98465	0.88531	0.78126	2.08264	1.59615	1.21483	10.00136	6.29514	3.31271
63130	0.47377	0.41813	0.26182	2.59757	2.16607	1.75801	9.95067	5.97847	2.77955	0.93717	0.85435	0.74657	2.07927	1.59787	1.21049	10.00840	6.26862	3.28508
63300	0.46982	0.42027	0.27069	2.60843	2.16035	1.80111	9.93993	5.99284	2.77428	0.99070	0.85824	0.76038	2.08400	1.61440	1.20962	10.04366	6.28505	3.31544
63460	0.46767	0.41487	0.25218	2.61707	2.14946	1.76833	9.93851	5.97748	2.77464	0.97145	0.86127	0.74564	2.09392	1.60045	1.22417	10.00622	6.28735	3.28981
63630	0.48016	0.42461	0.27093	2.60775	2.16612	1.76211	9.95446	5.97218	2.77471	0.98073	0.89112	0.75697	2.08160	1.58383	1.21360	10.02622	6.30296	3.31731
63790	0.46217	0.41680	0.25779	2.60928	2.14021	1.74148	9.95763	5.97849	2.78372	0.93725	0.84822	0.73706	2.08776	1.59670	1.21421	10.03805	6.29638	3.31032
63960	0.46907	0.42698	0.26891	2.62114	2.18857	1.80585	9.96510	5.98261	2.78061	0.99906	0.89174	0.77233	2.08800	1.59332	1.22845	10.00629	6.30856	3.33362	25.75	6.1	0.00	7.26	0.01272	0.01289	0.01661	0.00770	0.00575	0.00630	0.00467	0.01264	0.01684	0.00672	0.00691	0.00886	0.01488	0.01095	0.01196	0.00214	0.00608	0.00857
64120	0.47271	0.43543	0.28138	2.62594	2.19906	1.76768	9.95435	5.97190	2.78749	1.00242	0.92626	0.81264	2.09701	1.58725	1.21395	10.01416	6.26099	3.29874
64280	0.46699	0.42226	0.25891	2.62323	2.17426	1.73894	9.95621	5.98254	2.78118	0.96859	0.87597	0.76156	2.09498	1.59282	1.21955	10.00142	6.27926	3.29059
64450	0.47785	0.42818	0.27824	2.62252	2.15852	1.77353	9.94689	5.98630	2.78457	0.98965	0.88127	0.77139	2.09198	1.59208	1.23073	9.99677	6.29796	3.29565
64610	0.46839	0.42893	0.27095	2.62564	2.16833	1.74976	9.95615	5.96296	2.77424	0.93777	0.85664	0.74080	2.08486	1.58340	1.22645	9.99046	6.27232	3.28786
64780	0.46624	0.42144	0.25815	2.59676	2.14503	1.73010	9.93566	5.97481	2.77926	0.95327	0.86683	0.74493	2.09307	1.59441	1.23133	9.97982	6.26346	3.28659
64940	0.46249	0.41336	0.26148	2.62955	2.15832	1.74455	9.94882	5.97504	2.78937	0.98422	0.85803	0.74406	2.08395	1.60014	1.22395	9.99253	6.32226	3.30569
65110	0.47862	0.42419	0.25925	2.62360	2.17236	1.74229	9.94193	5.99224	2.78288	0.97859	0.88628	0.76795	2.08788	1.58759	1.21499	10.01188	6.29039	3.29211
65270	0.46825	0.42628	0.26852	2.61323	2.17255	1.74654	9.94305	5.97082	2.78359	0.99054	0.88084	0.77871	2.07973	1.58770	1.21798	9.98571	6.29757	3.28082
65440	0.47202	0.41902	0.26412	2.60542	2.18807	1.75552	9.95503	5.97943	2.77172	0.95626	0.87491	0.77605	2.10191	1.60684	1.24455	9.99615	6.29168	3.29514
65600	0.48507	0.43465	0.26248	2.60362	2.14158	1.74038	9.92220	5.97827	2.76713	0.95352	0.88109	0.73846	2.08966	1.58982	1.20711	10.00252	6.29451	3.29389	25.75	6.1	0.00	7.22	0.01272	0.01289	0.01661	0.00770	0.00575	0.00630	0.00467	0.01264	0.01684	0.00672	0.00691	0.00886	0.01488	0.01095	0.01196	0.00214	0.00608	0.00857
65770	0.45590	0.42427	0.26450	2.58749	2.15396	1.76301	9.94104	5.96316	2.76790	0.94496	0.87010	0.76074	2.07486	1.58303	1.22020	9.97710	6.27728	3.28215
