WetView ver 7.1	07-17-2018	14:41:53
AC9 Absorption and Attenuation Meter
00000266		; Serial number
2	; structure version number
Reserved
0.000000	0.000000		; Depth calibration
19200			; Baud rate
0.100000			; Path length (meters)
31			; number of temperature calibration bins
				12.59339	13.44920	14.48425	15.49668	16.50852	17.49564	18.50545	19.52458	20.50176	21.48889	22.47318	23.48707	24.50962	25.49370	26.49784	27.51372	28.50746	29.47237	30.47938	31.50214	32.50470	33.49235	34.50337	35.50914	36.50618	37.52058	38.51018	39.51308	40.49994	41.49866	42.47204	; temperature bins
a650	Blue	20.34952		-0.00383	-0.00415	-0.00430	-0.00391	-0.00363	-0.00317	-0.00269	-0.00237	-0.00179	-0.00130	-0.00099	-0.00071	-0.00015	0.00000	0.00004	-0.00001	0.00015	0.00036	0.00058	0.00101	0.00161	0.00132	0.00160	0.00169	0.00242	0.00273	0.00336	0.00365	0.00427	0.00566	0.00670		; offset and temperature correction info
a676	Green	20.51193		-0.00398	-0.00384	-0.00360	-0.00306	-0.00302	-0.00255	-0.00235	-0.00212	-0.00163	-0.00136	-0.00118	-0.00089	-0.00029	0.00000	0.00068	0.00082	0.00099	0.00137	0.00145	0.00212	0.00260	0.00252	0.00321	0.00354	0.00457	0.00535	0.00617	0.00648	0.00742	0.00887	0.01002		; offset and temperature correction info
a715	Brown	20.23230		-0.00421	-0.00394	-0.00391	-0.00291	-0.00264	-0.00192	-0.00204	-0.00179	-0.00188	-0.00239	-0.00180	-0.00187	-0.00099	0.00000	0.00084	0.00162	0.00188	0.00224	0.00321	0.00381	0.00466	0.00528	0.00588	0.00696	0.00859	0.01041	0.01148	0.01282	0.01333	0.01456	0.01617		; offset and temperature correction info
c510	Red	20.40042		-0.00261	-0.00247	-0.00258	-0.00225	-0.00203	-0.00197	-0.00199	-0.00203	-0.00154	-0.00103	-0.00069	-0.00019	-0.00007	0.00000	0.00011	-0.00021	-0.00042	-0.00056	-0.00040	0.00011	0.00036	0.00050	0.00077	0.00079	0.00050	0.00042	0.00043	0.00092	0.00147	0.00200	0.00232		; offset and temperature correction info
c532	Magenta	20.40760		-0.00248	-0.00265	-0.00278	-0.00279	-0.00296	-0.00292	-0.00238	-0.00206	-0.00129	-0.00096	-0.00092	-0.00052	-0.00009	0.00000	0.00007	-0.00049	-0.00136	-0.00107	-0.00079	-0.00065	-0.00074	-0.00105	-0.00152	-0.00192	-0.00236	-0.00269	-0.00252	-0.00233	-0.00172	-0.00128	-0.00067		; offset and temperature correction info
c555	Black	20.50654		-0.00053	-0.00063	-0.00106	-0.00094	-0.00068	-0.00055	-0.00053	-0.00039	-0.00028	-0.00025	-0.00011	-0.00035	-0.00007	0.00000	-0.00037	-0.00055	-0.00036	-0.00014	0.00019	0.00044	0.00032	0.00040	0.00050	0.00028	0.00014	0.00013	0.00030	0.00073	0.00117	0.00176	0.00241		; offset and temperature correction info
a412	LtBlue	17.15231		-0.01972	-0.01823	-0.01612	-0.01381	-0.01272	-0.01080	-0.00959	-0.00866	-0.00710	-0.00532	-0.00354	-0.00148	-0.00028	0.00000	0.00176	0.00297	0.00394	0.00440	0.00453	0.00487	0.00804	0.00856	0.01065	0.01248	0.01388	0.01439	0.01659	0.01881	0.02256	0.02450	0.02719		; offset and temperature correction info
a440	LtGreen	18.00171		-0.00729	-0.00642	-0.00581	-0.00502	-0.00426	-0.00349	-0.00244	-0.00218	-0.00179	-0.00101	-0.00046	-0.00006	0.00036	0.00000	0.00040	0.00045	0.00030	-0.00015	-0.00024	-0.00035	0.00012	-0.00013	-0.00033	-0.00089	-0.00142	-0.00189	-0.00231	-0.00205	-0.00140	-0.00140	-0.00146		; offset and temperature correction info
a488	Yellow	18.86491		-0.00113	-0.00102	-0.00106	-0.00064	-0.00027	-0.00020	-0.00030	-0.00037	-0.00047	-0.00059	-0.00052	-0.00012	0.00008	0.00000	0.00025	0.00012	-0.00013	-0.00043	-0.00065	-0.00076	-0.00025	0.00010	0.00090	0.00111	0.00113	0.00104	0.00073	0.00068	0.00120	0.00186	0.00258		; offset and temperature correction info
c650	Blue	20.46075		-0.00145	-0.00097	-0.00092	-0.00139	-0.00185	-0.00196	-0.00237	-0.00266	-0.00238	-0.00163	-0.00083	-0.00041	-0.00010	0.00000	0.00005	-0.00001	0.00015	0.00034	0.00029	0.00065	0.00101	0.00164	0.00126	0.00156	0.00175	0.00270	0.00287	0.00371	0.00407	0.00473	0.00534		; offset and temperature correction info
c676	Green	20.10118		-0.00170	-0.00144	-0.00149	-0.00177	-0.00188	-0.00194	-0.00198	-0.00196	-0.00177	-0.00156	-0.00140	-0.00091	-0.00033	0.00000	0.00050	0.00092	0.00110	0.00141	0.00167	0.00199	0.00216	0.00265	0.00269	0.00289	0.00315	0.00374	0.00367	0.00408	0.00486	0.00561	0.00646		; offset and temperature correction info
c715	Brown	19.91219		-0.01201	-0.01097	-0.00859	-0.00680	-0.00651	-0.00592	-0.00535	-0.00440	-0.00387	-0.00303	-0.00222	-0.00153	-0.00028	0.00000	0.00093	0.00149	0.00247	0.00322	0.00330	0.00427	0.00373	0.00464	0.00536	0.00551	0.00643	0.00733	0.00779	0.00884	0.00899	0.01021	0.01120		; offset and temperature correction info
a510	Red	19.21192		0.00201	0.00193	0.00158	0.00098	0.00089	0.00049	0.00011	-0.00016	-0.00016	-0.00005	0.00028	0.00025	0.00006	0.00000	0.00035	-0.00022	-0.00023	-0.00080	-0.00144	-0.00154	-0.00153	-0.00204	-0.00220	-0.00219	-0.00190	-0.00128	-0.00069	-0.00018	0.00068	0.00152	0.00241		; offset and temperature correction info
a532	Magenta	19.41084		-0.00097	-0.00072	-0.00060	-0.00081	-0.00062	-0.00071	-0.00040	0.00020	0.00028	0.00043	0.00000	-0.00035	0.00007	0.00000	-0.00011	-0.00059	-0.00080	-0.00098	-0.00137	-0.00162	-0.00163	-0.00130	-0.00073	-0.00018	0.00090	0.00185	0.00175	0.00247	0.00291	0.00327	0.00349		; offset and temperature correction info
a555	Black	19.69776		0.00171	0.00183	0.00183	0.00186	0.00191	0.00170	0.00115	0.00131	0.00097	0.00073	0.00060	0.00013	0.00015	0.00000	0.00014	-0.00029	-0.00066	-0.00082	-0.00116	-0.00139	-0.00134	-0.00167	-0.00119	-0.00093	-0.00048	0.00053	0.00111	0.00095	0.00178	0.00206	0.00273		; offset and temperature correction info
c412	LtBlue	19.91180		-0.02051	-0.01853	-0.01589	-0.01311	-0.01059	-0.00877	-0.00705	-0.00581	-0.00413	-0.00231	-0.00098	-0.00066	-0.00011	0.00000	-0.00013	-0.00085	-0.00170	-0.00170	-0.00302	-0.00330	-0.00429	-0.00551	-0.00626	-0.00775	-0.00978	-0.01181	-0.01113	-0.01108	-0.01116	-0.01192	-0.01291		; offset and temperature correction info
c440	LtGreen	20.06241		-0.01064	-0.00992	-0.00892	-0.00766	-0.00639	-0.00531	-0.00478	-0.00384	-0.00287	-0.00187	-0.00102	-0.00063	-0.00023	0.00000	-0.00007	-0.00053	-0.00090	-0.00119	-0.00169	-0.00197	-0.00226	-0.00257	-0.00260	-0.00289	-0.00394	-0.00470	-0.00481	-0.00493	-0.00520	-0.00580	-0.00620		; offset and temperature correction info
c488	Yellow	20.35984		-0.01125	-0.01082	-0.00966	-0.00833	-0.00726	-0.00661	-0.00579	-0.00500	-0.00389	-0.00278	-0.00167	-0.00113	-0.00041	0.00000	0.00055	0.00121	0.00187	0.00226	0.00222	0.00251	0.00281	0.00359	0.00414	0.00427	0.00401	0.00404	0.00486	0.00563	0.00638	0.00684	0.00718		; offset and temperature correction info
0.003500	0.004000	0.015000	0.020000	0.015000	0.020000	2500.000000	2000.000000	1000.000000	; maxANoise	maxCNoise	maxADifference	maxCDifference	minACounts	minCCounts	minRCounts	maxTempSdev	maxDepthSdev
0			; auxilliary capabilities
1			; acquisition binsize
0	0.70723	0.71979	0.50016	4.41527	4.09228	3.71543	4.23569	3.04238	1.82279	2.85598	2.70919	2.42962	1.51050	1.25350	1.05043	6.80612	5.91537	4.77265	25.33	6.1	0.00	7.34	0.01275	0.01291	0.01673	0.00778	0.00580	0.00636	0.00468	0.01267	0.01688	0.00677	0.00693	0.00896	0.01491	0.01098	0.01199	0.00217	0.00616	0.00867
170	0.69953	0.71086	0.50515	4.40886	4.05082	3.71637	4.22619	3.06082	1.83785	2.85874	2.68548	2.43808	1.50937	1.25203	1.05512	6.85083	5.96096	4.80420
330	0.70478	0.72005	0.49653	4.39335	4.06233	3.72461	4.23188	3.02746	1.83024	2.85819	2.68586	2.44258	1.50364	1.24344	1.05445	6.80982	5.94092	4.81166
490	0.69583	0.71353	0.50135	4.37372	4.06195	3.75922	4.22388	3.04299	1.84564	2.87660	2.68634	2.41470	1.51421	1.25505	1.05280	6.79444	5.91828	4.80269
660	0.70248	0.72534	0.50804	4.41978	4.12043	3.73564	4.22497	3.05414	1.82652	2.87269	2.69894	2.44264	1.51750	1.25265	1.05345	6.87569	5.92891	4.83328
820	0.71034	0.72790	0.50860	4.40137	4.08826	3.72738	4.24112	3.05041	1.83925	2.86493	2.70416	2.43236	1.53688	1.27435	1.06673	6.82797	5.96248	4.82030
990	0.71447	0.73292	0.51075	4.44239	4.07932	3.71691	4.23475	3.07509	1.85185	2.82869	2.70141	2.44410	1.53740	1.26714	1.06053	6.87055	5.93977	4.78994
1150	0.70324	0.72098	0.50265	4.45364	4.08918	3.72073	4.21341	3.03850	1.83730	2.86117	2.67723	2.41896	1.51621	1.25865	1.05885	6.78809	5.91257	4.78608
1310	0.70425	0.71858	0.50923	4.36994	4.05542	3.69251	4.23052	3.03190	1.84168	2.85621	2.70190	2.41274	1.52023	1.25447	1.05277	6.78358	5.91159	4.78952
1480	0.71670	0.71675	0.50304	4.39295	4.06378	3.71786	4.23042	3.03103	1.83449	2.83595	2.67824	2.42639	1.50971	1.25101	1.05612	6.83242	5.89969	4.77978
1640	0.70254	0.71883	0.50352	4.36790	4.03004	3.69131	4.21932	3.03473	1.81104	2.86547	2.69852	2.42857	1.50627	1.25348	1.05607	6.82133	5.94461	4.84545	25.33	6.1	0.00	7.31	0.01275	0.01291	0.01673	0.00778	0.00580	0.00636	0.00468	0.01267	0.01688	0.00677	0.00693	0.00896	0.01491	0.01098	0.01198	0.00217	0.00616	0.00867
1810	0.71282	0.71408	0.50945	4.39240	4.06741	3.75125	4.23319	3.05868	1.84903	2.89562	2.72035	2.44214	1.52547	1.25487	1.04903	6.79764	5.93209	4.81008
1970	0.72398	0.73050	0.51961	4.43720	4.11501	3.79713	4.24505	3.06207	1.84577	2.91117	2.72851	2.50354	1.53124	1.27004	1.07129	6.87833	5.96689	4.84473
2130	0.72931	0.75481	0.52605	4.43664	4.12981	3.79303	4.25689	3.06001	1.86340	2.91956	2.74934	2.48727	1.53299	1.28143	1.07208	6.81473	5.96615	4.88084
2300	0.72565	0.74188	0.52664	4.46014	4.08630	3.73944	4.23204	3.05924	1.84405	2.89305	2.73010	2.48263	1.51644	1.25755	1.05406	6.86939	5.94822	4.81994
2460	0.70182	0.72824	0.50569	4.42087	4.09834	3.76395	4.24537	3.06369	1.84151	2.87047	2.70143	2.44469	1.53447	1.26968	1.06715	6.82303	5.92592	4.80147
2630	0.71722	0.72722	0.51188	4.43700	4.07584	3.71777	4.23151	3.04919	1.84175	2.85902	2.72616	2.45909	1.52395	1.26906	1.05324	6.83690	5.94181	4.81137
2790	0.70282	0.72294	0.50799	4.39243	4.08120	3.72940	4.22467	3.04897	1.84809	2.85611	2.71514	2.43636	1.51156	1.25619	1.05944	6.81948	5.91078	4.77986
2950	0.70123	0.72649	0.50770	4.41415	4.05190	3.76154	4.25030	3.02804	1.82041	2.83395	2.70888	2.68951	1.51136	1.25056	1.05308	6.82971	5.98265	5.00284
3120	0.70252	0.71878	0.50090	4.40344	4.07628	3.75921	4.22760	3.03234	1.83091	2.90244	2.71752	2.48870	1.50985	1.26530	1.06002	6.89489	5.93298	4.82860
3280	0.71661	0.72717	0.51124	4.40574	4.08318	3.74903	4.22134	3.06071	1.83412	2.87256	2.72375	2.45604	1.52032	1.26664	1.06046	6.87483	5.99684	4.79038	25.33	6.1	0.00	7.29	0.01275	0.01291	0.01673	0.00778	0.00580	0.00636	0.00468	0.01267	0.01688	0.00677	0.00693	0.00896	0.01491	0.01098	0.01198	0.00217	0.00616	0.00867
3450	0.70809	0.72297	0.50745	4.40925	4.11164	3.77847	4.24235	3.05715	1.86394	2.89265	2.75366	2.44148	1.52741	1.26607	1.06338	6.85644	5.97594	4.85129
3610	0.71338	0.72560	0.51436	4.39893	4.07987	3.73359	4.24371	3.05186	1.85073	2.85330	2.70804	2.45987	1.53606	1.25789	1.05866	6.84774	5.95967	4.83703
3780	0.70702	0.72194	0.51114	4.41671	4.13169	3.78882	4.19960	3.04050	1.83875	2.88855	2.78235	2.47207	1.54111	1.26704	1.06456	6.85651	5.97599	4.82880
3940	0.72138	0.73669	0.53072	4.39228	4.06303	3.72981	4.22665	3.04978	1.85035	2.87715	2.74109	2.44989	1.54147	1.27819	1.05915	6.82688	5.95825	4.83556
4110	0.70022	0.71861	0.51455	4.39465	4.12436	3.75905	4.22322	3.04019	1.83246	2.90223	2.72268	2.46201	1.52047	1.26379	1.06329	6.81932	5.94191	4.81650
4270	0.70935	0.73749	0.51063	4.39428	4.06867	3.74588	4.23273	3.04091	1.83252	2.89753	2.71125	2.43589	1.51410	1.25152	1.05231	6.83148	5.91578	4.84192
4440	0.69917	0.72294	0.50629	4.42663	4.09506	3.73196	4.22731	3.04335	1.83366	2.85606	2.71196	2.43329	1.51479	1.25653	1.05619	6.80458	5.94153	4.80556
4600	0.71373	0.72040	0.51367	4.41774	4.10353	3.73188	4.22550	3.04689	1.84127	2.87439	2.71586	2.45720	1.50559	1.26138	1.05032	6.83423	5.94596	4.81330
4760	0.71106	0.72470	0.50968	4.39479	4.06373	3.74744	4.21858	3.04376	1.84115	2.88998	2.70431	2.44383	1.51784	1.25944	1.05834	6.88415	5.97982	4.86467
4930	0.71207	0.71838	0.50475	4.44000	4.13627	3.75737	4.22377	3.07313	1.84139	2.91915	2.74119	2.46709	1.52627	1.26267	1.05916	6.85496	5.93711	4.81303	25.39	6.1	0.00	7.37	0.01275	0.01290	0.01673	0.00778	0.00580	0.00636	0.00468	0.01267	0.01688	0.00677	0.00693	0.00896	0.01491	0.01097	0.01198	0.00217	0.00616	0.00867
5090	0.70902	0.74348	0.52221	4.43075	4.13911	3.76763	4.22101	3.05228	1.85016	2.86715	2.70468	2.45814	1.51754	1.26039	1.04928	6.82474	5.93663	4.81775
5260	0.70844	0.71397	0.50535	4.40845	4.07958	3.74981	4.22992	3.03826	1.84526	2.85210	2.67359	2.43315	1.51670	1.26611	1.06748	6.81636	5.90850	4.80178
5420	0.70560	0.71695	0.50740	4.38626	4.09196	3.75267	4.23905	3.05190	1.84872	2.86041	2.72749	2.45870	1.51445	1.25173	1.05380	6.81140	5.92733	4.81420
5580	0.71600	0.73309	0.51631	4.41404	4.09017	3.76206	4.23195	3.04004	1.85196	2.88195	2.70571	2.46144	1.50691	1.26787	1.05211	6.83928	5.94644	4.81639
5750	0.70833	0.72305	0.51491	4.42155	4.07386	3.73149	4.22622	3.05558	1.83720	2.87256	2.70623	2.43054	1.51787	1.26372	1.05789	6.84032	5.92769	4.81594
5910	0.70496	0.72699	0.51472	4.38473	4.07510	3.75213	4.23094	3.04129	1.83787	2.86967	2.72897	2.46355	1.51841	1.26440	1.05246	6.84530	5.94844	4.80332
6080	0.69903	0.72582	0.50753	4.41108	4.07713	3.73743	4.21459	3.03860	1.82827	2.87428	2.75299	2.44568	1.51136	1.26281	1.07076	6.86568	5.93979	4.86617
6240	0.72030	0.74012	0.52347	4.42937	4.12375	3.75262	4.25421	3.05863	1.84947	2.89264	2.73904	2.48918	1.52837	1.28248	1.06605	6.87395	6.00872	4.85602
6400	0.73114	0.74501	0.51645	4.49734	4.12394	3.77941	4.24997	3.08483	1.84957	2.97068	2.77639	2.50004	1.51617	1.26798	1.09722	6.88177	5.96752	4.83256
6570	0.70895	0.73115	0.51000	4.41594	4.10041	3.75204	4.21728	3.04142	1.83495	2.88438	2.73963	2.46288	1.52120	1.26722	1.06414	6.86932	5.97518	4.85133	25.33	5.9	0.00	7.45	0.01275	0.01290	0.01673	0.00778	0.00580	0.00636	0.00468	0.01267	0.01688	0.00677	0.00693	0.00896	0.01491	0.01097	0.01198	0.00217	0.00616	0.00867
6730	0.70525	0.72795	0.51192	4.44820	4.11706	3.77856	4.23262	3.06249	1.85444	2.90172	2.74666	2.48410	1.52898	1.27197	1.07573	6.86775	5.95368	4.83944
6890	0.71981	0.72691	0.51875	4.39308	4.11192	3.73027	4.25334	3.06096	1.84041	2.85359	2.71543	2.45984	1.52805	1.27272	1.05611	6.87647	5.93457	4.81477
7060	0.71515	0.72553	0.50536	4.43872	4.12107	3.73166	4.23531	3.04493	1.83870	3.02303	2.92380	2.46700	1.50708	1.25398	1.04687	6.82138	5.96920	4.82672
7220	0.70809	0.71850	0.50086	4.41211	4.10477	3.75562	4.21320	3.04623	1.83855	2.87389	2.69733	2.46102	1.51197	1.26732	1.05204	6.84439	5.94069	4.80131
7380	0.72958	0.72296	0.50420	4.40631	4.10159	3.76036	4.22161	3.06603	1.83623	2.88994	2.73107	2.44762	1.51636	1.26539	1.05806	6.78252	5.92590	4.78940
7550	0.70980	0.72724	0.50472	4.37778	4.05868	3.72021	4.24914	3.04385	1.84375	2.87353	2.69645	2.42265	1.51090	1.25556	1.04917	6.79842	5.92630	4.78958
7710	0.70315	0.72123	0.50284	4.40614	4.05293	3.72047	4.20692	3.03306	1.84833	2.85495	2.68088	2.41795	1.50485	1.25226	1.05408	6.78843	5.89909	4.78444
7880	0.69661	0.71801	0.50625	4.39446	4.06201	3.68970	4.22196	3.04677	1.84616	2.87632	2.71371	2.42138	1.50666	1.25525	1.04834	6.80086	5.93070	4.79327
8040	0.70763	0.71506	0.50683	4.41492	4.07633	3.72583	4.21592	3.02433	1.83518	2.85539	2.69878	2.43188	1.50908	1.25828	1.05629	6.78947	5.90818	4.79755
8200	0.69696	0.71409	0.50386	4.39047	4.05757	3.69621	4.20829	3.03093	1.82588	2.85430	2.67648	2.41375	1.50887	1.25721	1.04772	6.76561	5.92320	4.81447	25.33	6.1	0.00	7.28	0.01275	0.01290	0.01673	0.00778	0.00580	0.00636	0.00468	0.01267	0.01688	0.00677	0.00693	0.00896	0.01491	0.01097	0.01198	0.00217	0.00616	0.00867
8370	0.70178	0.71414	0.49329	4.37533	4.09137	3.74944	4.22403	3.03480	1.83039	2.85834	2.70979	2.43446	1.51064	1.25778	1.06154	6.84057	5.96051	4.82901
8530	0.70179	0.72553	0.51593	4.44335	4.11920	3.76075	4.24593	3.05238	1.84686	2.90078	2.74710	2.51158	1.52826	1.30104	1.07264	6.87189	5.97424	4.84293
8690	0.73602	0.74925	0.55058	4.42814	4.11949	3.80044	4.25111	3.08120	1.84747	2.95441	2.76321	2.51482	1.53589	1.27351	1.07021	6.89897	5.95923	4.87012
8860	0.73237	0.73640	0.51780	4.43512	4.12106	3.75464	4.22903	3.05627	1.83796	2.86444	2.72637	2.46416	1.52465	1.26867	1.06546	6.84049	5.98491	4.81440
9020	0.71623	0.72731	0.50866	4.42949	4.08749	3.76122	4.21010	3.06053	1.83653	2.86611	2.70271	2.46003	1.52438	1.26428	1.05149	6.82973	5.92757	4.82708
9180	0.70562	0.72748	0.50438	4.41371	4.06156	3.70134	4.22159	3.04291	1.83333	2.85325	2.66802	2.42892	1.50141	1.25573	1.04978	6.82305	5.89944	4.82804
9340	0.70368	0.71270	0.50987	4.39431	4.03232	3.71168	4.21621	3.04811	1.82178	2.84368	2.70327	2.44719	1.50712	1.25999	1.05088	6.84844	5.93534	4.76896
9510	0.70957	0.70646	0.49471	4.41964	4.05090	3.71469	4.21600	3.03032	1.83315	2.87660	2.68195	2.40800	1.52172	1.25887	1.05290	6.81342	5.91680	4.79147
9670	0.70526	0.72120	0.50963	4.36791	4.07102	3.75002	4.24204	3.05424	1.84679	2.87090	2.69638	2.44108	1.51053	1.25378	1.05483	6.83455	5.91306	4.80779
9840	0.70054	0.72137	0.50300	4.39481	4.08683	3.76431	4.20782	3.03753	1.83555	2.86325	2.71085	2.43039	1.51197	1.25677	1.05161	6.81962	5.92725	4.79813	25.33	6.1	0.00	7.31	0.01275	0.01290	0.01672	0.00778	0.00580	0.00636	0.00468	0.01267	0.01688	0.00677	0.00693	0.00896	0.01491	0.01097	0.01198	0.00217	0.00616	0.00867
10000	0.70678	0.72649	0.50976	4.36835	4.06679	3.73776	4.21424	3.04219	1.83765	2.87003	2.73255	2.45327	1.52159	1.26124	1.05700	6.87270	5.96514	4.82421
10160	0.72093	0.72334	0.52612	4.41194	4.10016	3.73367	4.22147	3.04566	1.82811	2.89790	2.74912	2.45995	1.52036	1.25761	1.05385	6.87292	5.95836	4.87233
10330	0.70816	0.72440	0.50446	4.40369	4.08408	3.75944	4.23269	3.03633	1.84434	2.88689	2.70080	2.42312	1.51825	1.25002	1.06019	6.79933	5.89984	4.76961
10490	0.71012	0.72561	0.50806	4.38052	4.06724	3.72551	4.23769	3.04220	1.82656	2.85903	2.68955	2.42641	1.50849	1.25375	1.04044	6.78269	5.92240	4.82694
10660	0.70119	0.71486	0.50658	4.36390	4.04420	3.70616	4.24284	3.04479	1.83496	2.84905	2.68493	2.44409	1.50909	1.25739	1.06085	6.80932	5.88673	4.79661
10820	0.71761	0.71850	0.50097	4.40223	4.05651	3.72144	4.21944	3.04834	1.84734	2.86774	2.72557	2.47478	1.51868	1.25660	1.05779	6.82333	5.93033	4.77375
10980	0.69906	0.71929	0.50678	4.42767	4.08737	3.76224	4.21072	3.02835	1.83576	2.90440	2.71558	2.47369	1.51934	1.25058	1.05361	6.81228	5.93120	4.81405
11150	0.70323	0.71607	0.50056	4.40811	4.10377	3.73394	4.21476	3.03506	1.83319	2.87166	2.70905	2.41467	1.51494	1.25449	1.05668	6.86487	5.92650	4.81907
11310	0.70494	0.71460	0.50039	4.46794	4.12713	3.71447	4.22629	3.03190	1.82912	2.89416	2.72454	2.42841	1.50988	1.25448	1.06330	6.82118	5.91793	4.80716
11480	0.70531	0.71021	0.50358	4.38232	4.08475	3.76367	4.22982	3.03983	1.87400	2.86664	2.69517	2.45172	1.52592	1.26981	1.05323	6.85431	5.96280	4.85345	25.33	6.1	0.00	7.28	0.01275	0.01290	0.01672	0.00778	0.00580	0.00636	0.00468	0.01266	0.01688	0.00677	0.00693	0.00896	0.01491	0.01097	0.01198	0.00217	0.00616	0.00867
11640	0.70985	0.73907	0.50781	4.44179	4.13721	3.73428	4.24164	3.04505	1.84801	2.87624	2.72599	2.48245	1.53022	1.26430	1.12821	6.88889	5.96134	4.81454
11800	0.72213	0.73453	0.54910	4.44411	4.14907	3.81675	4.24854	3.07524	1.84960	2.89843	2.73811	2.45901	1.56158	1.28145	1.06304	6.86339	5.97069	4.83834
11970	0.72048	0.73982	0.53171	4.45447	4.11355	3.76129	4.23769	3.12297	1.84855	2.90664	2.74423	2.45004	1.53179	1.26439	1.06597	6.86793	5.97620	4.84166
12130	0.71203	0.73309	0.51359	4.42460	4.11655	3.77091	4.21947	3.04877	1.83746	2.89296	2.71550	2.45916	1.52874	1.26851	1.06294	6.85654	5.97131	4.85539
12300	0.71112	0.72632	0.50788	4.38659	4.11183	3.76029	4.24507	3.03712	1.84178	2.90346	2.74699	2.46553	1.51944	1.26619	1.05808	6.85327	6.28216	4.91013
12460	0.70934	0.72729	0.51051	4.75761	4.12080	3.70810	4.23517	3.04425	1.83811	2.86008	2.70447	2.45792	1.52266	1.26288	1.05856	6.84205	5.94607	4.82732
12620	0.70747	0.72543	0.50538	4.42350	4.10555	3.74139	4.24728	3.06301	1.85684	2.87968	2.70855	2.44628	1.52440	1.27374	1.06584	6.85253	5.96131	4.81931
12790	0.70076	0.72230	0.51121	4.42713	4.09444	3.74769	4.25191	3.04881	1.85625	2.89092	2.73455	2.43345	1.52326	1.27191	1.06580	6.87010	5.97833	4.81489
12950	0.70992	0.72741	0.51009	4.44853	4.12393	3.75669	4.25387	3.06564	1.84821	2.87433	2.71667	2.45500	1.52390	1.26537	1.05869	6.81726	5.97452	4.84350
13120	0.70563	0.72783	0.50781	4.41702	4.08201	3.77305	4.24071	3.06722	1.84205	2.89449	2.70992	2.45389	1.52815	1.27033	1.06465	6.83386	5.95621	4.82247	25.33	6.1	0.00	7.29	0.01275	0.01290	0.01672	0.00778	0.00580	0.00636	0.00468	0.01266	0.01688	0.00677	0.00693	0.00896	0.01491	0.01097	0.01198	0.00217	0.00616	0.00867
13280	0.70807	0.72130	0.51002	4.41065	4.08864	3.72494	4.23315	3.05148	1.85946	2.85124	2.70537	2.46259	1.51736	1.25680	1.06678	6.82748	5.98389	4.80416
13450	0.70580	0.72457	0.50936	4.41828	4.09371	3.72665	4.23231	3.05762	1.83524	2.87330	2.71374	2.43510	1.52125	1.26932	1.06212	6.83104	5.92832	4.83389
13610	0.71515	0.72932	0.50768	4.40756	4.09324	3.71636	4.23252	3.04932	1.84489	2.98062	2.67060	2.41849	1.52338	1.25571	1.06656	7.02858	6.01317	4.88666
13770	0.69904	0.71881	0.50562	4.38898	4.09190	3.73399	4.23137	3.04788	1.84089	2.84663	2.71781	2.45337	1.51532	1.26254	1.06027	6.85549	5.95779	4.79760
13940	0.70061	0.72024	0.51030	4.44148	4.10039	3.75173	4.22801	3.05069	1.85181	2.85802	2.71471	2.45013	1.52163	1.26126	1.05910	6.87999	5.95161	4.83959
14100	0.70418	0.71488	0.50374	4.46046	4.11670	3.81300	4.22445	3.06118	1.84239	2.90345	2.72643	2.44240	1.52157	1.26542	1.06690	6.91323	5.95310	4.81308
14260	0.70873	0.72720	0.51559	4.43354	4.12400	3.75447	4.24281	3.06199	1.84475	2.92673	2.72664	2.49335	1.52455	1.26597	1.05882	6.85995	5.96474	4.83146
14430	0.70944	0.72915	0.50182	4.45817	4.15778	3.77723	4.24775	3.04975	1.84186	2.91303	2.72894	2.48156	1.54008	1.27185	1.06844	6.89700	6.00017	4.85882
14590	0.71843	0.73617	0.51343	4.43011	4.08418	3.77463	4.26160	3.08701	1.85836	2.87433	2.72226	2.46847	1.54165	1.27158	1.07838	6.90373	5.96625	4.86043
14760	0.70829	0.72456	0.50815	4.43756	4.12558	3.75597	4.24052	3.05274	1.85505	2.86807	2.73088	2.44782	1.53360	1.27105	1.06630	6.86158	5.96470	4.79783	25.39	6.1	0.00	7.34	0.01275	0.01290	0.01672	0.00778	0.00580	0.00636	0.00468	0.01266	0.01687	0.00677	0.00693	0.00896	0.01491	0.01097	0.01198	0.00217	0.00616	0.00867
14920	0.71390	0.71931	0.50867	4.41293	4.08348	3.75047	4.23439	3.05614	1.84959	2.89656	2.71653	2.42839	1.52764	1.26772	1.06203	6.86330	5.93036	4.82207
15080	0.71762	0.72745	0.51866	4.44029	4.11435	3.72825	4.24882	3.07212	1.84603	2.89216	2.73508	2.46593	1.53023	1.26986	1.06803	6.84998	5.93212	4.81826
15250	0.71538	0.72458	0.50838	4.44894	4.09651	3.74340	4.24703	3.06343	1.85380	2.88962	2.72310	2.44738	1.53047	1.25882	1.05896	6.86270	5.93959	4.79024
15410	0.71076	0.72510	0.51032	4.40126	4.07768	3.75792	4.24150	3.04272	1.83810	2.85886	2.68747	2.42685	1.52103	1.26435	1.06490	6.83868	5.94822	4.77665
15570	0.73079	0.72793	0.51047	4.43874	4.09957	3.73098	4.24553	3.07044	1.84836	2.88792	2.72916	2.45584	1.51992	1.27039	1.06451	6.85228	6.00060	4.82245
15740	0.70455	0.73180	0.51015	4.42578	4.08455	3.74447	4.26607	3.06259	1.83601	2.87050	2.67868	2.43232	1.51519	1.26418	1.05829	6.85801	5.93785	4.82873
15900	0.70942	0.72311	0.51351	4.40861	4.10285	3.76479	4.25877	3.06199	1.83609	2.94433	2.69867	2.46767	1.52974	1.26880	1.06542	6.87015	5.98975	4.82674
16070	0.70792	0.73546	0.51674	4.43939	4.10494	3.77141	4.26695	3.07416	1.86139	2.87159	2.72955	2.44860	1.53825	1.27406	1.07325	6.85838	5.96382	4.84357
16230	0.72116	0.73653	0.51089	4.46154	4.13006	3.76589	4.26228	3.08455	1.85373	2.88881	2.72969	2.48068	1.55426	1.28245	1.07943	6.90875	5.99008	4.83787
16390	0.72432	0.73623	0.51064	4.48621	4.11601	3.79871	4.24641	3.07184	1.86718	2.88788	2.72900	2.46509	1.52619	1.26405	1.07150	6.85794	5.94916	4.80729	25.33	6.0	0.00	7.31	0.01274	0.01290	0.01672	0.00778	0.00580	0.00636	0.00468	0.01266	0.01687	0.00677	0.00693	0.00896	0.01491	0.01097	0.01198	0.00217	0.00616	0.00867
16560	0.71426	0.72681	0.51818	4.43134	4.14025	3.77078	4.25816	3.07714	1.86095	2.87226	2.72544	2.45973	1.53375	1.27660	1.07485	6.86739	6.00236	4.86709
16720	0.72315	0.73647	0.51893	4.47313	4.13223	3.73998	4.25640	3.08278	1.86017	2.88953	2.73294	2.46884	1.52622	1.27760	1.07654	6.86776	5.97992	4.83342
16890	0.71865	0.73045	0.51450	4.42794	4.07072	3.76420	4.25914	3.07259	1.85974	2.88368	2.73206	2.47510	1.53286	1.27841	1.07984	6.88095	6.00883	4.83429
17050	0.72184	0.73811	0.51262	4.44638	4.11668	3.79519	4.26921	3.07525	1.86832	2.89044	2.71031	2.50427	1.53300	1.27135	1.06736	6.87678	5.99467	4.83923
17210	0.71733	0.73508	0.51495	4.44262	4.13821	3.76383	4.26486	3.08320	1.85410	2.89514	2.73249	2.44434	1.53419	1.27746	1.06419	6.88961	5.98203	4.84569
17380	0.71493	0.73460	0.51775	4.45187	4.13950	3.76802	4.27746	3.08580	1.85480	2.91913	2.73872	2.47422	1.54540	1.27355	1.07319	6.85280	5.99496	4.85073
17540	0.72522	0.73391	0.52331	4.43447	4.12399	3.76883	4.26036	3.07777	1.87696	2.87908	2.71797	2.45512	1.52757	1.26968	1.06629	6.88685	5.92393	4.82165
17710	0.71284	0.72568	0.51372	4.42002	4.10980	3.74759	4.26535	3.05772	1.84600	2.85494	2.68313	2.42533	1.52628	1.26083	1.06795	6.87656	5.96302	4.80594
17870	0.70796	0.72280	0.50540	4.39067	4.09475	3.76106	4.25868	3.06277	1.85900	2.88000	2.72361	2.44976	1.52235	1.26702	1.06629	6.88155	5.95516	4.84554
18030	0.71130	0.72814	0.50681	4.42529	4.11043	3.76043	4.28034	3.06811	1.85078	2.86896	2.71193	2.44363	1.52270	1.26581	1.06721	6.85426	5.94844	4.81308	25.33	5.9	0.00	7.34	0.01274	0.01290	0.01672	0.00778	0.00580	0.00635	0.00468	0.01266	0.01687	0.00677	0.00692	0.00896	0.01491	0.01097	0.01198	0.00217	0.00616	0.00867
18200	0.71348	0.73695	0.52277	4.41641	4.09213	3.78006	4.25955	3.06571	1.86129	2.88600	2.71680	2.44653	1.52280	1.26797	1.07415	6.84430	5.95953	4.81690
18360	0.71587	0.72820	0.51816	4.43547	4.11460	3.76662	4.26282	3.07846	1.85083	2.92150	2.74580	2.45598	1.54280	1.27384	1.06595	6.84645	5.96128	4.83869
18520	0.72016	0.72603	0.50650	4.46330	4.14308	3.76013	4.26334	3.06949	1.84043	2.91111	2.70077	2.47839	1.53298	1.26300	1.05891	6.88557	5.95441	4.83865
18690	0.71362	0.73359	0.51712	4.44203	4.13350	3.75825	4.25569	3.06048	1.84722	2.88090	2.75032	2.45328	1.53999	1.26733	1.06788	6.89072	5.97298	4.81624
18850	0.71533	0.73153	0.50384	4.45529	4.13413	3.78029	4.25159	3.06348	1.84321	2.89504	2.74928	2.46522	1.52235	1.27554	1.08184	6.88355	5.99242	4.83167
19020	0.71197	0.73218	0.52379	4.43715	4.15910	3.76971	4.26949	3.07743	1.86018	2.90716	2.74378	2.47404	1.53331	1.27028	1.07143	6.91150	6.00895	4.84929
19180	0.71759	0.73505	0.52145	4.44488	4.12216	3.78621	4.26713	3.06175	1.85402	2.89766	2.74093	2.47900	1.52171	1.26890	1.05834	6.86908	5.98443	4.84140
19340	0.72176	0.74302	0.52940	4.43912	4.13671	3.74641	4.27669	3.06355	1.85513	2.94951	2.75526	2.46054	1.53245	1.27205	1.07317	6.92266	6.01211	4.85523
19510	0.71355	0.73178	0.51260	4.42782	4.13908	3.76217	4.25268	3.06843	1.85675	2.94992	2.73494	2.46387	1.54404	1.27491	1.05526	6.87669	5.91727	4.81900
19670	0.71138	0.74618	0.50994	4.42572	4.09394	3.74822	4.24670	3.05791	1.85082	2.87417	2.71689	2.45450	1.53017	1.26649	1.06722	6.82712	5.93201	4.80919	25.39	6.2	0.00	7.34	0.01274	0.01290	0.01672	0.00778	0.00580	0.00635	0.00468	0.01266	0.01687	0.00677	0.00693	0.00896	0.01491	0.01097	0.01198	0.00217	0.00616	0.00867
19840	0.70614	0.72053	0.50685	4.42568	4.06500	3.70451	4.23385	3.04960	1.83788	2.86180	2.69902	2.43839	1.50371	1.26092	1.06704	6.85512	5.95566	4.84003
20000	0.70660	0.72911	0.51119	4.42208	4.08568	3.75693	4.25697	3.06143	1.84740	2.86371	2.68967	2.41673	1.52621	1.28364	1.06832	6.87277	5.93017	4.80161
20160	0.71219	0.72119	0.52349	4.44796	4.07977	3.74220	4.26416	3.06301	1.84799	2.88618	2.73667	2.46276	1.53321	1.27391	1.07528	6.89112	6.00357	4.85409
20330	0.71038	0.73179	0.52338	4.46339	4.12399	3.78792	4.25073	3.08055	1.86239	2.92103	2.75078	2.48271	1.54020	1.27178	1.07427	7.11436	5.95962	4.81358
20490	0.71275	0.73116	0.50767	4.43837	4.09577	3.75147	4.28703	3.07677	1.83611	2.87246	2.70577	2.42715	1.52789	1.28020	1.07721	6.86115	5.95492	4.84761
20650	0.72213	0.73640	0.50409	4.40014	4.08445	3.74340	4.25799	3.06482	1.85913	2.90441	2.72129	2.43862	1.51408	1.25984	1.06646	6.84263	5.94962	4.81316
20820	0.70626	0.72121	0.51142	4.42372	4.11817	3.74028	4.24674	3.05651	1.85538	2.88181	2.77216	2.48442	1.52357	1.25807	1.05348	6.87791	5.95087	4.87122
20980	0.71594	0.72187	0.50529	4.45374	4.10690	3.74819	4.25932	3.06161	1.84164	2.90844	2.74386	2.48307	1.52261	1.26985	1.06619	6.87292	5.99795	4.85606
21140	0.71724	0.74040	0.53044	4.45419	4.12238	3.81847	4.27599	3.07427	1.85559	2.88834	2.74100	2.47133	1.53527	1.28454	1.07700	6.90636	5.96213	4.84426
21310	0.70903	0.72423	0.51277	4.44344	4.13640	3.78612	4.26066	3.07274	1.84965	2.89295	2.72229	2.48169	1.54550	1.28638	1.08360	6.90275	5.99628	4.85946	25.39	6.1	0.00	7.41	0.01275	0.01290	0.01672	0.00778	0.00580	0.00636	0.00468	0.01266	0.01687	0.00677	0.00692	0.00896	0.01491	0.01097	0.01198	0.00217	0.00616	0.00867
21470	0.73101	0.74464	0.52407	4.44365	4.15785	3.78882	4.24847	3.07659	1.84773	2.90652	2.74799	2.47677	1.53249	1.27147	1.06713	6.88467	5.94645	4.83346
21640	0.72117	0.72980	0.51019	4.46457	4.12782	3.79490	4.26375	3.07587	1.85249	2.88821	2.74828	2.46569	1.52791	1.27820	1.07406	6.86268	5.94871	4.81759
21800	0.71749	0.72664	0.51460	4.46292	4.14072	3.75742	4.26565	3.08111	1.86033	2.89748	2.71734	2.42697	1.52583	1.26639	1.06125	6.87117	5.98816	4.85784
21960	0.70551	0.72144	0.50765	4.44182	4.09621	3.75159	4.25379	3.08160	1.85442	2.85884	2.69766	2.43357	1.52456	1.26951	1.06301	6.88430	5.96387	4.81227
22130	0.71938	0.73021	0.50616	4.44229	4.11179	3.74843	4.25235	3.06389	1.85561	2.87228	2.72519	2.44442	1.52250	1.26085	1.06915	6.89707	5.93940	4.82217
22290	0.70737	0.72825	0.50568	4.40975	4.09828	3.75680	4.25870	3.06823	1.84721	2.88193	2.72178	2.46847	1.52433	1.27395	1.06861	6.85606	5.94197	4.80661
22450	0.70456	0.72129	0.51155	4.43524	4.09921	3.72958	4.27516	3.06228	1.84590	2.88792	2.70163	2.43089	1.52761	1.25997	1.06492	6.84542	5.93224	4.80570
22620	0.70734	0.72720	0.50179	4.42382	4.08638	3.73831	4.27112	3.06973	1.85128	2.87067	2.71175	2.45944	1.53386	1.27293	1.06661	6.84966	5.98049	4.83019
22780	0.70683	0.72325	0.49909	4.43268	4.09279	3.72485	4.27576	3.08403	1.85676	2.86841	2.71583	2.44112	1.53622	1.28658	1.06360	6.85844	5.98238	4.83007
22940	0.72256	0.73687	0.51557	4.45642	4.15029	3.75190	4.27406	3.07497	1.85325	2.91001	2.77952	2.46318	1.53249	1.27286	1.07059	6.86098	6.00382	4.82766	25.39	6.2	0.00	7.34	0.01275	0.01290	0.01672	0.00778	0.00580	0.00636	0.00468	0.01266	0.01688	0.00677	0.00693	0.00896	0.01491	0.01097	0.01198	0.00217	0.00616	0.00867
23110	0.71993	0.72642	0.51826	4.40523	4.15070	3.76477	4.27616	3.07064	1.85200	2.88323	2.72521	2.45922	1.52839	1.26887	1.05966	6.90060	5.94541	4.83139
23270	0.70603	0.73088	0.51606	4.43430	4.10177	3.74167	4.28523	3.07479	1.86418	2.89047	2.72850	2.48282	1.53851	1.27565	1.07555	6.92433	6.02725	4.88282
23430	0.71852	0.72747	0.51161	4.46884	4.09481	3.73367	4.27328	3.07067	1.84600	2.91341	2.72466	2.45800	1.53139	1.26847	1.06060	6.85287	5.98335	4.80930
23600	0.70755	0.72920	0.50522	4.44716	4.10179	3.73928	4.25336	3.07315	1.85330	2.89736	2.75103	2.45496	1.52864	1.27254	1.07837	6.85383	5.98096	4.84444
23760	0.71579	0.72904	0.51675	4.43871	4.13090	3.76565	4.28414	3.09198	1.86445	2.89638	2.75674	2.46546	1.52734	1.28527	1.07807	6.88088	5.95612	4.85510
23920	0.71550	0.72930	0.51275	4.42219	4.10996	3.77012	4.26875	3.09117	1.85423	2.89462	2.73006	2.45052	1.54013	1.27986	1.06403	6.89761	6.01533	4.84710
24090	0.71162	0.73087	0.51252	4.43431	4.11473	3.76024	4.28249	3.08457	1.86067	2.88012	2.70233	2.44238	1.53452	1.27273	1.06580	6.90591	5.97519	4.82661
24250	0.71436	0.72566	0.50949	4.43976	4.10678	3.74800	4.26553	3.07553	1.85677	2.88274	2.72143	2.46330	1.53666	1.26571	1.06149	6.85026	5.99500	4.83188
24420	0.71124	0.72168	0.51267	4.44870	4.14473	3.75857	4.26605	3.07750	1.86051	2.89125	2.72008	2.44465	1.52587	1.26871	1.06649	6.88409	5.96739	4.84594
24580	0.70995	0.72021	0.50886	4.43253	4.11245	3.77918	4.26372	3.06686	1.85936	2.88580	2.75064	2.45179	1.53655	1.26954	1.05692	6.91445	5.98795	4.85082	25.33	6.0	0.00	7.66	0.01275	0.01290	0.01672	0.00778	0.00580	0.00636	0.00468	0.01266	0.01688	0.00677	0.00693	0.00896	0.01491	0.01097	0.01198	0.00217	0.00616	0.00867
24740	0.70678	0.72669	0.50994	4.43365	4.10979	3.74666	4.26709	3.07430	1.84880	2.89076	2.71505	2.44316	1.52992	1.27224	1.06643	6.88298	5.98672	4.85216
24910	0.72057	0.73164	0.51246	4.46033	4.12196	3.79818	4.28374	3.08484	1.87174	2.86960	2.70684	2.45244	1.52639	1.27768	1.06397	6.92621	5.99344	4.81763
25070	0.70925	0.72693	0.51225	4.43222	4.10681	3.75937	4.26502	3.08669	1.86870	2.94305	2.73776	2.47339	1.53644	1.27008	1.07656	6.93985	6.08715	4.88357
25230	0.71396	0.72973	0.51183	4.47624	4.12509	3.81961	4.28669	3.09160	1.86864	2.92605	2.75613	2.49314	1.54188	1.29153	1.07514	6.91557	6.03564	4.85839
25400	0.73125	0.73942	0.51630	4.46669	4.13308	3.80553	4.30221	3.10864	1.87826	2.93421	2.74310	2.50041	1.54695	1.28173	1.07404	6.91632	6.02991	4.90208
25560	0.72364	0.73851	0.51296	4.46451	4.14688	3.82753	4.29306	3.10274	1.87160	2.92672	2.74771	2.49660	1.53953	1.28883	1.07741	6.92493	6.02266	4.88494
25720	0.73558	0.74201	0.52726	4.49272	4.18769	3.82028	4.28479	3.09994	1.90204	2.96818	2.76734	2.49153	1.57441	1.29729	1.07531	6.91445	6.00868	4.85543
25890	0.73288	0.74234	0.52390	4.47652	4.16839	3.79654	4.30940	3.08720	1.87974	2.90331	2.75326	2.46439	1.56501	1.28014	1.07800	6.90876	5.96206	4.83161
26050	0.71565	0.73646	0.51873	4.49283	4.11153	3.77389	4.27857	3.08989	1.87314	2.91822	2.73069	2.48439	1.54258	1.29918	1.09327	6.92014	5.97893	4.87191
26210	0.72192	0.73412	0.52797	4.49949	4.18261	3.79800	4.27260	3.08302	1.87422	2.90655	2.75615	2.48520	1.54901	1.28052	1.07212	6.90009	6.00358	4.87091	25.39	5.9	0.00	7.32	0.01275	0.01290	0.01672	0.00778	0.00580	0.00636	0.00468	0.01266	0.01688	0.00677	0.00693	0.00896	0.01491	0.01097	0.01198	0.00217	0.00616	0.00867
26380	0.71379	0.73678	0.51823	4.45204	4.15546	3.78081	4.28314	3.08911	1.87020	2.91887	2.74294	2.47741	1.54442	1.27978	1.07541	6.92035	6.04360	4.87563
26540	0.70953	0.73344	0.51326	4.48782	4.15006	3.77285	4.29485	3.08138	1.86002	2.90477	2.80516	2.49892	1.53689	1.27750	1.06638	6.93181	6.02736	4.95049
26700	0.71727	0.73300	0.51145	4.50318	4.23567	3.82692	4.27889	3.09664	1.85615	3.10567	2.73283	2.50483	1.53937	1.27645	1.08021	6.90554	6.00728	4.88095
26870	0.71288	0.72643	0.50792	4.45625	4.13017	3.77498	4.25408	3.07895	1.85952	2.91328	2.74916	2.48672	1.53158	1.28081	1.07220	6.94779	6.01707	4.87761
27030	0.71589	0.73938	0.51666	4.50285	4.15162	3.82149	4.27442	3.09371	1.88251	2.92600	2.75334	2.50075	1.55195	1.29298	1.08720	6.92507	6.00531	4.86223
27190	0.73018	0.74061	0.52618	4.46088	4.12285	3.77526	4.28497	3.07921	1.87468	2.89250	2.74305	2.47267	1.54140	1.28479	1.07495	6.89897	6.00194	4.87470
27360	0.72230	0.72496	0.51736	4.47337	4.15302	3.79583	4.27688	3.07671	1.85392	2.92012	2.73334	2.48797	1.53181	1.28083	1.07183	6.91055	5.98352	4.86290
27520	0.71387	0.73084	0.50699	4.46694	4.13374	3.73990	4.26396	3.05930	1.85804	2.89697	2.74321	2.47585	1.53014	1.27565	1.06782	6.86355	6.00619	4.85641
27680	0.71044	0.72880	0.51767	4.45524	4.11267	3.76552	4.25562	3.06984	1.85380	2.88944	2.71605	2.45019	1.54246	1.28159	1.07460	6.84540	5.97057	4.85251
27850	0.71656	0.72930	0.50615	4.46934	4.11598	3.77077	4.25262	3.08646	1.85730	2.89175	2.71717	2.46334	1.53660	1.29346	1.07922	6.86906	5.96743	4.83047	25.39	6.0	0.00	6.41	0.01275	0.01290	0.01672	0.00778	0.00580	0.00636	0.00468	0.01266	0.01688	0.00677	0.00693	0.00896	0.01491	0.01097	0.01198	0.00217	0.00616	0.00867
28010	0.70966	0.73011	0.51881	4.46923	4.13592	3.76923	4.26714	3.07510	1.86036	2.87563	2.73402	2.44140	1.53263	1.27389	1.06610	6.90711	6.00807	4.87670
28170	0.72660	0.73675	0.51225	4.49606	4.13784	3.76648	4.26549	3.07390	1.84465	2.93255	2.77509	2.47048	1.53333	1.26979	1.07463	6.88703	5.96110	4.87338
28340	0.70853	0.72452	0.50948	4.47558	4.15656	3.78404	4.24740	3.06170	1.84489	2.90884	2.74183	2.46020	1.52353	1.27428	1.06487	6.92874	5.99053	4.84860
28500	0.72053	0.72475	0.50604	4.44082	4.11098	3.77924	4.25368	3.06647	1.85076	2.90625	2.72208	2.44290	1.54048	1.27758	1.07440	6.91399	5.95432	4.81612
28660	0.71237	0.73388	0.50992	4.46694	4.14043	3.77491	4.26978	3.08951	1.87483	2.90022	2.74982	2.46315	1.53021	1.26322	1.07138	6.88024	5.95487	4.83031
28830	0.71002	0.72976	0.51511	4.42241	4.12943	3.77471	4.27350	3.07858	1.85347	2.86944	2.72054	2.46302	1.52862	1.26617	1.06933	6.88128	5.95683	4.84746
28990	0.71255	0.72733	0.51402	4.42346	4.10348	3.75997	4.26535	3.07932	1.85048	2.89887	2.73869	2.47376	1.53492	1.26746	1.06370	6.86102	5.98291	4.84602
29150	0.72121	0.73530	0.51230	4.46361	4.13060	3.78906	4.25592	3.08095	1.84612	2.91886	2.76582	2.47450	1.53440	1.27509	1.06183	6.88852	5.98428	4.85662
29320	0.71497	0.73656	0.51705	4.49631	4.11912	3.75442	4.26058	3.08272	1.85016	2.87968	2.75010	2.47230	1.54185	1.27507	1.07559	6.86981	5.97355	4.86528
29480	0.70715	0.73171	0.51616	4.46683	4.09067	3.76107	4.27424	3.06053	1.85527	2.89297	2.70441	2.44391	1.53773	1.27663	1.06413	6.83115	5.96300	4.81554	25.39	6.0	0.00	7.43	0.01275	0.01290	0.01672	0.00778	0.00580	0.00636	0.00468	0.01266	0.01688	0.00677	0.00693	0.00896	0.01491	0.01097	0.01198	0.00217	0.00616	0.00867
29640	0.71175	0.72749	0.51150	4.44418	4.14814	3.80140	4.23939	3.07269	1.85031	2.87766	2.72128	2.46186	1.53333	1.27102	1.06731	6.86945	6.00241	4.86367
29810	0.71969	0.72549	0.51247	4.47094	4.14232	3.79205	4.25974	3.07367	1.86532	2.89106	2.72573	2.48515	1.52485	1.27390	1.06565	6.87594	6.00068	4.87688
29970	0.71553	0.73576	0.52842	4.43367	4.10342	3.76659	4.28144	3.08309	1.87338	2.89516	2.74557	2.47153	1.53585	1.27134	1.06972	6.86334	5.98957	4.84831
30130	0.72152	0.73159	0.51707	4.44553	4.13850	3.78961	4.28049	3.07572	1.86606	2.89679	2.71641	2.44367	1.52687	1.27249	1.05836	6.85791	5.97280	4.85146
30300	0.70649	0.73016	0.50788	4.44516	4.13118	3.76251	4.24587	3.07923	1.86175	2.89214	2.72563	2.45695	1.53314	1.27576	1.07004	6.86535	5.99165	4.85441
30460	0.71459	0.72956	0.51253	4.42753	4.12672	3.77308	4.24899	3.06943	1.84745	2.88463	2.72331	2.46507	1.52477	1.27147	1.06795	6.87094	5.97821	4.83664
30620	0.71284	0.73506	0.50657	4.44733	4.14988	3.76815	4.27887	3.07724	1.85467	2.87715	2.72081	2.46844	1.53201	1.28085	1.06792	6.91509	5.99049	4.84220
30790	0.71242	0.72768	0.50798	4.47085	4.13679	3.77950	4.24993	3.07654	1.85905	2.89436	2.72313	2.44862	1.53670	1.27861	1.06838	6.89445	5.96541	4.80405
30950	0.70782	0.72701	0.51443	4.42668	4.11533	3.76933	4.24832	3.05750	1.85396	2.89179	2.72747	2.45664	1.52295	1.26395	1.05986	6.91674	5.99329	4.81533
31110	0.72046	0.72928	0.51046	4.46655	4.13175	3.77651	4.27631	3.07540	1.86505	2.89272	2.73226	2.46666	1.54798	1.29095	1.07283	6.91601	5.95712	4.84957	25.45	6.0	0.00	7.33	0.01275	0.01290	0.01672	0.00778	0.00580	0.00636	0.00468	0.01266	0.01688	0.00677	0.00693	0.00896	0.01491	0.01097	0.01198	0.00217	0.00616	0.00867
31280	0.72229	0.73927	0.51477	4.45799	4.16820	3.83858	4.28650	3.09453	1.87476	2.94209	2.74909	2.49303	1.55905	1.27949	1.07478	6.91294	5.98919	4.87044
31440	0.72261	0.74423	0.52234	4.46121	4.14007	3.79581	4.27259	3.09282	1.86428	2.89634	2.73191	2.45693	1.53795	1.28023	1.07388	6.92986	6.01005	4.89650
31600	0.71825	0.73430	0.51531	4.49091	4.14080	3.82542	4.28681	3.09695	1.86632	2.90808	2.74452	2.47466	1.53650	1.27277	1.06602	6.98556	5.98919	4.85661
31770	0.71272	0.73062	0.51609	4.45541	4.11197	3.79548	4.28861	3.07745	1.85797	2.89459	2.75159	2.48058	1.53865	1.27482	1.06858	6.88753	6.01633	4.89930
31930	0.71606	0.73059	0.51843	4.44851	4.12078	3.79345	4.26981	3.06988	1.84947	2.88334	2.74141	2.46280	1.53328	1.27263	1.06584	6.87485	5.97585	4.85142
32100	0.71621	0.73418	0.52151	4.45083	4.12015	3.77243	4.26104	3.06787	1.85432	2.86271	2.72151	2.44423	1.52694	1.26716	1.06739	6.85742	5.96715	4.84587
32260	0.71297	0.72329	0.51131	4.41135	4.08389	3.76526	4.25000	3.06494	1.85905	2.88028	2.71109	2.42901	1.53234	1.26503	1.06377	6.85906	5.95601	4.84690
32420	0.71376	0.73003	0.50640	4.42553	4.09782	3.77329	4.27023	3.08236	1.85928	2.89319	2.74542	2.47148	1.53605	1.26201	1.06347	6.87082	6.00720	4.88615
32590	0.71424	0.73029	0.50644	4.42866	4.12285	3.78042	4.26539	3.06889	1.85625	2.90959	2.74337	2.45429	1.54034	1.27308	1.06876	6.91810	6.01460	4.84543
32750	0.70897	0.72796	0.50906	4.46507	4.16263	3.76847	4.26531	3.09043	1.87384	2.88715	2.70464	2.46512	1.53720	1.27549	1.07222	6.89682	6.01744	4.87515	25.39	6.2	0.00	7.34	0.01275	0.01290	0.01672	0.00778	0.00580	0.00636	0.00468	0.01266	0.01688	0.00677	0.00693	0.00896	0.01491	0.01097	0.01198	0.00217	0.00616	0.00867
32910	0.72382	0.74445	0.52312	4.45442	4.14271	3.75974	4.28333	3.08065	1.85990	2.88970	2.74371	2.47796	1.52733	1.27760	1.06807	6.89944	5.97957	4.85720
33080	0.72409	0.74310	0.51422	4.42892	4.11039	3.78325	4.25890	3.08593	1.84796	2.87086	2.73369	2.45687	1.53970	1.26641	1.06645	6.88518	6.01082	4.80681
33240	0.71737	0.73123	0.51195	4.42032	4.10449	3.76624	4.26089	3.07333	1.86850	2.93461	2.73866	2.49945	1.53371	1.28579	1.07514	6.90474	5.98816	4.83755
33410	0.71440	0.74157	0.51736	4.49882	4.14263	3.77653	4.25805	3.07576	1.85130	2.91835	2.71678	2.43934	1.52404	1.27068	1.05841	6.90945	6.01661	4.81518
33570	0.71848	0.73357	0.51539	4.43375	4.07745	3.75858	4.26644	3.07821	1.85493	2.91712	2.76431	2.48303	1.52417	1.26531	1.06477	6.88339	5.95403	4.86012
33730	0.72136	0.73475	0.51309	4.43854	4.09232	3.74374	4.25858	3.07649	1.84627	2.89675	2.73372	2.46871	1.54026	1.28718	1.06707	6.87325	5.96907	4.85614
33900	0.71710	0.73240	0.50902	4.41908	4.11216	3.78160	4.28206	3.08055	1.85448	2.89321	2.73869	2.46640	1.53111	1.27653	1.06842	6.91155	5.98387	4.83374
34060	0.71873	0.74147	0.51545	4.45560	4.10866	3.76235	4.27209	3.07508	1.85213	2.86275	2.70894	2.44048	1.53183	1.27340	1.06165	6.87623	5.98338	4.86555
34230	0.72486	0.74444	0.51447	4.42770	4.13033	3.75538	4.26188	3.06496	1.86085	2.88089	2.72233	2.44363	1.53936	1.27538	1.07796	6.88361	5.99237	4.88264
34390	0.70836	0.73309	0.51136	4.48532	4.13350	3.78988	4.26128	3.06850	1.84100	2.92272	2.75056	2.47258	1.51782	1.26431	1.06611	6.86555	6.01434	5.24295	25.45	6.1	0.00	7.38	0.01275	0.01290	0.01672	0.00778	0.00580	0.00636	0.00468	0.01266	0.01688	0.00677	0.00693	0.00895	0.01491	0.01097	0.01198	0.00217	0.00616	0.00867
34550	0.71397	0.72626	0.50959	4.44691	4.11523	3.75635	4.26444	3.07241	1.86515	2.88811	2.73425	2.43884	1.53447	1.27272	1.06286	6.84784	5.97132	4.81651
34720	0.72692	0.73435	0.52100	4.43022	4.12224	3.77645	4.26858	3.08030	1.85887	2.91417	2.73266	2.47314	1.53734	1.27168	1.07588	6.88622	5.97778	4.81948
34880	0.72390	0.73144	0.51112	4.42045	4.12922	3.80254	4.28273	3.09962	1.86713	2.92708	2.76745	2.48154	1.53271	1.28327	1.07307	6.88316	6.02568	4.91441
35050	0.71648	0.72760	0.50886	4.45800	4.13714	3.77449	4.27241	3.08505	1.85092	2.90071	2.73891	2.46876	1.53824	1.27308	1.06410	6.87450	5.99828	4.84447
35210	0.71437	0.73462	0.51501	4.46923	4.11541	3.76248	4.27276	3.09083	1.86244	2.92252	2.75215	2.47119	1.52707	1.28197	1.07143	6.88883	6.00177	4.85646
35370	0.71677	0.72830	0.52178	4.43052	4.11740	3.75509	4.26426	3.06266	1.86607	2.90943	2.72312	2.45547	1.52851	1.28788	1.07005	6.90071	6.00753	4.86756
35540	0.70694	0.73229	0.51754	4.47252	4.14658	3.79524	4.27262	3.06743	1.85284	2.90479	2.75455	2.43822	1.54535	1.27931	1.07255	6.85907	5.98279	4.85353
35700	0.71850	0.73759	0.50846	4.46041	4.13393	3.76570	4.29223	3.07611	1.85955	2.87689	2.72728	2.43805	1.53546	1.27846	1.06167	6.84724	5.95805	4.83493
35870	0.71290	0.73046	0.51308	4.43603	4.10091	3.75486	4.24744	3.06600	1.84603	2.86737	2.73148	2.44856	1.51793	1.27044	1.07151	6.83579	5.98445	4.82035
36030	0.71245	0.73734	0.52008	4.44192	4.09757	3.76135	4.25442	3.05717	1.85942	2.89275	2.74425	2.47309	1.52730	1.27064	1.06267	6.82785	5.97881	4.83361	25.45	6.1	0.00	7.40	0.01275	0.01290	0.01672	0.00778	0.00580	0.00636	0.00468	0.01266	0.01688	0.00677	0.00693	0.00895	0.01491	0.01097	0.01198	0.00217	0.00616	0.00867
36190	0.71717	0.72632	0.50699	4.44347	4.11380	3.77001	4.28816	3.06918	1.85741	2.90196	2.73440	2.45587	1.52284	1.27851	1.06422	6.86997	5.98759	4.86914
36360	0.71455	0.73125	0.51340	4.48205	4.13500	3.80431	4.28201	3.09390	1.87922	2.87789	2.73104	2.47024	1.53989	1.27387	1.06992	6.91578	6.05136	4.87207
36520	0.70765	0.72972	0.50243	4.44557	4.12249	3.77434	4.27130	3.08532	1.86297	2.89446	2.71031	2.44402	1.54234	1.27031	1.07790	6.85886	5.98056	4.85550
36680	0.72195	0.75089	0.51880	4.45414	4.15321	3.79160	4.27109	3.08474	1.87082	2.86703	2.73856	2.47645	1.53665	1.28665	1.06724	6.88317	6.00621	4.82442
36850	0.71874	0.73895	0.51241	4.47388	4.13718	3.75864	4.26038	3.07845	1.85624	2.86797	2.73977	2.45797	1.54244	1.28455	1.07065	6.83342	5.95237	4.83968
37010	0.71862	0.73699	0.50664	4.43869	4.10711	3.74551	4.27147	3.06220	1.83684	2.90613	2.70872	2.43114	1.53088	1.27100	1.07152	6.88407	6.02245	4.82615
37170	0.70119	0.73325	0.51732	4.42156	4.13357	3.78117	4.27600	3.06359	1.83961	2.89294	2.77681	2.49577	1.52759	1.26712	1.06819	6.88123	5.98023	4.85993
37340	0.71363	0.72726	0.51218	4.46919	4.11483	3.74460	4.26484	3.07124	1.85366	2.89468	2.74341	2.45827	1.53001	1.26745	1.06474	6.90986	5.97190	4.84488
37500	0.71035	0.73686	0.51051	4.44518	4.09270	3.75229	4.25474	3.06072	1.84090	2.88453	2.73263	2.43980	1.52429	1.26771	1.07563	6.84762	5.95614	4.83620
37670	0.71013	0.72742	0.51203	4.44618	4.09710	3.74854	4.25338	3.05480	1.84430	2.87726	2.70452	2.45611	1.52615	1.28218	1.06982	6.84444	5.99945	4.86219	25.45	6.0	0.00	7.30	0.01275	0.01290	0.01672	0.00778	0.00580	0.00636	0.00468	0.01267	0.01688	0.00677	0.00693	0.00895	0.01491	0.01097	0.01198	0.00217	0.00616	0.00867
37830	0.71652	0.74346	0.51904	4.43004	4.11146	3.76342	4.27029	3.10369	1.85750	2.88502	2.75723	2.48268	1.52925	1.27533	1.07769	6.90363	5.96869	4.84618
37990	0.70886	0.73159	0.50841	4.42156	4.10451	3.79712	4.25927	3.05731	1.84741	2.88321	2.73133	2.46720	1.53062	1.25945	1.06180	6.91246	5.97244	4.84666
38160	0.70835	0.73353	0.51532	4.46536	4.09745	3.77847	4.27285	3.06849	1.85036	2.89139	2.70993	2.45057	1.53838	1.26963	1.06445	6.88033	5.98112	4.85214
38320	0.71266	0.73572	0.51596	4.43846	4.11387	3.77697	4.27952	3.09315	1.84464	2.89490	2.71834	2.48418	1.53810	1.26926	1.07331	6.87638	5.99961	4.86615
38490	0.71308	0.72725	0.50633	4.45964	4.11589	3.77136	4.26288	3.06213	1.85147	2.89326	2.72724	2.48282	1.52972	1.26447	1.06859	6.91950	6.02643	4.89095
38650	0.71738	0.74115	0.51734	4.57333	4.17111	3.81585	4.26594	3.08762	1.87950	2.94687	2.81295	2.47933	1.53023	1.27428	1.06688	6.91119	6.02755	4.88404
38810	0.71527	0.72465	0.50595	4.45713	4.14209	3.76031	4.28388	3.08917	1.86904	2.90232	2.77219	2.50144	1.54287	1.27353	1.06780	6.91800	6.01441	4.88611
38980	0.72177	0.73001	0.51739	4.46880	4.12456	3.77207	4.27446	3.07436	1.86217	2.91264	2.75037	2.46258	1.52951	1.28041	1.06979	6.87578	6.02343	4.84645
39140	0.71212	0.73282	0.50942	4.44511	4.14227	3.78167	4.26601	3.05882	1.84657	2.90818	2.78435	2.49540	1.53788	1.27545	1.06798	6.88011	5.97022	4.82667
39310	0.70977	0.72344	0.50997	4.42337	4.09313	3.75108	4.25686	3.07123	1.85319	2.90440	2.72133	2.44179	1.52488	1.25723	1.06512	6.88549	5.98958	4.82901	25.45	6.0	0.00	7.32	0.01275	0.01290	0.01672	0.00778	0.00580	0.00636	0.00468	0.01267	0.01688	0.00677	0.00693	0.00896	0.01491	0.01097	0.01198	0.00217	0.00616	0.00867
39470	0.70598	0.73567	0.51368	4.45283	4.11477	3.75024	4.27650	3.06955	1.86188	2.88792	2.72782	2.46795	1.52541	1.26982	1.06204	6.89467	6.00240	4.85062
39630	0.70656	0.72511	0.50507	4.45015	4.13120	3.78089	4.26050	3.07376	1.85422	2.89964	2.71989	2.43772	1.53330	1.27211	1.06250	6.86037	5.98459	4.85971
39800	0.71592	0.72737	0.50893	4.45464	4.10703	3.78461	4.26366	3.06991	1.85152	2.88963	2.71230	2.45387	1.53163	1.26872	1.05969	6.86491	5.95531	4.83579
39960	0.70896	0.72189	0.50187	4.44544	4.10727	3.76371	4.24484	3.06474	1.85287	2.87765	2.73194	2.46815	1.52797	1.26836	1.06980	6.91665	6.00247	4.86419
40130	0.71204	0.73068	0.51550	4.48385	4.11477	3.77206	4.26685	3.08743	1.85835	2.88587	2.75828	2.46789	1.53220	1.28143	1.07371	6.91314	6.00299	4.86584
40290	0.71591	0.73393	0.50821	4.45660	4.15141	3.78214	4.29791	3.07875	1.86387	2.91748	2.75935	2.50459	1.53175	1.26889	1.06279	6.91381	6.03305	4.85974
40450	0.71281	0.73036	0.50518	4.43615	4.13867	3.75937	4.26923	3.07355	1.85223	2.89426	2.71712	2.44776	1.52653	1.27130	1.07121	6.90192	6.00524	4.85018
40620	0.71161	0.72458	0.50771	4.45523	4.13457	3.79283	4.27833	3.05936	1.85558	2.88337	2.72299	2.46333	1.53285	1.27161	1.07027	6.88787	6.00138	4.85981
40780	0.70874	0.72788	0.51105	4.45515	4.13762	3.75308	4.25072	3.06379	1.84589	2.90395	2.73715	2.43900	1.53024	1.27676	1.07384	6.88534	5.98634	4.84344
40950	0.70694	0.72211	0.50787	4.42902	4.13891	3.76206	4.26963	3.06849	1.84641	2.89741	2.72836	2.44888	1.53341	1.26511	1.07086	6.86746	5.97378	4.84534	25.39	6.0	0.00	7.32	0.01275	0.01290	0.01672	0.00778	0.00580	0.00636	0.00468	0.01267	0.01688	0.00677	0.00693	0.00896	0.01491	0.01097	0.01198	0.00217	0.00616	0.00867
41110	0.71793	0.73484	0.51020	4.42491	4.11909	3.77706	4.25063	3.07497	1.85688	2.89118	2.72582	2.45307	1.52985	1.26524	1.06234	6.84744	5.94488	4.82571
41270	0.70713	0.73546	0.50951	4.40984	4.09923	3.74219	4.25950	3.06846	1.83945	2.89224	2.73133	2.45007	1.52353	1.26699	1.06553	6.87536	5.94059	4.82457
41440	0.70381	0.72080	0.50591	4.41382	4.09935	3.73753	4.23793	3.05094	1.86630	2.86340	2.71726	2.44381	1.51889	1.25931	1.06218	6.86053	5.96069	4.80983
41600	0.70713	0.72792	0.50608	4.42344	4.06933	3.75404	4.25894	3.06393	1.84238	2.88233	2.72841	2.46442	1.53163	1.26706	1.06573	6.91808	5.99145	4.83919
41770	0.71076	0.72896	0.51093	4.43762	4.12496	3.75038	4.23933	3.04646	1.84164	2.86436	2.73237	2.44349	1.52761	1.27408	1.06888	6.88147	5.97378	4.84023
41930	0.71162	0.73523	0.51205	4.41495	4.10774	3.73855	4.24892	3.05310	1.84597	2.85527	2.71677	2.45552	1.51575	1.26103	1.05433	6.84729	5.96376	4.81741
42100	0.70118	0.72073	0.50738	4.41463	4.09090	3.76408	4.25421	3.05308	1.83826	2.86154	2.75587	2.44761	1.52077	1.26457	1.06612	6.87193	5.98433	4.83233
42260	0.70478	0.72246	0.50839	4.43721	4.10514	3.76464	4.26381	3.06448	1.85313	2.88381	2.72626	2.46296	1.51954	1.25714	1.06202	6.87193	5.98880	4.83465
42420	0.70489	0.72411	0.51696	4.42611	4.10333	3.76503	4.25757	3.07052	1.84223	2.88104	2.71091	2.45432	1.53232	1.27462	1.05844	6.87461	5.93581	4.81150
42590	0.70583	0.73165	0.50913	4.43705	4.11808	3.77270	4.26773	3.05777	1.83580	2.88750	2.72478	2.44949	1.52698	1.26250	1.06304	6.89226	5.94578	4.79398	25.45	6.3	0.00	7.32	0.01275	0.01291	0.01672	0.00778	0.00580	0.00636	0.00468	0.01267	0.01688	0.00677	0.00693	0.00896	0.01491	0.01097	0.01198	0.00217	0.00616	0.00867
42750	0.70361	0.72484	0.50435	4.43316	4.11095	3.73560	4.26114	3.05343	1.83873	2.90006	2.75237	2.44981	1.52736	1.26415	1.06461	6.89652	5.97000	4.85653
42910	0.71024	0.73164	0.52478	4.45560	4.12171	3.73468	4.25515	3.05177	1.84436	2.90979	2.72242	2.45824	1.52682	1.27056	1.05789	6.86699	5.92897	4.80951
43080	0.71535	0.72839	0.51316	4.42575	4.08736	3.77168	4.24972	3.05299	1.85269	2.87507	2.72215	2.46818	1.52424	1.26577	1.06410	6.84913	5.95817	4.80795
43240	0.71247	0.73909	0.50259	4.45018	4.14145	3.77266	4.27384	3.06863	1.84659	2.92453	2.74146	2.44398	1.52792	1.27065	1.07520	6.90586	5.98901	4.85666
43400	0.73576	0.73662	0.52339	4.43533	4.12260	3.77740	4.28304	3.07517	1.85275	2.92500	2.74625	2.46786	1.55856	1.28392	1.09321	6.84869	5.96577	4.84356
43570	0.72157	0.74022	0.53492	4.43986	4.10350	3.73879	4.25196	3.08191	1.85127	2.87069	2.73657	2.44795	1.53530	1.27135	1.06644	6.88010	5.95156	4.80074
43730	0.72399	0.73667	0.52151	4.44176	4.09567	3.75535	4.27426	3.07830	1.85982	2.88032	2.71835	2.44804	1.54751	1.27824	1.06563	6.87854	5.94642	4.84788
43890	0.72228	0.74896	0.51388	4.48068	4.16231	3.78005	4.25238	3.07125	1.86082	2.91506	2.79401	2.45633	1.53717	1.27841	1.06864	6.88488	5.96246	4.85907
44060	0.73081	0.74771	0.51748	4.46906	4.12312	3.79825	4.25911	3.07468	1.85579	2.89156	2.75404	2.47591	1.53909	1.27795	1.07677	6.86758	5.98972	4.83474
44220	0.71818	0.73661	0.53036	4.44267	4.13156	3.77034	4.28258	3.07640	1.85293	2.87128	2.74340	2.48075	1.52833	1.28238	1.06222	6.86991	5.96158	4.84684	25.45	5.9	0.00	7.33	0.01275	0.01291	0.01672	0.00778	0.00580	0.00636	0.00468	0.01267	0.01688	0.00677	0.00693	0.00896	0.01491	0.01097	0.01198	0.00217	0.00616	0.00867
44380	0.72493	0.73387	0.52216	4.45290	4.10849	3.75977	4.28483	3.06543	1.85790	2.89966	2.75622	2.48997	1.53227	1.27937	1.08365	6.87490	5.95315	4.87059
44550	0.72086	0.74497	0.52415	4.52940	4.11013	3.77572	4.28507	3.08876	1.86666	2.93212	2.75775	2.53031	1.55825	1.29166	1.08489	6.90685	5.99320	4.87582
44710	0.72627	0.75813	0.53317	4.45929	4.15670	3.82202	4.26636	3.09184	1.87423	2.93888	2.74758	2.47135	1.54576	1.30167	1.08495	6.92002	6.00835	4.87725
44870	0.72484	0.74510	0.52582	4.47398	4.13196	3.80057	4.28577	3.07239	1.86835	2.88027	2.74028	2.44413	1.53597	1.29356	1.08802	6.90985	6.02314	4.83606
45030	0.72230	0.73875	0.51600	4.43518	4.14026	3.78949	4.29671	3.07288	1.86720	2.89704	2.75206	2.48808	1.54170	1.28204	1.07316	6.85896	5.97670	4.85114
45200	0.72299	0.73663	0.51512	4.46297	4.14881	3.77683	4.26860	3.07399	1.87252	2.90093	2.72011	2.46889	1.54700	1.28399	1.07398	6.87400	6.00541	4.84008
45360	0.71109	0.72356	0.50796	4.45711	4.14449	3.76726	4.24863	3.07090	1.84786	2.86365	2.71175	2.46665	1.52237	1.26746	1.07599	6.89818	5.99500	4.82815
45530	0.71574	0.72743	0.51189	4.43684	4.07813	3.76496	4.27025	3.08047	1.85041	2.88123	2.71321	2.43509	1.52644	1.27355	1.05791	6.87028	5.96822	4.83099
45690	0.72267	0.73830	0.51367	4.40840	4.10499	3.76360	4.26359	3.07585	1.85658	2.90071	2.71931	2.42101	1.53555	1.27161	1.07198	6.83213	5.94388	4.80177
45860	0.71974	0.72935	0.50512	4.43333	4.10350	3.74663	4.27150	3.06491	1.84480	2.89676	2.72004	2.46312	1.53928	1.26402	1.06804	6.86531	5.98807	4.85933	25.45	6.1	0.00	7.25	0.01275	0.01291	0.01672	0.00778	0.00580	0.00636	0.00468	0.01267	0.01688	0.00677	0.00693	0.00896	0.01491	0.01097	0.01198	0.00217	0.00616	0.00867
46020	0.71167	0.74074	0.52282	4.42062	4.08592	3.79216	4.27676	3.08059	1.85742	2.88923	2.73388	2.46613	1.53213	1.27983	1.08203	6.87671	6.00952	4.83474
46180	0.72598	0.72789	0.51310	4.42414	4.12736	3.81356	4.29233	3.08936	1.87006	2.92231	2.76256	2.45664	1.53403	1.27582	1.07268	6.86412	6.00665	4.84192
46350	0.71169	0.74122	0.51575	4.41750	4.11167	3.73314	4.25996	3.07078	1.86201	2.91520	2.72501	2.45614	1.54618	1.46157	1.07815	6.86866	5.96990	4.88006
46510	0.71542	0.72457	0.51218	4.48042	4.10338	3.73548	4.24934	3.06947	1.85602	2.90161	2.74009	2.45589	1.53470	1.26481	1.06549	6.87858	5.97210	4.81997
46680	0.72127	0.72923	0.51019	4.42865	4.09069	3.76731	4.27820	3.07094	1.85488	2.90471	2.73352	2.47192	1.53648	1.28112	1.08174	6.89141	6.00051	4.87521
46840	0.72130	0.72998	0.51482	4.45845	4.16715	3.76802	4.27504	3.07446	1.86856	2.93575	2.75972	2.46950	1.52784	1.28257	1.06819	6.88611	5.98185	4.88008
47000	0.72282	0.73568	0.52045	4.45139	4.11039	3.75514	4.27806	3.08252	1.84345	2.92062	2.76372	2.47666	1.53454	1.27701	1.05700	6.85705	5.98206	4.85249
47170	0.71094	0.72744	0.50773	4.41814	4.09473	3.77132	4.26666	3.06889	1.85432	2.86040	2.74684	2.44353	1.53763	1.27360	1.06715	6.86948	5.95656	4.83384
47330	0.71615	0.72843	0.51450	4.41746	4.10457	3.75656	4.26799	3.07099	1.85537	2.87143	2.73051	2.43730	1.51935	1.28422	1.07353	6.88648	5.99719	4.85027
47500	0.71176	0.73270	0.52324	4.46095	4.15093	3.81793	4.29362	3.08499	1.87067	2.94207	2.81987	2.55682	1.55348	1.30446	1.11260	6.96260	6.04264	4.93089	25.51	6.1	0.00	7.28	0.01275	0.01291	0.01672	0.00778	0.00580	0.00636	0.00468	0.01267	0.01688	0.00677	0.00693	0.00896	0.01491	0.01097	0.01198	0.00217	0.00616	0.00867
47660	0.79056	0.78206	0.57953	4.53417	4.21101	3.88605	4.34135	3.20272	1.92573	3.01747	2.86181	2.54926	1.60432	1.33911	1.12952	7.04617	6.10060	4.91949
47820	0.76413	0.78644	0.56308	4.56282	4.19652	3.90300	4.32482	3.12257	1.88864	2.96808	2.84262	2.52715	1.57699	1.31434	1.12315	6.98616	6.08121	4.93676
47990	0.73711	0.76872	0.53931	4.56626	4.22903	3.83273	4.31072	3.11844	1.89537	2.96741	2.78035	2.46403	1.56278	1.30372	1.09369	6.94353	6.05186	4.91188
48150	0.72676	0.75678	0.53003	4.48534	4.15587	3.79652	4.29801	3.09644	1.87542	2.90011	2.76494	2.46118	1.55333	1.29047	1.08462	6.90070	5.99690	4.83923
48320	0.72147	0.72337	0.51110	4.41593	4.13194	3.75330	4.27798	3.08263	1.85562	2.91000	2.71990	2.44915	1.53510	1.28419	1.07175	6.92411	5.96737	4.81407
48480	0.70928	0.73272	0.51576	4.45085	4.12600	3.75481	4.29042	3.09116	1.85282	2.88935	2.72471	2.43506	1.54106	1.27791	1.07037	6.91835	5.98187	4.83106
48640	0.71072	0.72435	0.51035	4.41624	4.09157	3.78218	4.28114	3.07960	1.85221	2.86653	2.70183	2.43333	1.53091	1.28172	1.06815	6.87742	5.96343	4.85322
48810	0.70887	0.72568	0.51555	4.41586	4.10607	3.73964	4.29650	3.08136	1.85143	2.89017	2.72510	2.45200	1.53222	1.28867	1.07208	6.90377	5.99813	4.86166
48970	0.70702	0.72576	0.51152	4.46852	4.11252	3.78130	4.29808	3.08983	1.87321	2.88809	2.72781	2.46759	1.53560	1.27436	1.07332	6.90533	5.98930	4.84573
49140	0.71706	0.73261	0.51339	4.46354	4.11072	3.76853	4.31610	3.09487	1.86557	2.89582	2.71030	2.45541	1.55365	1.28816	1.08151	6.89122	5.99647	4.84514	25.45	6.0	0.00	7.63	0.01275	0.01291	0.01671	0.00778	0.00580	0.00636	0.00468	0.01267	0.01688	0.00677	0.00693	0.00896	0.01491	0.01097	0.01198	0.00217	0.00616	0.00867
49300	0.71406	0.73535	0.52035	4.44015	4.13119	3.78424	4.28583	3.09639	1.86781	2.88994	2.72642	2.44833	1.53303	1.27436	1.07363	6.90625	5.97746	4.87050
49470	0.71222	0.72869	0.51426	4.48764	4.14407	3.78261	4.28474	3.08691	1.86720	2.90803	2.74408	2.46576	1.53363	1.29115	1.08270	6.87622	6.04393	4.89066
49630	0.73178	0.73834	0.51798	4.43821	4.13430	3.77692	4.29107	3.08490	1.87654	2.91974	2.74642	2.45841	1.54014	1.28490	1.06869	6.89474	5.98505	4.87818
49800	0.71946	0.73497	0.51219	4.46737	4.12324	3.77187	4.28671	3.08077	1.87243	2.89995	2.74451	2.50510	1.54584	1.27838	1.07982	6.96748	5.99422	4.85767
49960	0.71929	0.74036	0.51721	4.43866	4.14929	3.77034	4.28889	3.09164	1.87452	2.88669	2.73217	2.47301	1.54267	1.28304	1.08494	6.89668	5.97710	4.99438
50120	0.72007	0.73208	0.51857	4.46751	4.14860	3.77690	4.27276	3.08230	1.86577	2.99907	2.76893	2.49299	1.53354	1.27600	1.07260	6.95590	6.00505	4.86212
50290	0.72210	0.72973	0.52112	4.44954	4.12493	3.75611	4.27241	3.07109	1.85075	2.88411	2.71375	2.46956	1.52783	1.28182	1.07923	6.90528	6.00683	4.82147
50450	0.71468	0.72388	0.51417	4.44032	4.14284	3.77715	4.29212	3.09104	1.86948	2.88333	2.73464	2.46283	1.54629	1.28605	1.08059	6.89406	5.97651	4.87487
50620	0.71609	0.73428	0.52678	4.44906	4.13755	3.80908	4.30856	3.11622	1.88601	2.92607	2.73157	2.48183	1.54928	1.29185	1.08462	6.92010	6.01571	4.84852
50780	0.74117	0.73865	0.51706	4.44567	4.12042	3.77422	4.28380	3.08844	1.86696	2.91698	2.75773	2.46142	1.54891	1.27291	1.07365	6.88569	5.95054	4.82258	25.45	6.1	0.00	7.29	0.01275	0.01291	0.01671	0.00778	0.00580	0.00636	0.00468	0.01267	0.01688	0.00677	0.00693	0.00895	0.01491	0.01097	0.01198	0.00217	0.00616	0.00867
50940	0.71486	0.72920	0.52013	4.44046	4.10976	3.76272	4.29758	3.09437	1.86184	2.90431	2.73882	2.45781	1.53264	1.28989	1.06885	6.88905	5.96465	4.82575
51110	0.71522	0.72696	0.51085	4.40724	4.09951	3.74661	4.28949	3.09895	1.85777	2.88649	2.75034	2.45691	1.53460	1.27624	1.07405	6.90430	6.00071	4.85814
51270	0.71535	0.73981	0.51485	4.43915	4.12641	3.77491	4.29371	3.09249	1.86955	2.93021	2.73806	2.47288	1.59391	1.28810	1.07596	6.88278	6.06108	4.88033
51440	0.73167	0.74198	0.53079	4.46615	4.12189	3.78156	4.30184	3.10464	1.87478	2.93239	2.75438	2.47373	1.54042	1.28021	1.08369	6.93157	6.00586	4.85080
51600	0.72403	0.74186	0.52073	4.44988	4.13998	3.80829	4.29748	3.12042	1.87803	2.92925	2.78088	2.49193	1.55348	1.28644	1.08944	6.93172	5.99858	4.90312
51760	0.71791	0.73348	0.52863	4.47106	4.19628	3.76991	4.31181	3.11835	1.87683	2.90798	2.77741	2.47458	1.55563	1.28994	1.09263	6.92790	6.05107	4.86623
51930	0.72948	0.74269	0.52390	4.47686	4.14580	3.78588	4.30927	3.09021	1.86535	2.88278	2.74185	2.46144	1.55024	1.28898	1.07923	6.89323	6.01538	4.83514
52090	0.72196	0.74257	0.52103	4.46647	4.14511	3.78174	4.32842	3.10525	1.88257	2.91524	2.75527	2.49281	1.54786	1.29027	1.08862	6.94155	6.03469	4.87748
52250	0.71843	0.73191	0.52063	4.48309	4.15852	3.82113	4.31618	3.09748	1.88019	2.90357	2.76081	2.48654	1.54738	1.30744	1.08558	6.94073	6.00100	4.85739
52420	0.71973	0.73508	0.51594	4.47913	4.10575	3.76931	4.31700	3.08642	1.88240	2.91057	2.76523	2.48769	1.55360	1.29106	1.08721	6.93157	5.98504	4.85394	25.51	6.1	0.00	7.61	0.01275	0.01290	0.01671	0.00778	0.00580	0.00636	0.00468	0.01267	0.01688	0.00677	0.00693	0.00895	0.01491	0.01097	0.01198	0.00217	0.00616	0.00867
52580	0.72037	0.73641	0.52016	4.46580	4.13659	3.81106	4.31143	3.10272	1.87501	2.91705	2.74469	2.47366	1.55216	1.28734	1.09326	6.91066	6.04636	4.82948
52750	0.72432	0.73883	0.52230	4.46130	4.10469	3.77373	4.31143	3.12173	1.88554	2.88459	2.72393	2.46982	1.55417	1.29644	1.08174	6.90385	5.99892	4.87848
52910	0.72470	0.73787	0.52736	4.48904	4.16683	3.78947	4.30713	3.11455	1.89389	2.90859	2.75160	2.47947	1.55748	1.28938	1.09521	6.89338	6.02222	4.88258
53070	0.71656	0.73428	0.51901	4.48951	4.13219	3.76668	4.29027	3.09768	1.87602	2.90038	2.73253	2.45796	1.55075	1.29098	1.08801	6.91665	5.97406	4.84396
53240	0.72280	0.73308	0.53152	4.45404	4.13823	3.77711	4.32356	3.10814	1.87692	2.90631	2.76136	2.47602	1.54898	1.28643	1.08418	6.91942	5.99368	4.88695
53400	0.71998	0.73282	0.51583	4.45320	4.14973	3.78607	4.28651	3.09573	1.87150	2.92807	2.76514	2.48928	1.56209	1.30223	1.08809	6.90894	6.00017	4.91005
53570	0.73147	0.76604	0.54808	4.49630	4.14811	3.79247	4.31471	3.11850	1.89414	2.93353	2.81391	2.53163	1.57075	1.32002	1.09671	6.96554	6.04624	4.94127
53730	0.72710	0.75097	0.53312	4.52483	4.20780	3.86425	4.30798	3.12430	1.88228	2.96053	2.76927	2.53354	1.55506	1.28444	1.09188	6.95696	6.03090	4.86647
53890	0.72349	0.74182	0.52156	4.55494	4.11569	3.79229	4.32564	3.12091	1.88670	2.91934	2.73444	2.45555	1.55490	1.29380	1.10125	6.91792	5.96645	4.85075
54060	0.72964	0.74155	0.51903	4.49137	4.12940	3.77176	4.31803	3.11532	1.87495	2.90690	2.74969	2.46107	1.56140	1.28741	1.08200	6.91780	6.02565	4.87727	25.45	6.1	0.00	7.25	0.01275	0.01290	0.01671	0.00778	0.00580	0.00636	0.00468	0.01267	0.01688	0.00677	0.00693	0.00895	0.01491	0.01097	0.01198	0.00217	0.00616	0.00867
54220	0.71879	0.73380	0.51525	4.44807	4.12740	3.77454	4.30105	3.10610	1.86903	2.90883	2.74386	2.47694	1.54123	1.27295	1.08735	6.89138	5.99634	4.86245
54380	0.71414	0.73810	0.52987	4.47265	4.13746	3.75573	4.30573	3.10177	1.86103	2.88007	2.72104	2.45948	1.55633	1.30357	1.08568	6.89564	6.00028	4.84123
54550	0.72920	0.73681	0.52181	4.44029	4.11879	3.76802	4.31243	3.10316	1.87053	2.87469	2.72791	2.45547	1.54458	1.28818	1.07683	6.85333	6.00101	4.89700
54710	0.72656	0.73133	0.51274	4.43853	4.12670	3.75127	4.28529	3.09627	1.86630	2.90361	2.72605	2.47037	1.55696	1.27766	1.08148	6.88189	5.97975	4.83996
54870	0.72312	0.72799	0.51197	4.43311	4.14304	3.78023	4.28807	3.09356	1.86892	2.89063	2.74949	2.49556	1.54698	1.28562	1.08542	6.92470	6.02263	4.88519
55040	0.71944	0.73761	0.52139	4.46949	4.11432	3.79840	4.30742	3.10228	1.88962	2.95252	2.76338	2.48562	1.54414	1.27988	1.08960	6.90380	6.06823	4.89780
55200	0.73535	0.74569	0.51640	4.48182	4.19607	3.79535	4.30397	3.11272	1.87306	2.92892	2.75176	2.45596	1.57209	1.29389	1.08627	6.91308	6.02613	4.85991
55370	0.72427	0.73860	0.52080	4.47947	4.12811	3.78821	4.31909	3.09957	1.87501	2.91253	2.74832	2.46807	1.54849	1.29946	1.09073	6.88936	6.01121	4.89119
55530	0.72471	0.73837	0.51699	4.46806	4.18214	3.82468	4.30545	3.10600	1.86758	2.94597	2.77428	2.48246	1.55780	1.28377	1.08077	6.93813	6.03792	4.88945
55700	0.71616	0.73348	0.52336	4.50713	4.12359	3.80950	4.30694	3.11931	1.88388	2.93241	2.78829	2.50887	1.60800	1.28890	1.08965	6.90644	6.04471	4.90618	25.51	6.1	0.00	7.33	0.01274	0.01290	0.01671	0.00778	0.00580	0.00636	0.00468	0.01266	0.01688	0.00677	0.00693	0.00895	0.01491	0.01097	0.01198	0.00217	0.00616	0.00867
55860	0.73207	0.74485	0.52257	4.52334	4.23679	3.84307	4.32073	3.12723	1.89435	2.95305	2.77004	2.51565	1.56271	1.30272	1.09129	6.97343	6.03500	4.90107
56020	0.73014	0.75978	0.52763	4.49568	4.15893	3.81321	4.32080	3.12521	1.88512	2.92061	2.74285	2.47704	1.56450	1.30267	1.09787	6.91917	6.06490	4.91357
56190	0.74020	0.74523	0.53611	4.49510	4.16248	3.80380	4.31371	3.10822	1.87958	2.89489	2.74056	2.47087	1.56339	1.28958	1.08879	6.91101	6.02901	4.86642
56350	0.73509	0.74899	0.51608	4.44228	4.12811	3.77063	4.30413	3.10224	1.87456	2.91550	2.72715	2.47225	1.55085	1.28352	1.08246	6.91572	6.01779	4.87645
56520	0.72698	0.74491	0.52392	4.46835	4.12369	3.80532	4.30768	3.09159	1.88094	2.93018	2.74479	2.47378	1.54637	1.28277	1.07441	6.88744	6.01191	4.87738
56680	0.72645	0.73393	0.52178	4.49982	4.11079	3.77184	4.30515	3.09222	1.89366	2.90282	2.76484	2.48891	1.55899	1.28768	1.08619	6.92052	6.02414	4.85853
56840	0.72824	0.73691	0.51975	4.48091	4.14021	3.79547	4.30677	3.10189	1.88221	2.89688	2.72134	2.50016	1.53639	1.27910	1.07394	6.89589	6.06147	4.83193
57010	0.72878	0.73290	0.51610	4.43834	4.31170	3.76493	4.30571	3.09356	1.85112	2.86857	2.72968	2.47667	1.53996	1.28535	1.06881	6.91213	6.06442	4.89668
57170	0.71956	0.74654	0.52268	4.46784	4.11738	3.79844	4.29455	3.10510	1.87101	2.90590	2.74086	2.47885	1.55176	1.28789	1.08132	6.89821	5.97065	4.83857
57330	0.72360	0.73768	0.52177	4.44411	4.14479	3.79000	4.31643	3.11501	1.88652	2.92959	2.73135	2.48547	1.55304	1.30583	1.08951	6.92050	6.02717	4.85668	25.51	6.1	0.00	7.30	0.01274	0.01290	0.01671	0.00778	0.00580	0.00636	0.00468	0.01266	0.01687	0.00677	0.00693	0.00895	0.01491	0.01097	0.01198	0.00217	0.00616	0.00866
57500	0.73248	0.74701	0.53760	4.51738	4.20528	3.80824	4.31925	3.11182	1.87905	2.91782	2.77096	2.51410	1.55720	1.29169	1.08793	6.93242	6.01068	4.86725
57660	0.72721	0.73783	0.51818	4.45754	4.16917	3.81193	4.29944	3.11993	1.87511	2.91653	2.76248	2.50708	1.54563	1.28691	1.08404	6.92319	6.02073	4.85310
57820	0.72111	0.74347	0.52616	4.46171	4.15632	3.78084	4.32281	3.11414	1.88312	2.90429	2.75176	2.46973	1.54570	1.28382	1.08268	6.91742	6.02213	4.88193
57990	0.72245	0.74690	0.51866	4.49217	4.16052	3.79605	4.31995	3.11053	1.88347	2.92451	2.75090	2.51136	1.55013	1.29218	1.09338	6.94120	6.03947	4.85323
58150	0.72485	0.74362	0.52337	4.47027	4.14311	3.82648	4.29191	3.10116	1.87046	2.91633	2.76844	2.47314	1.55352	1.28917	1.08419	6.90881	6.00520	4.86437
58310	0.72505	0.73157	0.51892	4.44428	4.14224	3.80340	4.30430	3.11150	1.87428	2.94684	2.77460	2.50532	1.54929	1.28977	1.07617	6.95743	6.04973	4.87734
58480	0.72179	0.74296	0.52319	4.50889	4.15302	3.78972	4.32122	3.11536	1.89086	2.91197	2.74111	2.49248	1.55408	1.29282	1.08721	6.95014	6.02764	4.86551
58640	0.73094	0.73465	0.50735	4.45460	4.14307	3.76659	4.31738	3.11288	1.87278	2.90558	2.72926	2.44505	1.55248	1.29487	1.08844	6.93504	5.99570	4.85083
58810	0.72359	0.73870	0.52265	4.47291	4.13354	3.78519	4.29786	3.12630	1.87747	2.88401	2.72796	2.48924	1.55540	1.28940	1.09250	6.94571	6.03544	4.83871
58970	0.73574	0.74293	0.52537	4.48648	4.17967	3.79386	4.31961	3.11572	1.87536	2.91815	2.80087	2.48933	1.54811	1.29828	1.08501	6.94369	6.00957	4.95376	25.51	6.2	0.00	7.27	0.01274	0.01290	0.01671	0.00778	0.00580	0.00636	0.00468	0.01266	0.01687	0.00677	0.00693	0.00895	0.01491	0.01097	0.01198	0.00217	0.00616	0.00867
59140	0.73031	0.73819	0.52349	4.48753	4.13452	3.76511	4.31086	3.10737	1.87816	2.90035	2.73861	2.49783	1.55785	1.28251	1.07984	6.92224	6.01157	4.86540
59300	0.72105	0.74638	0.52348	4.42588	4.12130	3.78014	4.30727	3.10675	1.87739	2.91585	2.76166	2.48831	1.54982	1.28145	1.07870	6.95691	6.02080	4.89780
59460	0.72650	0.75191	0.52681	4.48349	4.14468	3.79044	4.32483	3.11866	1.89000	2.91243	2.74279	2.49276	1.55368	1.30122	1.08328	6.93251	6.03233	4.88546
59630	0.73560	0.74919	0.52106	4.48615	4.17963	3.81884	4.31541	3.09509	1.88844	2.93561	2.77523	2.49375	1.56208	1.31838	1.10609	6.92262	6.02111	4.91208
59790	0.72801	0.75485	0.53346	4.45722	4.12873	3.80835	4.33341	3.14122	1.88760	2.94376	2.79130	2.50370	1.57940	1.30211	1.09253	7.08680	6.11144	5.02437
59950	0.74366	0.74778	0.52725	4.51379	4.18133	3.77012	4.31555	3.11562	1.89864	3.02655	2.76553	2.50505	1.56749	1.30784	1.11080	6.96247	6.08726	4.92076
60120	0.72211	0.73348	0.51921	4.62415	4.14880	3.81592	4.30064	3.12218	1.89023	2.91806	2.75227	2.48277	1.54678	1.30220	1.08653	6.95112	6.03155	4.85835
60280	0.72711	0.74657	0.53072	4.47987	4.14442	3.80242	4.31742	3.09744	1.87761	2.93967	2.74754	2.48694	1.55072	1.28922	1.08319	6.92869	6.00915	4.87818
60450	0.73066	0.73486	0.51973	4.46709	4.12675	3.79984	4.32038	3.10340	1.87618	2.90806	2.74429	2.48295	1.55322	1.29435	1.08258	6.91625	5.98923	4.88311
60610	0.72705	0.74584	0.52799	4.46945	4.17163	3.77276	4.32808	3.11261	1.87573	2.90227	2.75040	2.48814	1.63201	1.36563	1.13643	6.91732	6.01538	4.89108	25.51	6.2	0.00	7.34	0.01274	0.01290	0.01671	0.00778	0.00580	0.00636	0.00468	0.01266	0.01687	0.00677	0.00693	0.00895	0.01491	0.01097	0.01198	0.00217	0.00616	0.00867
60770	0.79514	0.76873	0.54129	4.45939	4.13706	3.79606	4.32130	3.11450	1.88788	2.89145	2.76909	2.46662	1.54545	1.29127	1.08434	6.92481	6.03035	4.85608
60940	0.72174	0.73603	0.52126	4.44396	4.11685	3.78198	4.30917	3.10215	1.88333	2.88927	2.74155	2.47607	1.53707	1.28314	1.08125	6.94657	6.06715	4.90234
61100	0.71679	0.73127	0.51894	4.48586	4.17011	3.78786	4.31111	3.11012	1.87612	2.91690	2.77244	2.46991	1.57993	1.29695	1.08121	6.97401	6.04039	4.92594
61270	0.73629	0.75176	0.51339	4.51074	4.16981	3.81039	4.31421	3.10839	1.88690	2.92115	2.75109	2.47941	1.55325	1.29346	1.08431	6.91710	6.05747	4.88153
61430	0.72172	0.75007	0.52048	4.49480	4.18301	3.80619	4.35201	3.10901	1.88683	2.93406	2.78965	2.48757	1.56541	1.30067	1.09383	6.96897	6.06188	4.87418
61600	0.72312	0.74899	0.52171	4.49953	4.15285	3.79678	4.33797	3.09858	1.88460	2.92292	2.74936	2.49047	1.55768	1.28529	1.08086	6.96325	6.05449	4.91421
61760	0.71801	0.72420	0.51685	4.47912	4.14046	3.79879	4.30998	3.10485	1.87165	2.92333	2.75694	2.48427	1.53780	1.27772	1.06825	6.94642	6.02281	4.85890
61920	0.71826	0.72874	0.51621	4.45541	4.15469	3.81592	4.31041	3.11503	1.87538	2.89372	2.74410	2.46921	1.54836	1.29238	1.07942	6.91186	6.05027	4.85639
62090	0.71991	0.73401	0.51509	4.47339	4.15388	3.78744	4.30297	3.09979	1.87396	2.94984	2.75501	2.48080	1.54439	1.27867	1.07353	6.92691	6.00444	4.91625
62250	0.72682	0.74000	0.52358	4.47557	4.12730	3.80603	4.30904	3.09442	1.87794	2.92845	2.74324	2.45983	1.55837	1.28589	1.08046	6.88060	6.01201	4.98762	25.51	6.0	0.00	7.26	0.01275	0.01290	0.01671	0.00778	0.00580	0.00636	0.00468	0.01266	0.01688	0.00677	0.00693	0.00895	0.01491	0.01097	0.01198	0.00217	0.00616	0.00867
62420	0.71883	0.74103	0.51426	4.47391	4.11811	3.74378	4.32177	3.11792	1.88441	2.92012	2.75531	2.46074	1.54743	1.28326	1.07560	6.93724	6.00684	4.87792
62580	0.71782	0.73965	0.51953	4.46675	4.15685	3.77959	4.29738	3.11786	1.88621	2.91210	2.77498	2.49752	1.55039	1.28876	1.08172	6.91453	6.03498	4.86441
62750	0.73216	0.73860	0.51896	4.45175	4.14455	3.77765	4.32343	3.11928	1.88781	2.89042	2.75032	2.45251	1.53943	1.28204	1.08336	6.91228	6.03163	4.86398
62910	0.72786	0.73957	0.52627	4.46933	4.24116	3.80131	4.30731	3.10411	1.87765	2.98913	2.80015	2.47111	1.54418	1.28894	1.08685	7.17925	6.03960	4.88312
63080	0.72659	0.74197	0.51757	4.59626	4.20277	3.81058	4.30478	3.10773	1.87668	2.95001	2.73117	2.49824	1.55862	1.29589	1.08943	6.93041	6.01023	4.87567
63240	0.72342	0.74179	0.52294	4.48564	4.17475	3.77077	4.33515	3.10288	1.88837	2.89922	2.76292	2.47811	1.55481	1.30275	1.07575	6.90705	6.02980	4.88991
63400	0.72218	0.74070	0.52051	4.44712	4.13899	3.79297	4.31679	3.11154	1.89386	2.93843	2.75279	2.50508	1.55634	1.28951	1.09397	6.94189	6.05765	4.90141
63570	0.72490	0.73612	0.51898	4.46320	4.12506	3.80191	4.32964	3.10950	1.88295	2.92366	2.79307	2.47287	1.55491	1.28910	1.08717	6.93094	6.01462	4.87664
63730	0.72782	0.75018	0.52196	4.50859	4.15237	3.77807	4.31806	3.31743	1.91487	2.91284	2.74230	2.48140	1.54515	1.29236	1.08786	6.93574	6.02723	4.84822
63900	0.71867	0.74049	0.52129	4.48109	4.14455	3.78167	4.31610	3.11324	1.89084	2.92504	2.74778	2.44448	1.55033	1.28160	1.07851	6.94617	5.98880	4.85739	25.45	6.1	0.00	7.26	0.01275	0.01290	0.01671	0.00778	0.00580	0.00636	0.00468	0.01267	0.01688	0.00677	0.00693	0.00895	0.01491	0.01097	0.01198	0.00217	0.00616	0.00867
64060	0.72543	0.74566	0.51361	4.47714	4.14473	3.78201	4.30895	3.10467	1.86466	2.90837	2.73262	2.48610	1.55187	1.28774	1.08476	6.93004	6.02550	4.86709
64220	0.72159	0.72903	0.51887	4.46057	4.10862	3.75959	4.30669	3.09102	1.86297	2.89615	2.78031	2.47777	1.55564	1.29586	1.08186	6.94752	6.01464	4.85518
64390	0.72914	0.73631	0.53669	4.51457	4.15891	3.79938	4.34050	3.11861	1.87078	2.93466	2.74206	2.48913	1.56649	1.30858	1.08665	6.89831	6.01735	4.88046
64550	0.72456	0.74172	0.53619	4.46397	4.16849	3.80518	4.31691	3.11031	1.87663	2.90528	2.76323	2.49601	1.55632	1.29137	1.09057	6.87644	5.97047	4.84953
64720	0.72153	0.74574	0.52709	4.49750	4.12955	3.77863	4.31624	3.10156	1.86536	2.92715	2.74106	2.48003	1.54203	1.28270	1.08712	6.89203	6.03241	4.85973
64880	0.72146	0.74593	0.52092	4.46437	4.15614	3.80990	4.31631	3.11101	1.87983	2.93653	2.78803	2.52148	1.55739	1.30250	1.09541	6.91513	6.02081	4.86440
65040	0.74121	0.75928	0.53390	4.46962	4.13300	3.81491	4.29448	3.10972	1.89481	2.94971	2.76971	2.51243	1.57585	1.29544	1.08466	6.91850	6.05055	4.90001
65210	0.72197	0.74041	0.52431	4.47878	4.16883	3.83909	4.29764	3.11635	1.88876	2.93518	2.77806	2.48703	1.55334	1.29809	1.08759	6.93446	6.02419	4.91470
65370	0.73729	0.74911	0.52703	4.51879	4.16391	3.79395	4.34831	3.11415	1.90167	2.90258	2.75518	2.47904	1.55029	1.30155	1.09184	6.94444	6.03191	4.88087
65540	0.72010	0.74332	0.52422	4.51760	4.18451	3.78572	4.32195	3.11067	1.87351	2.91125	2.75893	2.48785	1.54835	1.29573	1.07594	6.95360	6.02906	4.90437	25.51	6.0	0.00	7.25	0.01275	0.01291	0.01671	0.00778	0.00580	0.00636	0.00468	0.01267	0.01688	0.00677	0.00693	0.00895	0.01491	0.01097	0.01198	0.00217	0.00616	0.00867
65700	0.73098	0.74121	0.52688	4.47435	4.13502	3.79661	4.30732	3.10041	1.88026	2.93201	2.75436	2.47912	1.55681	1.29648	1.08739	6.96255	6.02815	4.85807
65860	0.73454	0.74049	0.52286	4.44796	4.11140	3.79842	4.31391	3.10947	1.87911	2.91403	2.76932	2.50524	1.54643	1.28304	1.07197	6.90368	5.99832	4.89481
66030	0.72262	0.73984	0.53030	4.48693	4.14011	3.77681	4.30099	3.10900	1.88152	2.90050	2.74095	2.49264	1.54979	1.31495	1.10595	6.91790	6.01547	4.88171
66190	0.72292	0.75101	0.53347	4.47773	4.11303	3.77489	4.30359	3.09043	1.86051	2.90009	2.75997	2.46554	1.54937	1.29304	1.06900	6.89935	6.01146	4.86825
66350	0.71659	0.73778	0.52276	4.49459	4.14474	3.78172	4.27395	3.10584	1.86483	2.92509	2.75548	2.48089	1.54833	1.28546	1.07022	6.91513	5.98605	4.84688
66520	0.72275	0.73896	0.51770	4.48627	4.27465	3.81153	4.27831	3.08675	1.86629	2.91167	2.77496	2.53923	1.54807	1.29347	1.08755	6.91685	6.04559	4.90025
66680	0.73280	0.73735	0.52080	4.45061	4.14253	3.78371	4.28663	3.08537	1.87475	2.92640	2.74142	2.50524	1.54956	1.28451	1.08094	6.89830	5.99564	4.86569
66850	0.73006	0.74181	0.52134	4.44121	4.12317	3.75886	4.29796	3.08943	1.86891	2.89930	2.71431	2.44779	1.54556	1.27985	1.08146	6.87009	5.96664	4.82950
67010	0.72106	0.73147	0.51592	4.45867	4.09333	3.73411	4.28322	3.09402	1.86246	2.90298	2.72873	2.45268	1.59638	1.35269	1.07353	6.85059	5.94604	4.79526
67180	0.72526	0.73316	0.51917	4.42179	4.09470	3.74240	4.27127	3.08408	1.86578	2.89399	2.72030	2.47170	1.53141	1.26700	1.05745	6.84852	5.94598	4.81588	25.51	6.1	0.00	7.28	0.01275	0.01291	0.01671	0.00778	0.00580	0.00636	0.00468	0.01267	0.01688	0.00677	0.00693	0.00895	0.01491	0.01097	0.01198	0.00217	0.00616	0.00867
67340	0.70035	0.71601	0.50636	4.41673	4.09508	3.77213	4.26165	3.07661	1.85551	2.88842	2.73265	2.43908	1.52035	1.26545	1.06443	6.88860	5.97514	4.81036
67500	0.71078	0.72234	0.50777	4.40207	4.08089	3.77038	4.26407	3.07516	1.84924	2.89966	2.70101	2.43169	1.53092	1.27269	1.05954	6.85834	5.92495	4.81950
67670	0.70390	0.71945	0.50979	4.39987	4.09598	3.70828	4.27260	3.06817	1.83556	2.87585	2.72183	2.42525	1.53171	1.26028	1.05603	6.84258	5.92798	4.80786
67830	0.71041	0.72678	0.51080	4.41567	4.11755	3.72598	4.27579	3.07411	1.85404	2.88260	2.70321	2.44255	1.53555	1.28288	1.08668	6.85849	5.91742	4.75913
67990	0.72195	0.72556	0.52248	4.41780	4.14177	3.69842	4.25135	3.05644	1.84156	2.87813	2.71696	2.45787	1.52290	1.26726	1.06248	6.79211	5.91643	4.75572
68160	0.69567	0.71460	0.50709	4.38602	4.06148	3.68940	4.22274	3.04319	1.84509	2.86189	2.69193	2.41722	1.51449	1.27249	1.06370	6.75839	5.90492	4.75796
68320	0.70442	0.71768	0.50429	4.38854	4.05613	3.70371	4.21527	3.03495	1.82973	2.83057	2.66980	2.41366	1.50517	1.25458	1.05674	6.79063	5.89619	4.76610
68490	0.70037	0.70757	0.50545	4.40448	4.08651	3.70385	4.22878	3.03335	1.82289	2.81663	2.66876	2.43575	1.50783	1.26042	1.05742	6.83471	5.90260	4.76005
68650	0.71094	0.71852	0.51203	4.38701	4.04186	3.71274	4.22417	3.02623	1.83111	2.87628	2.68448	2.41330	1.50120	1.24880	1.04462	6.77313	5.89619	4.78329
68820	0.69657	0.71313	0.49213	4.33743	4.00831	3.67450	4.20343	3.00730	1.82882	2.84757	2.69410	2.40447	1.52989	1.25342	1.05875	6.77220	5.88528	4.76267	25.51	6.1	0.00	7.25	0.01275	0.01291	0.01671	0.00778	0.00580	0.00636	0.00468	0.01267	0.01688	0.00677	0.00693	0.00895	0.01491	0.01097	0.01198	0.00217	0.00616	0.00867
68980	0.70638	0.71706	0.50199	4.37242	4.03683	3.69504	4.21515	3.01842	1.81926	2.81372	2.65837	2.44277	1.49921	1.25662	1.06458	6.77043	5.90891	4.79492
69140	0.71413	0.71484	0.52204	4.37239	4.02897	3.69621	4.18511	3.01642	1.81094	2.83164	2.65209	2.43592	1.49426	1.24300	1.04995	6.73884	5.85297	4.73615
69310	0.68867	0.70538	0.50014	4.33806	4.04201	3.69862	4.18341	2.98899	1.80515	2.81643	2.63244	2.40089	1.48551	1.23128	1.03145	6.72553	5.83719	4.70846
69470	0.68291	0.71077	0.49631	4.33385	4.02398	3.64676	4.18995	2.99444	1.80478	2.82995	2.65559	2.41231	1.49455	1.24470	1.02921	6.75076	5.83080	4.73683
69630	0.68967	0.70543	0.49106	4.32671	4.00006	3.68382	4.18584	2.99207	1.81077	2.84986	2.67743	2.40036	1.49462	1.24769	1.03789	6.74391	5.89588	4.75565
69800	0.69996	0.71241	0.50529	4.39357	4.02050	3.73097	4.19162	3.00923	1.82009	2.87507	2.73242	2.47224	1.49650	1.26007	1.06061	6.72421	5.88906	4.73833
69960	0.69791	0.71091	0.52375	4.36732	4.03835	3.71504	4.18480	3.01460	1.80605	2.86642	2.67025	2.42809	1.51440	1.26272	1.05008	6.75466	5.88934	4.75169
70130	0.72282	0.71854	0.51224	4.39626	4.04821	3.71719	4.20309	3.01488	1.82433	2.84830	2.69055	2.44821	1.50610	1.26000	1.04998	6.80813	5.90198	4.74547
70290	0.71776	0.72505	0.53020	4.36857	4.07700	3.73843	4.17812	3.01879	1.81761	2.83584	2.68214	2.43612	1.50365	1.24667	1.04371	6.76852	5.89539	4.75211
70450	0.70483	0.71609	0.50530	4.35013	4.01985	3.69854	4.18206	3.00006	1.79406	2.83998	2.64893	2.41243	1.50018	1.23742	1.03649	6.75715	5.87237	4.70111	25.51	5.9	0.00	7.26	0.01275	0.01291	0.01671	0.00778	0.00580	0.00636	0.00468	0.01267	0.01688	0.00677	0.00693	0.00895	0.01491	0.01097	0.01198	0.00217	0.00616	0.00867
70620	0.69972	0.72208	0.50517	4.37385	4.09286	3.72188	4.18676	3.00244	1.81442	3.02901	2.68630	2.44648	1.48728	1.24039	1.04630	6.78341	5.89604	4.89246
70780	0.68906	0.70461	0.50493	4.35738	4.03589	3.67650	4.18130	3.00580	1.79895	2.82811	2.67821	2.40869	1.49126	1.24540	1.03929	6.76821	5.95688	4.75990
70940	0.69206	0.70534	0.50023	4.36805	4.03607	3.73359	4.19724	3.01565	1.81147	2.82845	2.65545	2.41705	1.48360	1.23829	1.03644	6.75222	5.85589	4.74113
71110	0.76277	0.71153	0.49001	4.34638	4.32416	3.74948	4.18279	3.01998	1.80849	2.87935	2.65593	2.37007	1.49048	1.22974	1.03639	6.75317	5.89416	4.76665
71270	0.69392	0.70578	0.50488	4.34956	4.00969	3.68239	4.20282	3.04323	1.82383	2.81938	2.67217	2.42161	1.48435	1.23939	1.03591	6.71803	5.84785	4.75268
71440	0.68757	0.70090	0.49703	4.33443	4.02214	3.67421	4.15968	2.98692	1.79540	2.80190	2.64701	2.39646	1.48849	1.23533	1.03088	6.73970	5.83528	4.69426
