WetView ver 7.1	07-17-2018	14:37:57
AC9 Absorption and Attenuation Meter
00000266		; Serial number
2	; structure version number
Reserved
0.000000	0.000000		; Depth calibration
19200			; Baud rate
0.100000			; Path length (meters)
31			; number of temperature calibration bins
				12.59339	13.44920	14.48425	15.49668	16.50852	17.49564	18.50545	19.52458	20.50176	21.48889	22.47318	23.48707	24.50962	25.49370	26.49784	27.51372	28.50746	29.47237	30.47938	31.50214	32.50470	33.49235	34.50337	35.50914	36.50618	37.52058	38.51018	39.51308	40.49994	41.49866	42.47204	; temperature bins
a650	Blue	20.34952		-0.00383	-0.00415	-0.00430	-0.00391	-0.00363	-0.00317	-0.00269	-0.00237	-0.00179	-0.00130	-0.00099	-0.00071	-0.00015	0.00000	0.00004	-0.00001	0.00015	0.00036	0.00058	0.00101	0.00161	0.00132	0.00160	0.00169	0.00242	0.00273	0.00336	0.00365	0.00427	0.00566	0.00670		; offset and temperature correction info
a676	Green	20.51193		-0.00398	-0.00384	-0.00360	-0.00306	-0.00302	-0.00255	-0.00235	-0.00212	-0.00163	-0.00136	-0.00118	-0.00089	-0.00029	0.00000	0.00068	0.00082	0.00099	0.00137	0.00145	0.00212	0.00260	0.00252	0.00321	0.00354	0.00457	0.00535	0.00617	0.00648	0.00742	0.00887	0.01002		; offset and temperature correction info
a715	Brown	20.23230		-0.00421	-0.00394	-0.00391	-0.00291	-0.00264	-0.00192	-0.00204	-0.00179	-0.00188	-0.00239	-0.00180	-0.00187	-0.00099	0.00000	0.00084	0.00162	0.00188	0.00224	0.00321	0.00381	0.00466	0.00528	0.00588	0.00696	0.00859	0.01041	0.01148	0.01282	0.01333	0.01456	0.01617		; offset and temperature correction info
c510	Red	20.40042		-0.00261	-0.00247	-0.00258	-0.00225	-0.00203	-0.00197	-0.00199	-0.00203	-0.00154	-0.00103	-0.00069	-0.00019	-0.00007	0.00000	0.00011	-0.00021	-0.00042	-0.00056	-0.00040	0.00011	0.00036	0.00050	0.00077	0.00079	0.00050	0.00042	0.00043	0.00092	0.00147	0.00200	0.00232		; offset and temperature correction info
c532	Magenta	20.40760		-0.00248	-0.00265	-0.00278	-0.00279	-0.00296	-0.00292	-0.00238	-0.00206	-0.00129	-0.00096	-0.00092	-0.00052	-0.00009	0.00000	0.00007	-0.00049	-0.00136	-0.00107	-0.00079	-0.00065	-0.00074	-0.00105	-0.00152	-0.00192	-0.00236	-0.00269	-0.00252	-0.00233	-0.00172	-0.00128	-0.00067		; offset and temperature correction info
c555	Black	20.50654		-0.00053	-0.00063	-0.00106	-0.00094	-0.00068	-0.00055	-0.00053	-0.00039	-0.00028	-0.00025	-0.00011	-0.00035	-0.00007	0.00000	-0.00037	-0.00055	-0.00036	-0.00014	0.00019	0.00044	0.00032	0.00040	0.00050	0.00028	0.00014	0.00013	0.00030	0.00073	0.00117	0.00176	0.00241		; offset and temperature correction info
a412	LtBlue	17.15231		-0.01972	-0.01823	-0.01612	-0.01381	-0.01272	-0.01080	-0.00959	-0.00866	-0.00710	-0.00532	-0.00354	-0.00148	-0.00028	0.00000	0.00176	0.00297	0.00394	0.00440	0.00453	0.00487	0.00804	0.00856	0.01065	0.01248	0.01388	0.01439	0.01659	0.01881	0.02256	0.02450	0.02719		; offset and temperature correction info
a440	LtGreen	18.00171		-0.00729	-0.00642	-0.00581	-0.00502	-0.00426	-0.00349	-0.00244	-0.00218	-0.00179	-0.00101	-0.00046	-0.00006	0.00036	0.00000	0.00040	0.00045	0.00030	-0.00015	-0.00024	-0.00035	0.00012	-0.00013	-0.00033	-0.00089	-0.00142	-0.00189	-0.00231	-0.00205	-0.00140	-0.00140	-0.00146		; offset and temperature correction info
a488	Yellow	18.86491		-0.00113	-0.00102	-0.00106	-0.00064	-0.00027	-0.00020	-0.00030	-0.00037	-0.00047	-0.00059	-0.00052	-0.00012	0.00008	0.00000	0.00025	0.00012	-0.00013	-0.00043	-0.00065	-0.00076	-0.00025	0.00010	0.00090	0.00111	0.00113	0.00104	0.00073	0.00068	0.00120	0.00186	0.00258		; offset and temperature correction info
c650	Blue	20.46075		-0.00145	-0.00097	-0.00092	-0.00139	-0.00185	-0.00196	-0.00237	-0.00266	-0.00238	-0.00163	-0.00083	-0.00041	-0.00010	0.00000	0.00005	-0.00001	0.00015	0.00034	0.00029	0.00065	0.00101	0.00164	0.00126	0.00156	0.00175	0.00270	0.00287	0.00371	0.00407	0.00473	0.00534		; offset and temperature correction info
c676	Green	20.10118		-0.00170	-0.00144	-0.00149	-0.00177	-0.00188	-0.00194	-0.00198	-0.00196	-0.00177	-0.00156	-0.00140	-0.00091	-0.00033	0.00000	0.00050	0.00092	0.00110	0.00141	0.00167	0.00199	0.00216	0.00265	0.00269	0.00289	0.00315	0.00374	0.00367	0.00408	0.00486	0.00561	0.00646		; offset and temperature correction info
c715	Brown	19.91219		-0.01201	-0.01097	-0.00859	-0.00680	-0.00651	-0.00592	-0.00535	-0.00440	-0.00387	-0.00303	-0.00222	-0.00153	-0.00028	0.00000	0.00093	0.00149	0.00247	0.00322	0.00330	0.00427	0.00373	0.00464	0.00536	0.00551	0.00643	0.00733	0.00779	0.00884	0.00899	0.01021	0.01120		; offset and temperature correction info
a510	Red	19.21192		0.00201	0.00193	0.00158	0.00098	0.00089	0.00049	0.00011	-0.00016	-0.00016	-0.00005	0.00028	0.00025	0.00006	0.00000	0.00035	-0.00022	-0.00023	-0.00080	-0.00144	-0.00154	-0.00153	-0.00204	-0.00220	-0.00219	-0.00190	-0.00128	-0.00069	-0.00018	0.00068	0.00152	0.00241		; offset and temperature correction info
a532	Magenta	19.41084		-0.00097	-0.00072	-0.00060	-0.00081	-0.00062	-0.00071	-0.00040	0.00020	0.00028	0.00043	0.00000	-0.00035	0.00007	0.00000	-0.00011	-0.00059	-0.00080	-0.00098	-0.00137	-0.00162	-0.00163	-0.00130	-0.00073	-0.00018	0.00090	0.00185	0.00175	0.00247	0.00291	0.00327	0.00349		; offset and temperature correction info
a555	Black	19.69776		0.00171	0.00183	0.00183	0.00186	0.00191	0.00170	0.00115	0.00131	0.00097	0.00073	0.00060	0.00013	0.00015	0.00000	0.00014	-0.00029	-0.00066	-0.00082	-0.00116	-0.00139	-0.00134	-0.00167	-0.00119	-0.00093	-0.00048	0.00053	0.00111	0.00095	0.00178	0.00206	0.00273		; offset and temperature correction info
c412	LtBlue	19.91180		-0.02051	-0.01853	-0.01589	-0.01311	-0.01059	-0.00877	-0.00705	-0.00581	-0.00413	-0.00231	-0.00098	-0.00066	-0.00011	0.00000	-0.00013	-0.00085	-0.00170	-0.00170	-0.00302	-0.00330	-0.00429	-0.00551	-0.00626	-0.00775	-0.00978	-0.01181	-0.01113	-0.01108	-0.01116	-0.01192	-0.01291		; offset and temperature correction info
c440	LtGreen	20.06241		-0.01064	-0.00992	-0.00892	-0.00766	-0.00639	-0.00531	-0.00478	-0.00384	-0.00287	-0.00187	-0.00102	-0.00063	-0.00023	0.00000	-0.00007	-0.00053	-0.00090	-0.00119	-0.00169	-0.00197	-0.00226	-0.00257	-0.00260	-0.00289	-0.00394	-0.00470	-0.00481	-0.00493	-0.00520	-0.00580	-0.00620		; offset and temperature correction info
c488	Yellow	20.35984		-0.01125	-0.01082	-0.00966	-0.00833	-0.00726	-0.00661	-0.00579	-0.00500	-0.00389	-0.00278	-0.00167	-0.00113	-0.00041	0.00000	0.00055	0.00121	0.00187	0.00226	0.00222	0.00251	0.00281	0.00359	0.00414	0.00427	0.00401	0.00404	0.00486	0.00563	0.00638	0.00684	0.00718		; offset and temperature correction info
0.003500	0.004000	0.015000	0.020000	0.015000	0.020000	2500.000000	2000.000000	1000.000000	; maxANoise	maxCNoise	maxADifference	maxCDifference	minACounts	minCCounts	minRCounts	maxTempSdev	maxDepthSdev
0			; auxilliary capabilities
1			; acquisition binsize
0	0.72821	0.73918	0.52775	4.45601	4.15815	3.77507	4.32529	3.13707	1.88256	2.93219	2.75283	2.49689	1.55793	1.31713	1.10859	6.93060	6.01644	4.84233	24.30	6.1	0.00	7.24	0.01277	0.01292	0.01682	0.00780	0.00581	0.00637	0.00469	0.01268	0.01691	0.00679	0.00694	0.00902	0.01493	0.01099	0.01200	0.00218	0.00617	0.00869
170	0.73238	0.74241	0.52548	4.48481	4.14211	3.77914	4.34055	3.13080	1.89288	2.89033	2.75016	2.47370	1.55705	1.30491	1.08940	6.93719	6.05154	4.88337
330	0.72380	0.74011	0.52397	4.47926	4.14151	3.78260	4.33494	3.12663	1.89790	2.89691	2.72933	2.45336	1.55682	1.29718	1.11333	7.01410	6.03216	4.90171
490	0.75818	0.79953	0.58720	4.53667	4.22982	3.85573	4.34098	3.18123	1.97252	2.99226	2.84066	2.54994	1.61808	1.39679	1.15782	7.10180	6.18184	4.99459
660	0.83195	0.82418	0.59984	4.54172	4.25577	3.87928	4.45239	3.19707	1.94727	3.08882	2.91870	2.69228	1.65368	1.40607	1.19528	7.06218	6.15622	5.01736
820	0.79297	0.82955	0.61446	4.65495	4.34592	3.92120	4.43122	3.18832	1.96953	3.02797	2.89667	2.65305	1.64476	1.36729	1.18221	7.01916	6.21086	5.00091
990	0.80755	0.85230	0.57535	4.61106	4.32040	3.91265	4.38724	3.24895	1.93474	3.01618	2.83872	2.55609	1.59438	1.32663	1.11725	6.98083	6.08799	4.97385
1150	0.77046	0.77481	0.54817	4.57821	4.24388	3.89453	4.38103	3.18864	1.94616	2.97901	2.78998	2.51893	1.59767	1.33055	1.11212	6.98602	6.05668	4.93415
1320	0.74433	0.75623	0.54417	4.47493	4.14459	3.78986	4.34705	3.13196	1.90515	2.92158	2.76346	2.49588	1.57720	1.31789	1.09103	6.93868	6.04798	4.87049
1480	0.74189	0.74862	0.54450	4.46489	4.15714	3.79498	4.35023	3.13586	1.89565	2.90921	2.74569	2.47743	1.56562	1.30077	1.09523	6.91790	6.02739	4.85858
1650	0.74282	0.74370	0.53654	4.47603	4.14493	3.79138	4.31607	3.11964	1.88679	2.92594	2.71827	2.47071	1.55747	1.30645	1.10405	6.93729	6.02549	4.88275	24.36	6.2	0.00	7.28	0.01277	0.01292	0.01682	0.00780	0.00581	0.00637	0.00469	0.01268	0.01691	0.00679	0.00694	0.00902	0.01493	0.01099	0.01200	0.00217	0.00617	0.00869
1810	0.73218	0.74323	0.52374	4.46701	4.14743	3.76301	4.33594	3.12165	1.90052	2.92538	2.74654	2.45924	1.56492	1.30485	1.09518	6.95640	6.03133	4.89805
1970	0.73327	0.74588	0.52302	4.48035	4.12719	3.79092	4.36316	3.13765	1.89877	2.90266	2.74574	2.46593	1.56199	1.29860	1.09866	6.90149	5.97734	4.86802
2140	0.73310	0.74103	0.52028	4.47157	4.11339	3.77831	4.34109	3.13381	1.89763	2.88055	2.71579	2.46180	1.55766	1.29827	1.08647	6.89813	5.99511	4.87670
2300	0.72624	0.74488	0.52587	4.44902	4.15015	3.77423	4.32079	3.11834	1.88003	2.92300	2.75401	2.44555	1.55441	1.30075	1.09009	6.88144	5.97543	4.82963
2460	0.72667	0.74284	0.53032	4.45696	4.10804	3.78931	4.29687	3.10010	1.88545	2.88730	2.74756	2.47598	1.56846	1.28848	1.08536	6.91964	5.99769	4.85286
2630	0.72165	0.73716	0.51960	4.44733	4.10985	3.75424	4.31572	3.11176	1.87513	2.87947	2.71435	2.45156	1.55506	1.28581	1.08426	6.90074	6.00034	4.84471
2790	0.72505	0.73922	0.52542	4.42955	4.07925	3.74726	4.32966	3.10018	1.87588	2.88258	2.73119	2.46332	1.53941	1.28779	1.08946	6.89142	5.95332	4.81364
2950	0.71073	0.73230	0.51631	4.48046	4.16219	3.76229	4.28494	3.11333	1.87289	2.90601	2.74023	2.47234	1.56029	1.29224	1.08610	6.94606	6.01307	4.88892
3120	0.73941	0.74808	0.53515	4.52016	4.15225	3.79342	4.32283	3.11722	1.88590	2.91231	2.72369	2.48614	1.56982	1.29546	1.09596	6.92831	6.03676	4.90041
3280	0.73974	0.75740	0.56501	4.49906	4.17967	3.83325	4.34457	3.14730	1.90670	2.93580	2.74562	2.49153	1.57001	1.30838	1.10041	6.94031	6.02400	4.88657	24.30	6.1	0.00	7.20	0.01277	0.01292	0.01681	0.00780	0.00581	0.00637	0.00469	0.01268	0.01691	0.00679	0.00694	0.00901	0.01493	0.01099	0.01200	0.00217	0.00617	0.00869
3440	0.74416	0.75845	0.53293	4.48063	4.15017	3.82416	4.32260	3.12139	1.88612	2.94017	2.76870	2.50266	1.57562	1.30203	1.10864	6.94255	6.04855	4.88206
3610	0.74818	0.76613	0.53105	4.46403	4.17514	3.82490	4.30937	3.08973	1.87602	2.91530	2.75161	2.47185	1.54801	1.29066	1.07840	6.86067	5.94597	4.83131
3770	0.72958	0.73656	0.51765	4.42279	4.07464	3.74450	4.29900	3.08957	1.86579	2.85187	2.69754	2.42480	1.54889	1.29042	1.07829	6.90112	5.95245	4.82024
3930	0.72139	0.73245	0.51463	4.42862	4.13067	3.75871	4.25923	3.06574	1.84721	2.86962	2.72704	2.42235	1.52578	1.26758	1.06861	6.84536	5.94042	4.77304
4100	0.72000	0.72377	0.51422	4.39953	4.07360	3.71354	4.27755	3.06987	1.85264	2.84927	2.69595	2.43339	1.52526	1.26303	1.05943	6.83416	5.93513	4.80642
4260	0.71597	0.72890	0.51798	4.38966	4.09429	3.73401	4.24552	3.04785	1.83560	2.85548	2.69803	2.42723	1.51621	1.27036	1.06086	6.83342	5.92580	4.81955
4430	0.70968	0.72283	0.51148	4.39849	4.06960	3.71987	4.22827	3.04621	1.83988	2.86856	2.69370	2.43629	1.51757	1.26247	1.05881	6.80144	5.91799	4.77224
4590	0.71432	0.71760	0.51254	4.44296	4.05827	3.70194	4.24940	3.04890	1.84243	2.85705	2.73258	2.46979	1.52449	1.26132	1.05673	6.76846	5.88477	4.74578
4760	0.69987	0.71795	0.50145	4.36464	4.02996	3.68898	4.24094	3.03029	1.83038	2.82606	2.68442	2.42807	1.51342	1.24390	1.04669	6.77421	5.86796	4.77968
4920	0.70591	0.71478	0.50542	4.35064	4.06133	3.68926	4.20197	3.02744	1.81806	2.82743	2.70815	2.41647	1.50783	1.25109	1.03980	6.74750	5.86369	4.80609	24.36	6.0	0.00	7.32	0.01277	0.01292	0.01681	0.00780	0.00581	0.00637	0.00469	0.01268	0.01691	0.00679	0.00694	0.00901	0.01493	0.01099	0.01200	0.00217	0.00617	0.00869
5090	0.70488	0.71559	0.50771	4.36505	4.03560	3.66289	4.19206	3.02321	1.82960	2.84237	2.65663	2.40581	1.49399	1.24911	1.05982	6.75154	5.84955	4.73362
5250	0.70050	0.71426	0.50305	4.37170	4.01438	3.67569	4.18976	3.01750	1.80774	2.84887	2.66620	2.38453	1.48759	1.24188	1.04326	6.70019	5.83944	4.70186
5420	0.69493	0.71446	0.50000	4.35463	3.99469	3.65942	4.20855	3.00017	1.81884	2.83700	2.66878	2.41268	1.49696	1.24726	1.05636	6.72503	5.84715	4.72743
5580	0.69958	0.72553	0.51796	4.33123	3.98087	3.66426	4.19199	3.00362	1.80448	2.83804	2.67893	2.40968	1.48990	1.25864	1.05127	6.74191	5.86896	4.74126
5750	0.68939	0.70749	0.49882	4.36095	4.01344	3.70045	4.21109	2.99786	1.81016	2.82653	2.64291	2.38876	1.50618	1.25198	1.04283	6.68506	5.85142	4.78628
5910	0.69117	0.71276	0.50362	4.34651	4.02499	3.67067	4.17476	2.99764	1.81427	2.84677	2.75629	2.40403	1.49195	1.24436	1.04813	6.69135	5.85942	4.70501
6070	0.70059	0.71915	0.49973	4.34652	4.02681	3.67670	4.17566	2.99202	1.79659	2.77797	2.66440	2.36049	1.48899	1.24097	1.03665	6.69471	5.84275	4.70146
6240	0.69057	0.70253	0.49931	4.32023	3.98722	3.64170	4.16862	2.98778	1.79152	2.78787	2.62819	2.35645	1.48113	1.23599	1.03711	6.70649	5.80428	4.70817
6400	0.68277	0.70336	0.49586	4.31335	4.01950	3.63478	4.16207	2.98676	1.79753	2.81218	2.65620	2.39682	1.48760	1.22784	1.03055	6.71572	5.81807	4.69709
6570	0.68651	0.70821	0.49772	4.30454	3.98026	3.65192	4.18748	3.02648	1.80901	2.78823	2.64646	2.39797	1.49401	1.23502	1.04845	6.75360	5.83035	4.71528	24.36	6.1	0.00	6.35	0.01277	0.01292	0.01681	0.00780	0.00581	0.00637	0.00469	0.01268	0.01691	0.00679	0.00694	0.00901	0.01493	0.01099	0.01200	0.00217	0.00617	0.00869
6730	0.69853	0.71086	0.50263	4.35190	4.03179	3.65971	4.17075	2.99115	1.80615	2.81552	2.65109	2.42156	1.48931	1.24615	1.03838	6.74720	5.83943	4.71291
6900	0.69241	0.70932	0.49617	4.33958	3.98897	3.66428	4.18186	2.99934	1.80735	2.81770	2.64557	2.40528	1.50291	1.24719	1.04161	6.74610	5.88339	4.78019
7060	0.69501	0.71371	0.49936	4.34312	4.02575	3.74618	4.18307	3.01355	1.81544	2.81736	2.68613	2.41085	1.50303	1.23878	1.03801	6.74536	5.87271	4.76369
7230	0.69593	0.69889	0.49998	4.40672	4.06940	3.71592	4.20035	3.01762	1.81684	2.84649	2.69435	2.42200	1.49984	1.25536	1.11904	6.78830	5.93307	4.76117
7390	0.69300	0.71701	0.50303	4.34964	4.02636	3.71111	4.20355	3.01696	1.82480	2.85994	2.71636	2.41892	1.50356	1.23802	1.08692	6.79436	5.92072	4.77142
7550	0.70275	0.71293	0.50247	4.37298	4.01645	3.68508	4.19162	3.01853	1.82688	2.83068	2.67550	2.39237	1.50193	1.26720	1.06407	6.73758	5.85833	4.71004
7720	0.70551	0.70678	0.49660	4.33548	4.02720	3.72072	4.18026	2.99832	1.81501	2.83051	2.67917	2.42207	1.49923	1.24812	1.04758	6.72701	5.91201	4.77308
7880	0.69849	0.71296	0.49881	4.36238	4.02029	3.66757	4.20714	3.02242	1.82165	2.81609	2.63976	2.38986	1.50142	1.25369	1.04260	6.74265	5.89177	4.74168
8040	0.69657	0.71079	0.50374	4.32851	4.02754	3.72126	4.20167	3.03117	1.82445	2.82277	2.68914	2.40853	1.52096	1.26859	1.05244	6.73148	5.90395	4.78225
8210	0.70196	0.71616	0.50902	4.36924	4.05083	3.69061	4.21666	3.02497	1.82827	2.84077	2.67432	2.40765	1.50960	1.26110	1.05002	6.81265	5.86557	4.76073	24.42	6.1	0.00	7.43	0.01277	0.01292	0.01681	0.00780	0.00581	0.00637	0.00469	0.01268	0.01691	0.00679	0.00694	0.00901	0.01493	0.01099	0.01200	0.00217	0.00617	0.00869
8370	0.70585	0.71835	0.51130	4.37806	4.03552	3.70795	4.24115	3.03975	1.84129	2.86671	2.67771	2.40770	1.52618	1.25793	1.06296	6.77183	5.89163	4.78374
8540	0.76278	0.74835	0.52309	4.36750	4.04250	3.69533	4.22618	3.05193	1.83547	2.85353	2.66322	2.44309	1.51815	1.27012	1.06797	6.80422	5.90735	4.87857
8700	0.71589	0.72839	0.51369	4.39814	4.08078	3.69662	4.25990	3.06360	1.85114	2.87794	2.72397	2.41621	1.53542	1.28392	1.07644	6.83694	5.90978	4.79218
8860	0.72222	0.73444	0.51515	4.37059	4.10242	3.77504	4.24545	3.06031	1.86055	2.84097	2.72166	2.45075	1.53422	1.27966	1.08051	7.14740	5.95010	4.80535
9030	0.72098	0.75259	0.52406	4.42349	4.10610	3.76285	4.28440	3.07034	1.86781	2.85511	2.69542	2.43702	1.54487	1.27556	1.08378	6.85817	5.95427	4.80583
9190	0.71243	0.73157	0.51909	4.42370	4.09907	3.76911	4.28819	3.08990	1.85950	2.88468	2.74623	2.46984	1.54145	1.27646	1.07607	6.91001	6.03832	4.83238
9360	0.71327	0.72859	0.52144	4.43819	4.10385	3.77866	4.30009	3.09297	1.87840	2.86909	2.71566	2.44764	1.54118	1.28371	1.07178	6.85297	5.97036	4.84243
9520	0.71891	0.72741	0.51472	4.43650	4.12560	3.77373	4.28773	3.09095	1.86593	2.90326	2.84340	2.47045	1.55067	1.28522	1.06959	6.87549	5.97940	4.86032
9690	0.71260	0.72702	0.51813	4.44905	4.11522	3.76683	4.27752	3.09192	1.86783	2.90077	2.73393	2.45120	1.54737	1.30147	1.06833	6.85015	5.95238	4.81132
9850	0.71284	0.72912	0.51827	4.39319	4.07661	3.71851	4.27695	3.09008	1.87595	2.85995	2.72113	2.45303	1.53222	1.27020	1.07117	6.83834	5.97886	4.82900	24.42	6.1	0.00	7.40	0.01277	0.01291	0.01681	0.00780	0.00581	0.00637	0.00469	0.01268	0.01691	0.00679	0.00694	0.00901	0.01493	0.01099	0.01200	0.00217	0.00617	0.00869
10010	0.71703	0.72728	0.52337	4.40674	4.04845	3.74251	4.28470	3.08185	1.87248	2.87147	2.72328	2.41822	1.54269	1.28450	1.07122	6.84620	5.93827	4.81228
10180	0.71679	0.73393	0.51781	4.43527	4.08068	3.72852	4.31292	3.09407	1.87140	2.85364	2.71461	2.44741	1.54710	1.28379	1.08645	6.87183	5.98257	4.82307
10340	0.72146	0.74376	0.51749	4.40932	4.07932	3.76485	4.30339	3.09046	1.88087	2.89422	2.71991	2.44778	1.54898	1.29978	1.08498	6.87287	5.96719	4.82985
10510	0.73300	0.74557	0.52652	4.48058	4.11040	3.73364	4.30360	3.11555	1.87509	3.17817	2.73651	2.47860	1.55117	1.29100	1.08281	6.86707	5.99261	4.83593
10670	0.71739	0.73231	0.52315	4.43350	4.09716	3.78109	4.28782	3.09292	1.87851	2.90976	2.73214	2.45648	1.57321	1.28694	1.09091	6.88612	5.95684	4.84010
10840	0.72044	0.75094	0.52760	4.45412	4.10345	3.75379	4.30711	3.10770	1.86983	2.86728	2.72846	2.45124	1.54530	1.28448	1.08074	6.87563	5.96186	4.85857
11000	0.72727	0.73851	0.52159	4.49308	4.13030	3.78215	4.30458	3.09957	1.88124	2.90470	2.72348	2.47280	1.54706	1.28203	1.08175	6.91873	5.99275	4.86566
11170	0.73133	0.74422	0.53956	4.43702	4.11231	3.76263	4.33452	3.11924	1.88466	2.88436	2.74802	2.48206	1.56776	1.29761	1.08877	6.90514	6.02308	4.84900
11330	0.72385	0.74233	0.53178	4.46173	4.13578	3.75188	4.29931	3.08310	1.87606	2.90145	2.73221	2.48307	1.53907	1.28509	1.07703	6.86811	5.98163	4.84029
11490	0.71592	0.73173	0.51657	4.41378	4.09789	3.78232	4.28592	3.08111	1.86312	2.87478	2.71181	2.46051	1.54271	1.29149	1.07961	6.87007	5.93750	4.84220	24.42	6.2	0.00	7.22	0.01277	0.01292	0.01681	0.00780	0.00581	0.00637	0.00469	0.01268	0.01691	0.00679	0.00694	0.00901	0.01493	0.01099	0.01200	0.00218	0.00617	0.00869
11660	0.71700	0.73868	0.52149	4.45029	4.11149	3.76457	4.28701	3.08798	1.86484	2.86909	2.67857	2.43484	1.53374	1.27863	1.07804	6.81334	5.91097	4.80155
11820	0.71428	0.72565	0.50953	4.42987	4.11994	3.73653	4.27856	3.09026	1.86198	2.91133	2.70074	2.43524	1.53679	1.27730	1.07780	6.86532	5.95809	4.83681
11980	0.71667	0.72895	0.51785	4.44610	4.16557	3.79264	4.28413	3.07962	1.86448	2.88356	2.69920	2.44442	1.54736	1.28442	1.07977	6.85194	5.97235	4.83156
12150	0.71624	0.74044	0.52258	4.43475	4.11789	3.75483	4.30750	3.10402	1.90065	2.89425	2.72400	2.47962	1.55098	1.29297	1.08253	6.89122	5.98914	4.85251
12310	0.73368	0.74276	0.52116	4.46575	4.10978	3.77679	4.30985	3.09566	1.86618	2.91166	2.73961	2.47751	1.55759	1.30262	1.09384	6.94420	6.00976	4.85087
12480	0.73332	0.74470	0.53054	4.44468	4.10962	3.75416	4.34001	3.11616	1.88628	2.90598	2.75044	2.50643	1.55047	1.28673	1.08795	6.94128	5.97381	4.83806
12640	0.72169	0.74206	0.51594	4.47470	4.11187	3.76331	4.31823	3.11628	1.87563	2.90123	2.72950	2.45606	1.54906	1.29582	1.08894	6.89465	6.00254	4.84640
12810	0.72534	0.73817	0.51916	4.46457	4.10689	3.77853	4.33321	3.11176	1.87547	2.90308	2.72270	2.42760	1.55672	1.29509	1.08123	6.90822	5.99585	4.84947
12970	0.72630	0.74907	0.51998	4.42133	4.09677	3.77449	4.32654	3.11351	1.87916	2.91439	2.70943	2.46289	1.55732	1.30263	1.08982	6.93948	6.02059	4.84761
13130	0.72548	0.73853	0.51792	4.45911	4.13329	3.79024	4.32123	3.12193	1.88791	2.90446	2.70549	2.45060	1.56792	1.30165	1.09135	6.93351	6.03414	4.86736	24.42	6.1	0.00	7.28	0.01277	0.01292	0.01681	0.00780	0.00581	0.00637	0.00469	0.01268	0.01691	0.00679	0.00694	0.00901	0.01493	0.01099	0.01200	0.00218	0.00618	0.00869
13300	0.73073	0.74023	0.52058	4.49063	4.14554	3.78119	4.32345	3.11154	1.89426	2.89490	2.72568	2.48067	1.56314	1.31412	1.08768	6.92835	6.06592	4.86569
13460	0.73270	0.74452	0.52498	4.47229	4.11155	3.78677	4.36224	3.11860	1.89204	2.90669	2.74967	2.47810	1.56533	1.30345	1.10114	6.90683	6.02695	4.87200
13620	0.73601	0.75097	0.52573	4.49323	4.12394	3.79330	4.31778	3.12199	1.89428	2.89530	2.76829	2.50733	1.56506	1.29761	1.08983	6.94018	6.05792	4.90694
13790	0.72692	0.74725	0.51650	4.47013	4.14038	3.77625	4.34475	3.11822	1.88286	2.89026	2.73874	2.45422	1.55928	1.31141	1.09695	6.93778	6.02211	4.86333
13950	0.72562	0.74094	0.52435	4.48266	4.16324	3.79128	4.33543	3.13113	1.89333	2.90378	2.74127	2.47213	1.56402	1.29117	1.09381	6.95367	6.04024	4.90254
14120	0.72093	0.74142	0.52358	4.48834	4.17602	3.84377	4.33416	3.13831	1.89314	2.92843	2.74213	2.47454	1.57073	1.31803	1.09507	6.94040	6.02972	4.90397
14280	0.72590	0.74307	0.52604	4.46098	4.15876	3.78206	4.33522	3.13110	1.89332	2.91479	2.75692	2.47073	1.58543	1.30215	1.10036	6.95554	6.05716	4.89034
14440	0.72795	0.74227	0.54793	4.51587	4.16488	3.78871	4.48676	3.14245	1.89638	2.90449	2.75911	2.47400	1.56420	1.30263	1.09233	6.95659	6.02657	4.84476
14610	0.72589	0.74485	0.53216	4.48137	4.14413	3.78593	4.33921	3.12613	1.89192	2.91568	2.77117	2.47147	1.56383	1.29857	1.09364	6.97844	6.03924	4.89884
14770	0.74038	0.75495	0.53282	4.45804	4.14330	3.80575	4.33970	3.12323	1.89571	2.96426	2.76944	2.48482	1.57039	1.30163	1.09349	6.94620	6.06131	4.89423	24.42	6.1	0.00	7.23	0.01277	0.01291	0.01681	0.00780	0.00581	0.00637	0.00469	0.01268	0.01691	0.00679	0.00694	0.00901	0.01493	0.01099	0.01200	0.00217	0.00617	0.00869
14940	0.72677	0.74329	0.52853	4.48370	4.12058	3.80595	4.31000	3.12067	1.88629	2.95053	2.77772	2.48408	1.55971	1.29710	1.08812	6.90305	6.02126	4.84710
15100	0.72987	0.73647	0.51958	4.43078	4.14360	3.77524	4.31560	3.09939	1.87983	2.88330	2.71007	2.46493	1.54569	1.29430	1.07605	6.88046	5.97653	4.82216
15270	0.71517	0.73550	0.52552	4.40975	4.08899	3.76869	4.29871	3.10197	1.87568	2.87217	2.71587	2.44826	1.54272	1.28249	1.08714	6.86990	5.98142	4.84369
15430	0.71949	0.73340	0.51614	4.44959	4.09186	3.73741	4.29011	3.09286	1.86038	2.86984	2.72440	2.44067	1.53821	1.27948	1.07257	6.85541	5.95828	4.74742
15600	0.72553	0.73222	0.51701	4.39058	4.07300	3.70653	4.26777	3.06335	1.85736	2.85911	2.71369	2.42199	1.52567	1.27484	1.06803	6.83530	5.94872	4.82261
15760	0.71001	0.73125	0.52041	4.38467	4.09848	3.70637	4.26920	3.06629	1.84093	2.81935	2.68359	2.42081	1.52133	1.27169	1.06573	6.85793	5.98335	4.82878
15930	0.70661	0.73154	0.51928	4.41036	4.08620	3.73068	4.25548	3.06113	1.84852	2.86559	2.69229	2.41777	1.52478	1.25989	1.07034	6.82160	5.97299	4.81329
16090	0.71155	0.72653	0.51270	4.35048	4.04339	3.73526	4.25943	3.05560	1.84859	2.86007	2.67247	2.41456	1.53233	1.27923	1.07433	6.80644	5.92564	4.75283
16250	0.70965	0.72790	0.51760	4.39218	4.05617	3.70288	4.25772	3.05470	1.85318	2.84366	2.70085	2.44597	1.53059	1.27234	1.07547	6.82982	5.90324	4.78734
16420	0.70524	0.72252	0.50987	4.40693	4.09413	3.72953	4.24113	3.05949	1.84270	2.84592	2.70844	2.42997	1.52073	1.26655	1.06244	6.78687	5.91069	4.75380	24.42	6.1	0.00	7.35	0.01277	0.01291	0.01681	0.00780	0.00581	0.00637	0.00469	0.01268	0.01691	0.00679	0.00694	0.00901	0.01493	0.01099	0.01200	0.00218	0.00617	0.00869
16580	0.70954	0.71360	0.50754	4.35926	4.03830	3.68920	4.24595	3.05661	1.84269	2.82861	2.68307	2.41108	1.52706	1.27879	1.06994	6.81662	5.93433	4.84307
16750	0.70750	0.71641	0.51115	4.38156	4.05944	3.69751	4.25151	3.05486	1.85904	2.84070	2.70612	2.42083	1.52386	1.27299	1.07575	6.86220	5.95110	4.80691
16910	0.70260	0.71906	0.51307	4.38885	4.08240	3.76810	4.24606	3.04117	1.85597	2.85722	2.69609	2.45608	1.53898	1.26749	1.06947	6.84053	5.91503	4.78851
17080	0.71115	0.72095	0.50881	4.39708	4.06241	3.73495	4.25102	3.04546	1.84214	2.82789	2.70775	2.43107	1.51937	1.26871	1.07069	6.80281	5.91843	4.81039
17240	0.71699	0.73260	0.51152	4.45607	4.07130	3.70854	4.22932	3.07076	1.85839	2.86161	2.70960	2.43916	1.52113	1.26887	1.05460	6.84439	5.95385	4.84285
17410	0.71499	0.74450	0.51556	4.40764	4.09385	3.75644	4.25186	3.04029	1.83997	2.84785	2.68532	2.42047	1.54667	1.27411	1.06625	6.82705	5.93008	4.78059
17570	0.70560	0.72008	0.51161	4.38405	4.07198	3.69738	4.23774	3.04384	1.82815	2.88135	2.71602	2.41457	1.50490	1.27199	1.05607	6.82298	5.92681	4.83229
17730	0.70791	0.72147	0.51301	4.40596	4.08895	3.69622	4.21105	3.03929	1.83629	2.86412	2.68881	2.55483	1.52431	1.26306	1.06191	6.91731	6.04637	4.86126
17900	0.71634	0.72629	0.50812	4.41540	4.06340	3.70566	4.22249	3.04233	1.83158	2.82012	2.66310	2.40243	1.51735	1.25703	1.06089	6.79624	5.86940	4.74057
18060	0.70721	0.71061	0.50756	4.38095	4.04734	3.69449	4.21993	3.03582	1.84586	2.85913	2.65271	2.38577	1.50432	1.26510	1.05423	6.76744	5.86858	4.74993	24.42	6.1	0.00	7.40	0.01277	0.01291	0.01681	0.00780	0.00581	0.00637	0.00469	0.01268	0.01691	0.00679	0.00694	0.00901	0.01493	0.01099	0.01200	0.00218	0.00617	0.00869
18220	0.70257	0.71510	0.50084	4.34981	4.05256	3.70966	4.21435	3.03616	1.83315	2.85178	2.69860	2.41718	1.50574	1.26350	1.04116	6.75486	5.87797	4.75668
18390	0.71406	0.72396	0.50985	4.47121	4.06749	3.71807	4.23780	3.03959	1.83678	2.86214	2.68066	2.42055	1.52328	1.26747	1.05959	6.78143	5.91969	4.79753
18550	0.71767	0.73109	0.51614	4.37293	4.07999	3.69815	4.22000	3.04973	1.83246	2.83065	2.68247	2.41887	1.51519	1.25592	1.05219	6.82492	5.89056	4.76364
18710	0.70385	0.72452	0.51602	4.37048	4.02396	3.69130	4.25195	3.05219	1.84589	2.83135	2.70083	2.40568	1.51960	1.25816	1.05310	6.78202	5.87884	4.76080
18880	0.70193	0.71630	0.51422	4.35859	4.10681	3.72375	4.23242	3.03894	1.84607	2.84099	2.69798	2.43865	1.50772	1.25144	1.05582	6.81161	5.91267	4.80225
19040	0.69710	0.71324	0.51085	4.37747	4.04646	3.70922	4.22537	3.04560	1.84360	2.82400	2.70797	2.42065	1.51103	1.26421	1.05875	6.79094	5.92051	4.79078
19200	0.71288	0.72051	0.50937	4.40836	4.08315	3.72700	4.22087	3.02401	1.82706	2.85453	2.70302	2.44068	1.50908	1.25782	1.05373	6.80164	5.91514	4.79724
19370	0.70193	0.71725	0.50197	4.39691	4.07991	3.68862	4.21407	3.03659	1.83938	2.84331	2.68300	2.43435	1.50908	1.25557	1.05574	6.78224	5.91382	4.79574
19530	0.70649	0.72789	0.51425	4.36242	4.04878	3.71053	4.23916	3.03904	1.84527	2.85208	2.69168	2.44115	1.51465	1.26898	1.05935	6.80474	5.89236	4.78385
19690	0.70698	0.72937	0.50975	4.41914	4.08797	3.73366	4.23929	3.03430	1.84816	2.87990	2.68023	2.43848	1.51635	1.26247	1.05887	6.84348	5.93721	4.80267	24.42	6.2	0.00	7.24	0.01277	0.01291	0.01681	0.00780	0.00581	0.00637	0.00469	0.01268	0.01691	0.00679	0.00694	0.00901	0.01493	0.01099	0.01200	0.00218	0.00617	0.00869
19860	0.70743	0.72915	0.50705	4.37752	4.11019	3.72012	4.21563	3.03790	1.84002	2.82631	2.68712	2.44056	1.51134	1.25973	1.06615	6.80255	5.88890	4.79372
20020	0.70084	0.71928	0.50588	4.40387	4.07713	3.72005	4.23314	3.04242	1.84195	2.82740	2.68037	2.43528	1.51616	1.26200	1.05745	6.80358	5.90086	4.77672
20180	0.70049	0.71515	0.50732	4.37687	4.05112	3.71567	4.22163	3.03581	1.82357	2.84006	2.67946	2.42060	1.52434	1.26136	1.04903	6.80048	5.89398	4.78148
20350	0.70626	0.71893	0.50715	4.38149	4.05708	3.70490	4.21173	3.03661	1.82449	2.84217	2.70244	2.40933	1.50096	1.24533	1.04697	6.78491	5.90321	4.76054
20510	0.69870	0.71112	0.50396	4.38037	4.06388	3.71855	4.20240	3.02620	1.83676	2.86178	2.71425	2.43145	1.51379	1.26544	1.06096	6.80388	5.89829	4.79052
20670	0.70686	0.72724	0.51023	4.38369	4.07062	3.71006	4.20522	3.03629	1.82348	2.83725	2.71404	2.45246	1.51414	1.26065	1.06352	6.77069	5.90902	4.77537
20840	0.70061	0.72072	0.50115	4.40557	4.05480	3.70072	4.20219	3.01891	1.83142	2.86661	2.75624	2.45269	1.50372	1.25139	1.04830	6.82540	5.90007	4.75502
21000	0.69935	0.72077	0.50819	4.36076	4.04166	3.71167	4.21487	3.02770	1.83312	2.83116	2.66501	2.43493	1.51140	1.25519	1.05453	6.80772	5.98453	4.78244
21160	0.69721	0.71768	0.50534	4.37421	4.08310	3.72560	4.21023	3.02971	1.81955	2.84899	2.67781	2.42627	1.51636	1.26030	1.06054	6.76502	5.85485	4.74670
21330	0.69950	0.71187	0.50146	4.40032	4.03421	3.69717	4.21329	3.02605	1.83211	2.83639	2.68991	2.41355	1.50568	1.24385	1.04546	6.78755	5.88805	4.76258	24.42	6.2	0.00	6.55	0.01277	0.01291	0.01681	0.00780	0.00581	0.00637	0.00469	0.01268	0.01691	0.00679	0.00694	0.00901	0.01493	0.01099	0.01200	0.00218	0.00617	0.00869
21490	0.69388	0.71577	0.50497	4.37087	4.04624	3.67792	4.21712	3.03365	1.82420	2.85405	2.66931	2.42810	1.51242	1.25478	1.04460	6.77833	5.85083	4.75834
21660	0.69338	0.71277	0.50791	4.34227	4.02046	3.66207	4.18198	3.02474	1.82021	2.81511	2.64975	2.44502	1.49519	1.24396	1.04361	6.74178	5.90393	4.78046
21820	0.69263	0.71204	0.50315	4.36843	4.03944	3.68951	4.21047	3.01368	1.82230	2.81464	2.67166	2.40946	1.50939	1.25148	1.05504	6.77752	5.87734	4.75942
21990	0.70900	0.71603	0.50425	4.34925	4.01502	3.70648	4.20514	3.02016	1.82252	2.82611	2.66580	2.39220	1.50050	1.25592	1.06192	6.77539	5.88747	4.79555
22150	0.70290	0.71293	0.50357	4.34935	4.02494	3.70749	4.21873	3.01409	1.81621	2.84097	2.69886	2.40123	1.50242	1.25022	1.05757	6.80075	5.89781	4.75635
22310	0.70389	0.72468	0.51432	4.38993	4.06483	3.72776	4.22835	3.03689	1.83563	2.85673	2.72174	2.45783	1.51438	1.26509	1.05891	6.78091	5.88148	4.78692
22480	0.70483	0.71873	0.50447	4.39310	4.08231	3.72823	4.22403	3.03468	1.84282	2.89104	2.72225	2.44758	1.51793	1.26751	1.06426	6.84575	5.93811	4.81434
22640	0.70673	0.72116	0.51344	4.43915	4.10299	3.73131	4.25151	3.05861	1.83884	2.89623	2.75336	2.48911	1.52804	1.27585	1.06740	6.81457	5.93340	4.81139
22810	0.70999	0.73099	0.51738	4.45665	4.10602	3.74147	4.22957	3.06288	1.85743	2.88101	2.72399	2.45819	1.52375	1.27152	1.06631	6.86335	5.95218	4.84112
22970	0.70705	0.72125	0.51008	4.38450	4.10911	3.72701	4.24310	3.05926	1.84237	2.85965	2.69794	2.41876	1.52687	1.26586	1.08183	6.80103	5.92104	4.77179	24.42	6.1	0.00	7.28	0.01277	0.01291	0.01681	0.00780	0.00581	0.00637	0.00469	0.01268	0.01691	0.00679	0.00694	0.00901	0.01493	0.01099	0.01200	0.00217	0.00617	0.00869
23140	0.71249	0.72949	0.51489	4.41401	4.11448	3.75676	4.25107	3.04477	1.85107	2.86465	2.71918	2.44808	1.52529	1.27388	1.07310	6.84048	5.92585	4.80433
23300	0.70181	0.73090	0.51436	4.40137	4.07295	3.69603	4.23691	3.04812	1.84504	2.85960	2.71828	2.43271	1.53536	1.25826	1.06666	6.83203	5.90057	4.75826
23470	0.70881	0.72188	0.50622	4.39202	4.09303	3.70495	4.23531	3.05559	1.84799	2.88799	2.86816	2.48751	1.53861	1.27220	1.05679	6.81693	5.92649	4.78266
23630	0.71894	0.73126	0.51677	4.39424	4.07515	3.70205	4.23318	3.09223	1.85152	2.85166	2.69321	2.42632	1.52342	1.28342	1.06129	6.79586	5.93112	4.82658
23790	0.71311	0.72671	0.51319	4.41253	4.05278	3.73028	4.26073	3.04708	1.83997	2.85454	2.70533	2.44306	1.54363	1.27106	1.06507	6.78885	5.91168	4.79938
23960	0.70852	0.72369	0.50530	4.40022	4.06390	3.71041	4.23426	3.04148	1.84238	2.86633	2.69821	2.43105	1.52982	1.27286	1.07125	6.86261	5.95189	4.81319
24120	0.72038	0.72973	0.51238	4.41039	4.06604	3.72691	4.24118	3.07126	1.85605	2.86482	2.69829	2.42691	1.52662	1.26043	1.06897	6.82699	5.92823	4.81306
24290	0.71242	0.72025	0.50924	4.39321	4.07813	3.73150	4.24327	3.05823	1.83507	2.86307	2.71577	2.45814	1.52128	1.25981	1.05497	6.83974	5.94318	4.80330
24450	0.70447	0.72338	0.51273	4.42739	4.05061	3.72860	4.24673	3.04358	1.84040	2.84455	2.68839	2.42861	1.52192	1.26528	1.06390	6.82662	5.91614	4.80641
24610	0.74515	0.74041	0.51126	4.41715	4.10820	3.73838	4.24436	3.05861	1.83255	2.84063	2.68010	2.42221	1.51411	1.25628	1.06110	6.79036	5.91902	4.78987	24.48	6.1	0.00	7.26	0.01277	0.01291	0.01681	0.00780	0.00581	0.00637	0.00469	0.01268	0.01691	0.00679	0.00694	0.00901	0.01493	0.01099	0.01200	0.00217	0.00617	0.00869
24780	0.70312	0.72141	0.50518	4.44456	4.07862	3.73192	4.25811	3.06019	1.84614	2.83388	2.70472	2.44080	1.50910	1.26520	1.05039	6.78903	5.91013	4.78080
24940	0.70664	0.72015	0.50901	4.36104	4.05985	3.72275	4.24653	3.04406	1.84500	2.84306	2.68081	2.40328	1.52298	1.25808	1.05283	6.78571	5.89886	4.76369
25100	0.70487	0.71465	0.50767	4.38524	4.05631	3.71414	4.22617	3.03967	1.84193	2.86214	2.69754	2.41740	1.52958	1.25989	1.05210	6.80225	5.94836	4.80177
25270	0.70313	0.71722	0.50501	4.39340	4.05943	3.70322	4.22987	3.03930	1.83818	2.84987	2.69362	2.39720	1.51545	1.26262	1.05287	6.82823	5.90272	4.79381
25430	0.70282	0.71360	0.50090	4.35477	4.06641	3.71156	4.23615	3.04771	1.84379	2.82689	2.70660	2.44434	1.51759	1.26284	1.06148	6.81290	5.90286	4.82684
25600	0.70486	0.72752	0.50361	4.43328	4.13709	3.77140	4.23954	3.04505	1.83653	2.88022	2.69124	2.40679	1.51566	1.26202	1.04992	6.77420	5.94897	4.82226
25760	0.70224	0.71824	0.50484	4.38871	4.07380	3.71859	4.25034	3.04160	1.83875	2.86728	2.71203	2.42608	1.52607	1.27690	1.06847	6.84677	5.94720	4.78661
25920	0.71488	0.72503	0.51777	4.38847	4.06677	3.71318	4.26680	3.05588	1.83754	2.81940	2.68460	2.41173	1.53041	1.26186	1.05628	6.79036	5.92362	4.78070
26090	0.70597	0.72198	0.50348	4.40828	4.07027	3.72769	4.24957	3.04615	1.84364	2.85359	2.69029	2.42623	1.50864	1.26566	1.04946	6.80950	5.89581	4.74934
26250	0.70407	0.71267	0.50562	4.39924	4.05733	3.70733	4.21448	3.03089	1.82396	2.84148	2.68585	2.40661	1.50470	1.25048	1.05512	6.77607	5.88162	4.77218	24.48	6.1	0.00	7.25	0.01277	0.01291	0.01681	0.00779	0.00581	0.00637	0.00469	0.01268	0.01691	0.00679	0.00694	0.00901	0.01493	0.01099	0.01200	0.00217	0.00617	0.00869
26420	0.69491	0.70731	0.50267	4.34709	4.06941	3.74145	4.22037	3.02264	1.82876	2.83277	2.72050	2.44724	1.50059	1.24637	1.04524	6.75399	5.86300	4.75805
26580	0.69440	0.71167	0.49736	4.33972	4.01619	3.66722	4.20149	3.00927	1.81045	2.82772	2.68056	2.40951	1.49607	1.24699	1.04623	6.79311	5.90585	4.77135
26740	0.69959	0.72039	0.51218	4.37756	4.03414	3.70017	4.21064	3.03037	1.82651	2.84252	2.68168	2.42202	1.51161	1.25689	1.05422	6.77504	5.92072	4.77021
26910	0.70494	0.72864	0.51211	4.40668	4.09811	3.73629	4.23698	3.03926	1.82715	2.84872	2.71307	2.43099	1.52789	1.26222	1.05575	6.80581	5.92131	4.76576
27070	0.69185	0.72393	0.51385	4.36617	4.09514	3.73047	4.22863	3.02717	1.83996	2.84988	2.69518	2.46049	1.50685	1.25862	1.05859	6.80655	5.92117	4.77948
27240	0.70205	0.72675	0.50864	4.38915	4.07548	3.72267	4.20901	3.05224	1.83302	2.87584	2.68702	2.40196	1.51480	1.26127	1.05986	6.78942	5.92175	4.79138
27400	0.70268	0.72365	0.51308	4.36986	4.07461	3.69992	4.19801	3.04490	1.81961	2.84736	2.68001	2.41772	1.51857	1.26048	1.04686	6.77305	5.90154	4.75645
27570	0.69972	0.71332	0.50371	4.37643	4.03841	3.72526	4.20065	3.03660	1.82323	2.88007	2.70764	2.43663	1.50743	1.26008	1.05813	6.77327	5.90683	4.76491
27730	0.70416	0.72248	0.50057	4.37636	4.04476	3.69740	4.20176	3.04077	1.83771	2.82753	2.67079	2.41091	1.50595	1.25274	1.06186	6.75156	5.89306	4.77690
27900	0.70146	0.71734	0.50963	4.37773	4.05962	3.71787	4.20980	3.01025	1.82541	2.87035	2.71530	2.41788	1.49851	1.24838	1.04586	6.78341	5.87569	4.75823	24.42	6.3	0.00	7.29	0.01277	0.01291	0.01681	0.00780	0.00581	0.00637	0.00469	0.01268	0.01691	0.00679	0.00694	0.00901	0.01493	0.01099	0.01200	0.00217	0.00617	0.00869
28060	0.69660	0.71595	0.50368	4.40429	4.07446	3.69060	4.21078	3.03191	1.84501	2.82545	2.94591	2.68900	1.50251	1.24702	1.04984	7.15158	6.22992	5.02004
28220	0.70610	0.71262	0.50930	4.36090	4.04206	3.72595	4.20078	3.01648	1.81784	2.83677	2.70935	2.41422	1.50305	1.24977	1.04759	6.73963	5.85748	4.73318
28390	0.69993	0.71769	0.49833	4.32488	4.03119	3.67592	4.21768	3.03103	1.82211	2.83604	2.68679	2.41244	1.50011	1.24901	1.04643	6.74300	5.86794	4.82221
28550	0.70133	0.71194	0.50511	4.36944	4.05530	3.70032	4.20486	3.02222	1.81675	2.85090	2.67441	2.40527	1.50442	1.24483	1.04828	6.80017	5.92225	4.76208
28710	0.70151	0.70879	0.50017	4.37045	4.07132	3.72138	4.20593	3.02590	1.82304	2.82670	2.65843	2.38610	1.50406	1.25725	1.07945	6.72114	5.88747	4.76806
28880	0.70401	0.71804	0.51314	4.35266	4.04765	3.72918	4.22280	3.02844	1.83425	2.82116	2.68869	2.41615	1.50951	1.25961	1.05387	6.77663	5.91605	4.77736
29040	0.70793	0.71984	0.50889	4.41348	4.04409	3.70607	4.21994	3.02859	1.83335	2.82393	2.66481	2.40119	1.50596	1.25694	1.06498	6.76749	5.89442	4.76902
29200	0.69849	0.71440	0.50698	4.39301	4.09102	3.71106	4.22057	3.04114	1.82043	2.84102	2.68185	2.44274	1.51488	1.25801	1.05859	6.76249	5.88846	4.76545
29370	0.69737	0.71650	0.51020	4.38564	4.05216	3.69337	4.21133	3.02602	1.82100	2.84198	2.68797	2.41803	1.50340	1.24973	1.06665	6.76860	5.85774	4.75839
29530	0.69826	0.70816	0.49885	4.37114	4.05540	3.69666	4.21184	3.02758	1.82660	2.84874	2.68796	2.38959	1.51514	1.25918	1.05394	6.83560	5.88445	4.75903	24.48	6.1	0.00	7.22	0.01277	0.01291	0.01680	0.00780	0.00581	0.00637	0.00469	0.01268	0.01691	0.00679	0.00694	0.00901	0.01493	0.01099	0.01200	0.00217	0.00617	0.00869
29700	0.69773	0.71531	0.50688	4.38503	4.03498	3.76333	4.23207	3.03404	1.83753	2.83699	2.68000	2.40590	1.51612	1.26122	1.05436	6.80422	5.89954	4.78348
29860	0.70598	0.71877	0.50948	4.38207	4.05077	3.71628	4.23203	3.04053	1.83505	2.82999	2.65534	2.44244	1.52781	1.25910	1.06578	6.84606	5.94057	4.80107
30030	0.70553	0.71987	0.51134	4.40113	4.09553	3.72051	4.23088	3.03414	1.82980	2.85673	2.69392	2.41605	1.51364	1.27304	1.06725	6.79890	5.90713	4.75959
30190	0.70907	0.72382	0.51088	4.36882	4.05658	3.74628	4.24727	3.05786	1.83982	2.86242	2.68731	2.41530	1.52793	1.26685	1.05534	6.81317	5.89687	4.80763
30350	0.70532	0.71737	0.50533	4.40566	4.07983	3.71687	4.26168	3.04407	1.84317	2.86002	2.71277	2.44766	1.52232	1.26433	1.05969	6.81339	5.95624	4.80541
30520	0.70924	0.73589	0.50728	4.39226	4.10218	3.76950	4.23738	3.06708	1.85004	2.87008	2.73382	2.45857	1.51861	1.27597	1.05892	6.87579	5.95610	4.83702
30680	0.71172	0.73156	0.51174	4.40836	4.11351	3.74747	4.25395	3.06677	1.86416	2.92066	2.77044	2.46049	1.53251	1.27002	1.07236	6.84932	5.97197	4.84402
30840	0.73262	0.74812	0.52670	4.40296	4.15000	3.75877	4.26448	3.07198	1.84069	2.88207	2.75641	2.45653	1.52808	1.28376	1.06486	6.84287	5.93060	4.81073
31010	0.72132	0.74023	0.51742	4.41306	4.10153	3.74014	4.25048	3.07899	1.86049	2.90714	2.71344	2.44175	1.53832	1.27436	1.06379	6.85623	5.93533	4.81959
31170	0.71195	0.73224	0.51733	4.42674	4.09682	3.75807	4.25787	3.07035	1.84863	2.87541	2.72412	2.42786	1.52675	1.26289	1.06407	6.84516	5.94656	4.81773	24.48	6.1	0.00	7.25	0.01277	0.01291	0.01680	0.00780	0.00581	0.00637	0.00469	0.01268	0.01691	0.00679	0.00694	0.00901	0.01493	0.01099	0.01200	0.00217	0.00617	0.00869
31340	0.71344	0.73336	0.51603	4.43713	4.06864	3.74729	4.25682	3.05234	1.85224	2.90221	2.73099	2.45806	1.53156	1.27932	1.06241	6.85578	5.92770	4.80204
31500	0.70644	0.72213	0.50962	4.40550	4.08944	3.74012	4.25657	3.05612	1.85026	2.86596	2.72500	2.43429	1.52625	1.27386	1.05937	6.85147	5.93546	4.85146
31660	0.71016	0.72269	0.50591	4.44227	4.07102	3.70201	4.25787	3.06202	1.83933	2.88513	2.70546	2.45137	1.52279	1.27009	1.06300	6.83241	5.90605	4.76331
31830	0.70665	0.71933	0.51095	4.37917	4.07550	3.72797	4.25587	3.05629	1.85116	2.84262	2.68907	2.40133	1.51202	1.25580	1.05410	6.78575	5.93226	4.82136
31990	0.70714	0.72028	0.50343	4.39286	4.05468	3.71298	4.24017	3.05079	1.83473	2.86291	2.70448	2.44308	1.51425	1.25682	1.05941	6.83315	5.92094	4.78166
32160	0.71040	0.72097	0.50753	4.37717	4.06682	3.71883	4.24933	3.05771	1.84028	2.85113	2.69098	2.44017	1.51932	1.26213	1.05703	6.82678	5.93054	4.79224
32320	0.71279	0.72962	0.51514	4.44606	4.06734	3.74341	4.24213	3.05992	1.84128	2.86954	2.69202	2.40118	1.51388	1.26028	1.05574	6.77830	5.90860	4.77220
32490	0.71130	0.71462	0.50547	4.38225	4.05971	3.69405	4.22893	3.03732	1.83086	2.85618	2.69657	2.38802	1.51664	1.26769	1.06348	6.77248	5.88596	4.79771
32650	0.70863	0.72497	0.50448	4.35538	4.06868	3.71466	4.23441	3.04498	1.83042	2.82143	2.67240	2.41843	1.51451	1.26065	1.05917	6.78642	5.89422	4.78018
32810	0.70876	0.71142	0.50957	4.38678	4.06598	3.68689	4.24547	3.03787	1.82881	2.83513	2.68275	2.42618	1.52293	1.26434	1.05774	6.80471	5.91785	4.75875	24.48	6.1	0.00	7.23	0.01277	0.01291	0.01680	0.00780	0.00581	0.00637	0.00469	0.01268	0.01691	0.00679	0.00694	0.00901	0.01493	0.01099	0.01200	0.00217	0.00617	0.00869
32980	0.71231	0.72393	0.50711	4.38544	4.10531	3.71241	4.24607	3.05083	1.84503	2.86109	2.69768	2.44052	1.52573	1.26772	1.06204	6.81180	5.92588	4.78556
33140	0.70983	0.71892	0.51486	4.42400	4.08465	3.75869	4.23181	3.05817	1.85656	2.85334	2.69439	2.46233	1.52179	1.27471	1.06747	6.84529	5.98259	4.80571
33300	0.71448	0.72736	0.52283	4.43483	4.11617	3.79350	4.24474	3.06493	1.85699	2.91449	2.73950	2.49626	1.52436	1.27931	1.06509	6.88998	5.96652	4.82414
33470	0.71787	0.73729	0.51460	4.44926	4.12661	3.76299	4.26892	3.11255	1.84847	2.89008	2.73414	2.46501	1.53490	1.27095	1.07663	6.86088	5.97175	4.84528
33630	0.71268	0.73441	0.51246	4.45117	4.14265	3.81116	4.27464	3.07837	1.86194	2.89455	2.73734	2.46523	1.53272	1.28209	1.06984	6.87412	5.95031	4.82598
33800	0.72668	0.72987	0.51978	4.48224	4.11933	3.75938	4.27211	3.06607	1.85821	2.90150	2.73000	2.45441	1.52694	1.27102	1.06999	6.85264	5.98559	4.80893
33960	0.71306	0.73808	0.52631	4.44320	4.08469	3.75028	4.27471	3.08382	1.86165	2.88667	2.76423	2.48728	1.53634	1.28311	1.07612	6.88425	5.98684	4.86788
34120	0.71663	0.72551	0.51157	4.43215	4.12454	3.76992	4.24166	3.04827	1.84435	2.91568	2.74837	2.48758	1.52778	1.27694	1.06447	6.91514	5.97862	4.82906
34290	0.71288	0.72907	0.52102	4.46426	4.12246	3.74764	4.26153	3.08015	1.86695	2.89005	2.71076	2.46186	1.53118	1.27190	1.06733	6.84314	5.98363	4.81435
34450	0.71736	0.73259	0.50623	4.43194	4.10556	3.73992	4.26661	3.07315	1.85439	2.91628	2.74075	2.46267	1.53712	1.27750	1.07574	6.85716	5.96239	4.83476	24.54	6.1	0.00	7.33	0.01277	0.01291	0.01680	0.00780	0.00581	0.00637	0.00469	0.01268	0.01691	0.00679	0.00694	0.00901	0.01493	0.01099	0.01200	0.00217	0.00617	0.00869
34620	0.73077	0.73291	0.53174	4.42671	4.08351	3.73193	4.27822	3.07033	1.85477	2.94717	2.72000	2.44519	1.53560	1.27109	1.05307	6.84135	5.94386	4.79440
34780	0.71375	0.72829	0.50652	4.41811	4.08623	3.72076	4.24555	3.05350	1.83581	2.89296	2.71082	2.46056	1.51698	1.26019	1.05674	6.81972	5.91482	4.81746
34940	0.70935	0.72069	0.50699	4.42190	4.11806	3.74583	4.22505	3.05358	1.84223	2.85475	2.68442	2.44151	1.51830	1.26618	1.05939	6.84877	5.91747	4.78994
35110	0.71319	0.72777	0.51880	4.42433	4.08046	3.72493	4.23660	3.04962	1.84271	2.87300	2.71339	2.41886	1.51395	1.26666	1.06077	6.82705	5.96192	4.77852
35270	0.72111	0.72928	0.51237	4.43773	4.10960	3.75107	4.25786	3.05232	1.83047	2.86073	2.69996	2.42390	1.51992	1.27667	1.05746	6.79606	5.94581	4.80244
35440	0.70667	0.72368	0.50992	4.41910	4.09333	3.74524	4.22735	3.04174	1.84419	2.87275	2.71297	2.42636	1.52513	1.26597	1.05561	6.79200	6.01833	5.05412
35600	0.70771	0.72124	0.51229	4.44460	4.08377	3.72972	4.23814	3.05438	1.84561	2.87964	2.71353	2.45042	1.51530	1.26454	1.06799	6.84758	5.93354	4.78149
35770	0.71114	0.71700	0.50796	4.41047	4.08802	3.73775	4.21971	3.06738	1.83491	2.88165	2.72189	2.44251	1.52228	1.26938	1.06370	6.82186	5.92858	4.80065
35930	0.70992	0.73214	0.51232	4.39451	4.08269	3.79188	4.23674	3.04981	1.83838	2.87988	2.72475	2.44541	1.51911	1.26333	1.05638	6.83631	5.96114	4.83939
36090	0.71432	0.72445	0.51119	4.42970	4.11164	3.73168	4.24643	3.06377	1.84436	2.89997	2.74262	2.44111	1.51674	1.27257	1.06309	6.84437	5.97279	4.82919	24.54	6.1	0.00	7.26	0.01277	0.01291	0.01680	0.00780	0.00581	0.00637	0.00469	0.01268	0.01691	0.00679	0.00694	0.00901	0.01493	0.01099	0.01200	0.00218	0.00617	0.00869
36260	0.70554	0.72106	0.51330	4.44561	4.08015	3.75761	4.24524	3.06783	1.84746	2.88180	2.71640	2.45423	1.52739	1.27542	1.06642	6.86450	5.97131	4.84516
36420	0.70749	0.73379	0.51718	4.43597	4.11037	3.74225	4.25832	3.05360	1.87365	2.87947	2.71785	2.45627	1.52933	1.27982	1.07273	6.90613	5.98906	4.84783
36590	0.71935	0.73389	0.52086	4.45412	4.11753	3.75643	4.27216	3.07206	1.85116	2.87798	2.68221	2.44713	1.52509	1.27632	1.06817	6.83318	5.95064	4.80102
36750	0.71243	0.72736	0.51491	4.41630	4.31384	3.74057	4.25532	3.06464	1.83251	2.86547	2.69247	2.45140	1.51472	1.26808	1.06492	6.83607	5.94944	4.83390
36910	0.70546	0.72543	0.51434	4.42014	4.08857	3.77808	4.24797	3.05874	1.85212	2.86972	2.69806	2.44760	1.52465	1.26411	1.06193	6.84697	5.95120	4.79244
37070	0.70700	0.72837	0.51447	4.40410	4.06893	3.72913	4.23815	3.05528	1.83698	2.83974	2.69215	2.43661	1.52012	1.26316	1.05790	6.81489	5.90050	4.76649
37240	0.70528	0.72549	0.51794	4.35340	4.07538	3.72752	4.24175	3.03475	1.83545	2.87129	2.71000	2.45630	1.53078	1.25659	1.04686	6.81031	5.92301	4.82160
37400	0.69932	0.71766	0.50669	4.39177	4.08081	3.70053	4.21676	3.04585	1.84302	2.85214	2.68565	2.42645	1.51242	1.25254	1.04315	6.81401	5.92363	4.79581
37570	0.70391	0.71833	0.50784	4.40316	4.09286	3.73048	4.22733	3.04026	1.83699	2.87421	2.75118	2.57005	1.51458	1.26112	1.04767	6.84126	5.96350	4.83884
37730	0.70775	0.71238	0.50686	4.41669	4.06386	3.74180	4.22578	3.05154	1.84721	2.87624	2.72114	2.43883	1.52744	1.26142	1.07401	6.80701	5.90236	4.78487	24.48	6.0	0.00	7.29	0.01277	0.01291	0.01680	0.00780	0.00581	0.00637	0.00469	0.01268	0.01691	0.00679	0.00694	0.00901	0.01493	0.01099	0.01200	0.00218	0.00617	0.00869
37890	0.71157	0.72441	0.51758	4.44532	4.11439	3.76474	4.23492	3.05271	1.83645	2.87753	2.74182	2.48197	1.52497	1.26330	1.06230	6.88036	5.98625	4.82025
38060	0.70737	0.72501	0.50858	4.39471	4.06428	3.73753	4.22930	3.05070	1.83192	2.90146	2.72628	2.49315	1.51372	1.27610	1.06215	6.79948	5.90663	4.81462
38220	0.69873	0.72123	0.50875	4.42660	4.05652	3.71693	4.21657	3.03472	1.81937	2.86825	2.67151	2.39631	1.49984	1.25339	1.05922	6.79756	5.89581	4.77441
38390	0.69909	0.71717	0.51073	4.40153	4.05145	3.68752	4.21817	3.03456	1.84132	2.82904	2.68486	2.39388	1.50610	1.25358	1.04984	6.76417	5.88420	4.76555
38550	0.69417	0.73113	0.50455	4.39567	4.06855	3.69776	4.22218	3.03081	1.83588	2.84574	2.67685	2.78120	1.50138	1.25512	1.05332	6.84395	5.90834	4.75280
38710	0.70381	0.72580	0.50342	4.40248	4.05253	3.70390	4.20988	3.03782	1.83218	2.86592	2.69273	2.41862	1.51097	1.25192	1.04814	6.79276	5.91125	4.76884
38880	0.69722	0.71518	0.51772	4.36336	4.06741	3.71164	4.20664	3.02839	1.82625	2.84734	2.68015	2.43817	1.51211	1.25447	1.04789	6.81640	5.91690	4.78728
39040	0.71257	0.72818	0.51746	4.37571	4.07185	3.71466	4.22271	3.04901	1.82699	2.87887	2.69284	2.40126	1.52471	1.25840	1.05617	6.80502	5.90450	4.78943
39200	0.70887	0.72205	0.51463	4.40444	4.07271	3.70341	4.21159	3.01993	1.83320	2.84955	2.68158	2.43219	1.50705	1.25933	1.05883	6.79468	5.90011	4.78934
39370	0.70691	0.71887	0.51738	4.36332	4.06335	3.69703	4.21175	3.03656	1.82525	2.84953	2.69034	2.40975	1.51629	1.25210	1.06086	6.79739	5.91204	4.76844	24.54	6.1	0.00	6.92	0.01277	0.01291	0.01680	0.00780	0.00581	0.00637	0.00469	0.01268	0.01691	0.00679	0.00694	0.00901	0.01493	0.01099	0.01200	0.00218	0.00617	0.00869
39530	0.71197	0.72412	0.50589	4.40375	4.04454	3.70745	4.21732	3.02529	1.83366	2.86128	2.69498	2.41139	1.51325	1.24372	1.04963	6.82495	5.94926	4.81489
39690	0.70269	0.71917	0.50513	4.38103	4.07073	3.73260	4.22154	3.02227	1.82882	2.87046	2.69535	2.44681	1.52267	1.26815	1.05522	6.79532	5.91896	4.76374
39860	0.70946	0.71736	0.50779	4.40023	4.09570	3.74348	4.22702	3.03523	1.83580	2.88216	2.70581	2.45514	1.52275	1.26801	1.07933	6.82931	5.93809	4.84001
40020	0.72894	0.74870	0.53557	4.44390	4.14140	3.77079	4.24277	3.05882	1.85699	2.92274	2.73619	2.47023	1.53285	1.27761	1.08999	6.85288	5.93103	4.82641
40180	0.71451	0.73542	0.52114	4.41184	4.11650	3.75774	4.22287	3.04710	1.85728	2.86576	2.74446	2.47139	1.52699	1.27151	1.08303	6.82295	5.93472	4.79401
40340	0.71696	0.73307	0.53315	4.40265	4.08325	3.73967	4.22025	3.05585	1.85618	2.83911	2.68277	2.45871	1.51670	1.25714	1.05556	6.84331	5.91249	4.75527
40510	0.69846	0.71550	0.50943	4.39745	4.10273	3.72985	4.20161	3.02970	1.82705	2.88375	2.71485	2.46065	1.51434	1.27422	1.05393	6.78389	5.89433	4.81469
40670	0.69921	0.71240	0.50429	4.39520	4.08582	3.69940	4.21004	3.01968	1.81967	2.86039	2.68702	2.43508	1.51422	1.25573	1.05411	6.79163	5.86875	4.74608
40830	0.69726	0.71062	0.49959	4.37474	4.05979	3.71546	4.21826	3.03267	1.82800	2.85600	2.67842	2.41823	1.51249	1.25415	1.05252	6.78345	5.87062	4.74949
41000	0.70710	0.71833	0.50479	4.35812	4.06262	3.72801	4.20172	3.03774	1.83580	2.86109	2.70861	2.44343	1.51527	1.25617	1.04733	6.80137	5.87086	4.75115	24.60	6.1	0.00	7.39	0.01277	0.01291	0.01680	0.00780	0.00581	0.00637	0.00469	0.01268	0.01691	0.00679	0.00694	0.00901	0.01493	0.01099	0.01200	0.00218	0.00617	0.00869
41160	0.69451	0.71803	0.50074	4.39882	4.09288	3.72036	4.21541	3.03591	1.82706	2.81337	2.67589	2.42064	1.49280	1.25307	1.04850	6.77195	5.90991	4.78544
41330	0.69934	0.72529	0.50379	4.41632	4.07941	3.73490	4.19375	3.02454	1.82952	2.88575	2.72456	2.43470	1.51070	1.25737	1.05049	6.79045	5.92099	4.78139
41490	0.70431	0.72099	0.50949	4.37119	4.04857	3.68850	4.20496	3.02864	1.82040	2.84805	2.68626	2.42687	1.49765	1.25005	1.04310	6.79487	5.88348	4.74216
41650	0.69696	0.71925	0.50342	4.35149	4.01907	3.69383	4.20363	3.02702	1.82829	2.87275	2.66059	2.41328	1.50853	1.26025	1.04553	6.76916	5.89972	4.79115
41820	0.70048	0.71834	0.50115	4.37610	4.03232	3.69733	4.21255	3.02474	1.81564	2.83762	2.67554	2.40279	1.49926	1.24820	1.08015	6.75210	5.86049	4.73483
41980	0.74656	0.71782	0.50709	4.37090	4.07845	3.70502	4.21025	3.02171	1.83159	2.85304	2.67057	2.41526	1.50753	1.27626	1.05717	6.80558	5.92545	4.78959
42140	0.69225	0.71590	0.50066	4.38947	4.05692	3.71302	4.21332	3.03234	1.82386	2.85812	2.71498	2.44604	1.51591	1.25820	1.05433	6.77195	5.91794	4.79042
42310	0.70050	0.72152	0.50414	4.38215	4.04855	3.70095	4.20924	3.02455	1.83416	2.82848	2.67365	2.40820	1.50752	1.26165	1.05855	6.78116	5.92047	4.78247
42470	0.70195	0.71812	0.50572	4.38408	4.02473	3.69485	4.20666	3.03532	1.82917	2.86672	2.69493	2.40712	1.49963	1.25628	1.04967	6.77107	5.88909	4.78054
42640	0.70097	0.72481	0.50361	4.40934	4.03821	3.70677	4.20151	3.02445	1.81600	2.84202	2.68684	2.42214	1.49666	1.24924	1.04511	6.80414	5.90965	4.77802	24.54	6.2	0.00	7.23	0.01277	0.01291	0.01680	0.00780	0.00581	0.00637	0.00469	0.01268	0.01691	0.00679	0.00694	0.00901	0.01493	0.01099	0.01200	0.00218	0.00617	0.00869
42800	0.69694	0.71040	0.50194	4.38008	4.04510	3.73224	4.17766	3.01642	1.81743	2.86159	2.71134	2.42605	1.50367	1.26203	1.05505	6.78276	5.91129	4.79462
42960	0.69978	0.71952	0.50759	4.36981	4.06838	3.71209	4.21555	3.02082	1.82767	2.83411	2.69102	2.42465	1.51486	1.25424	1.04286	6.76782	5.88020	4.77663
43130	0.70523	0.71740	0.50901	4.35623	4.03482	3.67819	4.21401	3.03633	1.83449	2.82609	2.68778	2.43678	1.51400	1.25115	1.05781	6.78563	5.90412	4.78374
43290	0.70348	0.71331	0.50685	4.40219	4.09433	3.71934	4.20377	3.01020	1.82154	2.86321	2.67123	2.43123	1.49884	1.24791	1.05178	6.78858	5.89529	4.76947
43460	0.70598	0.71746	0.50198	4.38519	4.08182	3.70287	4.21541	3.02386	1.81374	2.89303	2.68449	2.46384	1.50994	1.25389	1.05175	6.78394	5.88238	4.75407
43620	0.70680	0.71462	0.49991	4.38826	4.02722	3.69997	4.18565	3.00469	1.81619	2.87349	2.71291	2.42115	1.51207	1.24942	1.06116	6.78873	5.87051	4.77042
43780	0.70254	0.71431	0.50148	4.38227	4.04262	3.72108	4.19862	3.02130	1.81637	2.85621	2.70230	2.43083	1.49895	1.25698	1.05045	6.79898	5.90475	4.78673
43950	0.70035	0.71568	0.50086	4.39869	4.05249	3.70100	4.19827	3.03479	1.81793	2.83518	2.67614	2.42634	1.50019	1.26052	1.05453	6.79219	5.86649	4.74611
44110	0.70056	0.71623	0.49681	4.36166	4.06444	3.72820	4.19062	3.02071	1.81649	2.88380	2.67501	2.41098	1.49377	1.24311	1.05892	6.79558	5.88953	4.77912
44280	0.69718	0.71922	0.49927	4.38101	4.04341	3.68201	4.18577	3.00889	1.82628	2.81463	2.67151	2.39293	1.50291	1.25735	1.04433	6.77481	5.87388	4.77011	24.54	6.0	0.00	7.29	0.01277	0.01291	0.01680	0.00780	0.00581	0.00637	0.00469	0.01268	0.01690	0.00679	0.00694	0.00901	0.01493	0.01099	0.01200	0.00218	0.00617	0.00869
44440	0.69772	0.70764	0.49462	4.34929	4.04974	3.70629	4.20473	3.02888	1.81850	2.82095	2.67696	2.40612	1.49307	1.26123	1.04548	6.77304	5.91006	4.76231
44600	0.70013	0.70720	0.49640	4.37919	4.04143	3.67396	4.21438	3.01598	1.81288	2.84718	2.67120	2.39278	1.49464	1.25596	1.05054	6.75591	5.87009	4.75281
44770	0.69875	0.71815	0.50057	4.35610	4.02802	3.70378	4.20487	3.01793	1.82257	2.84184	2.69830	2.43890	1.49579	1.25627	1.04313	6.78402	5.89624	4.78309
44930	0.69718	0.71475	0.50604	4.38509	4.04265	3.71170	4.19795	3.02357	1.81514	2.84517	2.71429	2.44161	1.49422	1.25192	1.05073	6.78925	5.89249	4.78536
45090	0.70428	0.73455	0.51279	4.37138	4.06893	3.70542	4.21205	3.03366	1.83941	2.88440	2.69003	2.43807	1.53373	1.26799	1.06132	6.75495	5.91607	4.77021
45260	0.71540	0.71443	0.51402	4.39636	4.07232	3.67808	4.21010	3.03313	1.82640	2.82931	2.67386	2.43034	1.51196	1.26579	1.05417	6.75473	5.89685	4.74712
45420	0.70923	0.72588	0.50961	4.36375	4.04470	3.67778	4.20714	3.05051	1.83139	2.85048	2.69126	2.43372	1.49322	1.25478	1.04573	6.80689	5.90462	4.78692
45580	0.70077	0.70909	0.50049	4.39260	4.07304	3.71338	4.20049	3.02505	1.83401	2.85251	2.69102	2.43493	1.52543	1.25155	1.05007	6.81487	5.93709	4.79907
45750	0.69972	0.71123	0.50768	4.40684	4.07274	3.74400	4.20251	3.02692	1.82173	2.84288	2.70355	2.41856	1.49824	1.25299	1.04381	6.77569	5.92461	4.79269
45910	0.70872	0.72176	0.50492	4.40046	4.08935	3.72786	4.20130	3.03288	1.82765	2.83502	2.68976	2.43165	1.50332	1.27052	1.05700	6.81900	5.90539	4.74826	24.60	6.1	0.00	7.31	0.01277	0.01291	0.01680	0.00780	0.00581	0.00637	0.00469	0.01268	0.01690	0.00678	0.00694	0.00900	0.01493	0.01099	0.01200	0.00218	0.00617	0.00869
46080	0.70115	0.71368	0.51013	4.39230	4.11208	3.70419	4.21373	3.02687	1.81814	2.84144	2.68181	2.41752	1.50590	1.25554	1.04483	6.79006	5.90057	4.74839
46240	0.69634	0.71070	0.49741	4.38863	4.11071	3.72358	4.20258	3.01950	1.81001	2.83327	2.71164	2.42805	1.51150	1.24328	1.05432	6.79345	5.88909	4.76736
46400	0.70217	0.71811	0.50381	4.36424	4.05401	3.72667	4.19541	3.02801	1.83474	2.82884	2.68295	2.41535	1.50619	1.25499	1.04736	6.78357	5.86530	4.75577
46570	0.69308	0.71139	0.50429	4.37005	4.07632	3.68478	4.21321	3.02925	1.83443	2.82426	2.67462	2.39211	1.50433	1.24576	1.06136	6.78689	5.90507	4.75983
46730	0.70611	0.71296	0.50452	4.36778	4.04273	3.66822	4.20680	3.01644	1.82238	2.82191	2.62975	2.38827	1.49718	1.24582	1.03709	6.77437	5.88046	4.76435
46900	0.69095	0.71307	0.49677	4.35345	4.03482	3.69924	4.18759	3.01651	1.82351	2.84583	2.73529	2.38889	1.50366	1.25254	1.05357	6.79279	5.89242	4.77288
47060	0.69322	0.71614	0.50359	4.34772	4.05977	3.70954	4.20171	3.01849	1.82863	2.85379	2.67459	2.41782	1.51317	1.29418	1.04711	6.78622	5.92414	4.75704
47220	0.70171	0.71751	0.51001	4.42949	4.08103	3.73056	4.19987	3.03167	1.83333	2.88732	2.70983	2.44068	1.52449	1.26184	1.05904	6.80917	5.93636	4.79596
47390	0.71042	0.72443	0.51004	4.39856	4.08478	3.75040	4.22147	3.05092	1.85266	2.89003	2.71688	2.44201	1.53109	1.27016	1.06484	6.86287	5.92229	4.77254
47550	0.70672	0.73085	0.51154	4.42199	4.12820	3.72481	4.24098	3.04381	1.83188	2.89593	2.72069	2.47694	1.52800	1.26212	1.05216	6.82571	5.92708	4.78593	24.60	6.2	0.00	7.29	0.01277	0.01291	0.01680	0.00780	0.00581	0.00637	0.00469	0.01268	0.01690	0.00679	0.00694	0.00900	0.01493	0.01099	0.01200	0.00218	0.00617	0.00868
47720	0.71327	0.72460	0.51246	4.41619	4.12371	3.72402	4.21867	3.02955	1.82133	2.86320	2.70841	2.50599	1.51381	1.26257	1.05090	6.84453	5.95519	4.77439
47880	0.71042	0.72777	0.50944	4.40168	4.09037	3.73868	4.22732	3.04496	1.84381	2.88253	2.67787	2.43812	1.50156	1.25643	1.06414	6.80951	5.90748	4.77087
48050	0.71340	0.72155	0.50241	4.37618	4.06728	3.77909	4.19714	3.03730	1.82792	2.83568	2.70001	2.42755	1.50779	1.25598	1.05675	6.78043	5.89335	4.76841
48210	0.70514	0.72392	0.50767	4.36495	4.07367	3.73509	4.20978	3.06072	1.84798	2.86187	2.69994	2.42243	1.51312	1.26142	1.05648	6.81527	5.91342	4.82155
48370	0.70544	0.72582	0.51312	4.42253	4.08243	3.73299	4.24010	3.05739	1.83698	2.84266	2.70659	2.44613	1.50428	1.26095	1.05412	6.83341	5.91919	4.77523
48540	0.70253	0.71481	0.58894	4.41583	4.09388	3.74291	4.22237	3.04345	1.97584	2.85162	2.68933	2.44941	1.51087	1.25846	1.05381	6.79990	5.90432	4.83185
48700	0.71251	0.72171	0.50503	4.40253	4.05922	3.71959	4.20975	3.03754	1.82888	2.86227	2.69044	2.43309	1.50511	1.25411	1.05409	6.75570	5.91229	4.78861
48870	0.70217	0.72997	0.50234	4.40018	4.10754	3.73857	4.20804	3.05591	1.83542	2.84334	2.68823	2.44622	1.51430	1.25616	1.05833	6.78537	5.90851	4.79710
49030	0.70195	0.72417	0.50909	4.38525	4.06861	3.73336	4.19975	3.05569	1.83824	3.16472	2.68606	2.77840	1.51349	1.36620	1.05310	6.84668	5.91297	4.80828
49200	0.70935	0.72184	0.51160	4.42465	4.21081	3.82605	4.24869	3.04586	1.84232	2.88832	2.71960	2.45069	1.53363	1.26160	1.05800	6.85423	5.93122	4.83325	24.54	6.1	0.00	7.29	0.01277	0.01291	0.01680	0.00780	0.00581	0.00637	0.00469	0.01268	0.01690	0.00679	0.00694	0.00900	0.01493	0.01099	0.01200	0.00218	0.00617	0.00868
49360	0.70907	0.71336	0.51145	4.42264	4.09932	3.74419	4.23436	3.04144	1.83914	2.87943	2.70473	2.42899	1.52369	1.25474	1.05887	6.83516	5.91206	4.77837
49520	0.71136	0.72988	0.50526	4.39716	4.07545	3.72988	4.21802	3.04521	1.84757	2.87957	2.69520	2.44628	1.52261	1.27346	1.06086	6.82169	5.92229	4.82033
49690	0.71119	0.72882	0.51144	4.38404	4.08822	3.73854	4.23233	3.05589	1.84329	2.90020	2.72149	2.45622	1.51856	1.27371	1.07199	6.84814	5.95652	4.82512
49850	0.71614	0.74351	0.52047	4.41545	4.10076	3.73981	4.23275	3.06426	1.86119	2.87855	2.73821	2.43854	1.52175	1.28266	1.07697	6.82265	5.94295	4.82339
50020	0.71497	0.72703	0.51876	4.38256	4.07315	3.72941	4.22497	3.03335	1.82934	2.86417	2.67649	2.42998	1.51851	1.25121	1.04863	6.80350	5.92584	4.78259
50180	0.70199	0.71841	0.50403	4.37906	4.07373	3.68712	4.19998	3.02060	1.81942	2.85379	2.69374	2.44392	1.51537	1.24455	1.04820	6.76678	5.88292	4.77829
50340	0.70360	0.72167	0.50803	4.38477	4.06514	3.68233	4.19935	3.01805	1.81875	2.82798	2.67494	2.41126	1.50347	1.25049	1.04798	6.78645	5.88942	4.75978
50510	0.70008	0.71653	0.50417	4.37732	4.07882	3.69593	4.19650	3.02775	1.82106	2.83344	2.67864	2.42060	1.50340	1.24838	1.05494	6.78107	5.85443	4.75890
50670	0.69371	0.71340	0.50675	4.38111	4.05308	3.68130	4.20095	3.03167	1.82467	2.84680	2.67924	2.40544	1.50797	1.25241	1.05527	6.75567	5.91687	4.79273
50840	0.69706	0.71049	0.50155	4.37083	4.04090	3.70129	4.20553	3.00755	1.81960	2.86233	2.68909	2.41249	1.50756	1.24568	1.04643	6.76182	5.86621	4.75720	24.60	6.0	0.00	7.28	0.01277	0.01291	0.01680	0.00780	0.00581	0.00637	0.00469	0.01268	0.01690	0.00678	0.00694	0.00900	0.01493	0.01099	0.01200	0.00218	0.00617	0.00868
51000	0.70281	0.71577	0.50497	4.35799	4.06555	3.70609	4.21790	3.04364	1.83790	2.82598	2.66979	2.42098	1.50310	1.26080	1.05087	6.75866	5.90781	4.80350
51160	0.69452	0.70489	0.49776	4.39053	4.06153	3.71916	4.19843	3.02484	1.81767	2.84270	2.70676	2.41638	1.50368	1.24861	1.04465	6.78369	5.90192	4.80763
51330	0.70492	0.72434	0.50306	4.36633	4.03717	3.71048	4.20665	3.03197	1.83790	2.85702	2.70913	2.40338	1.50816	1.25891	1.04824	6.81123	5.91271	4.75585
51490	0.70041	0.71704	0.50891	4.38936	4.06189	3.70736	4.19885	3.03794	1.84076	2.84587	2.68729	2.42266	1.50960	1.25794	1.04805	6.75940	5.87539	4.73702
51660	0.70946	0.71748	0.51022	4.37842	4.06425	3.71200	4.21529	3.02026	1.82973	2.82620	2.65651	2.42274	1.50736	1.25788	1.05110	6.77360	5.89040	4.74686
51820	0.70249	0.72007	0.50316	4.35777	4.04927	3.69441	4.19697	3.03039	1.81204	2.83844	2.69954	2.44856	1.51586	1.26091	1.05740	6.77345	5.88603	4.79390
51980	0.70332	0.71623	0.50873	4.39730	4.09871	3.73323	4.19718	3.02404	1.81748	2.85354	2.68446	2.43281	1.50636	1.25587	1.05639	6.82033	5.92529	4.74838
52150	0.71496	0.72457	0.52640	4.39025	4.09054	3.72369	4.21867	3.03413	1.83737	2.88802	2.74143	2.47272	1.50753	1.25017	1.05185	6.83017	5.95227	4.81021
52310	0.71042	0.72060	0.51256	4.39004	4.06823	3.71549	4.22268	3.02897	1.82405	2.85905	2.69681	2.42871	1.50929	1.25624	1.05367	6.77728	5.87296	4.76841
52480	0.70021	0.72102	0.49955	4.41873	4.05551	3.70183	4.20654	3.03370	1.81746	2.87695	2.68379	2.41828	1.50087	1.25900	1.04453	6.79873	5.91420	4.79098	24.66	6.2	0.00	7.30	0.01277	0.01291	0.01680	0.00780	0.00581	0.00637	0.00469	0.01268	0.01690	0.00678	0.00694	0.00900	0.01493	0.01099	0.01200	0.00218	0.00617	0.00868
52640	0.69968	0.71448	0.50338	4.38295	4.06029	3.72578	4.20577	3.02421	1.83604	2.84589	2.69221	2.40173	1.51246	1.25915	1.06107	6.78390	5.91854	4.76749
52800	0.71676	0.72427	0.50320	4.36772	4.03897	3.70120	4.20299	3.00483	1.82076	2.83170	2.69033	2.42588	1.50205	1.24959	1.05382	6.74021	5.88852	4.78062
52970	0.70694	0.72024	0.50936	4.36930	4.03542	3.68268	4.21152	3.02190	1.82084	2.85608	2.69078	2.43758	1.50082	1.25277	1.05845	6.82275	5.88217	4.74794
53130	0.69977	0.71101	0.50698	4.38917	4.06369	3.71538	4.21996	3.03689	1.82962	2.87400	2.69507	2.42055	1.50029	1.24061	1.04688	6.76784	5.94701	4.78678
53300	0.69394	0.71602	0.51557	4.38450	4.05571	3.70317	4.19735	3.01654	1.82466	2.87202	2.68083	2.41680	1.50478	1.24838	1.04787	6.79083	6.06646	4.81187
53460	0.70628	0.71636	0.50784	4.46525	4.12370	3.81226	4.20386	3.01655	1.81567	2.88927	2.67568	2.41321	1.50622	1.25043	1.04882	6.76836	5.89725	4.77003
53620	0.69781	0.71716	0.51455	4.37982	4.03560	3.71556	4.19470	3.01316	1.82242	2.82343	2.68539	2.41846	1.50518	1.24723	1.04962	6.77881	5.89369	4.74943
53790	0.69451	0.71530	0.50775	4.37353	4.03378	3.67694	4.20055	3.02336	1.81544	2.83168	2.68521	2.41008	1.50956	1.23914	1.04696	6.73786	5.85445	4.75051
53950	0.69611	0.70944	0.50914	4.34086	4.03392	3.70205	4.19234	3.01381	1.81554	2.80838	2.65579	2.39496	1.49605	1.24195	1.04541	6.78788	5.86357	4.74960
54110	0.69189	0.71557	0.49787	4.38510	4.05173	3.69090	4.19495	3.02069	1.81191	2.83990	2.69974	2.39804	1.50824	1.25455	1.04562	6.78341	5.88265	4.78121	24.60	6.2	0.00	7.25	0.01277	0.01291	0.01680	0.00779	0.00581	0.00637	0.00469	0.01268	0.01690	0.00678	0.00694	0.00900	0.01493	0.01099	0.01200	0.00218	0.00617	0.00868
54280	0.70490	0.71324	0.51476	4.38149	4.03278	3.72094	4.22721	3.03298	1.82611	2.85196	2.70276	2.44066	1.49395	1.24663	1.03965	6.76132	5.88230	4.79292
54440	0.70453	0.71123	0.50062	4.36010	4.03753	3.70907	4.18629	3.02771	1.80796	2.86231	2.68276	2.42323	1.49357	1.25016	1.04481	6.80060	5.88108	4.75021
54600	0.70472	0.71527	0.50665	4.39144	4.05201	3.69170	4.20201	3.02196	1.83074	2.81820	2.65230	2.40532	1.51102	1.25485	1.05077	6.80629	5.93310	4.77664
54770	0.70912	0.72162	0.50122	4.40167	4.08198	3.72202	4.19443	3.03057	1.83365	2.88743	2.71824	2.42907	1.50259	1.24723	1.05040	6.83870	5.86774	4.73747
54930	0.69931	0.71675	0.49987	4.39219	4.06029	3.69531	4.19540	3.02750	1.82229	2.83832	2.68032	2.43678	1.50358	1.26407	1.05170	6.73334	5.88693	4.76805
55100	0.69901	0.72093	0.51077	4.37792	4.05623	3.72763	4.18858	3.02877	1.81627	2.83954	2.67450	2.42244	1.50237	1.24676	1.04401	6.76993	5.85446	4.76424
55260	0.69589	0.72442	0.51132	4.36677	4.05451	3.72506	4.18726	3.02418	1.82464	2.84115	2.68855	2.39757	1.49268	1.24693	1.04605	6.78747	5.90326	4.77198
55430	0.70686	0.71260	0.49805	4.35716	4.04362	3.73071	4.19651	3.02274	1.82614	2.82951	2.68042	2.42076	1.51106	1.25122	1.04315	6.77479	5.87554	4.77385
55590	0.70099	0.71228	0.50568	4.36856	4.03821	3.69716	4.20382	3.02653	1.81869	2.81944	2.66103	2.38305	1.49408	1.24044	1.03867	6.76816	5.88048	4.76511
55760	0.69540	0.70976	0.50121	4.38122	4.02548	3.71501	4.21200	3.02411	1.81953	2.83001	2.66642	2.42645	1.50746	1.26068	1.05709	6.78547	5.91243	4.79641	24.60	6.2	0.00	7.30	0.01277	0.01291	0.01680	0.00779	0.00581	0.00637	0.00469	0.01268	0.01690	0.00678	0.00694	0.00900	0.01493	0.01099	0.01200	0.00217	0.00617	0.00868
55920	0.70041	0.71601	0.51442	4.39052	4.03443	3.67819	4.18437	3.01870	1.82187	2.85416	2.67157	2.42991	1.50303	1.25848	1.04578	6.77397	5.88997	4.76294
56080	0.69534	0.71563	0.51547	4.37026	4.02390	3.71419	4.20138	3.02450	1.83507	2.82347	2.68220	2.40026	1.52078	1.24423	1.04547	6.77161	5.84361	4.76561
56250	0.70476	0.71632	0.50671	4.33938	4.07150	3.71639	4.18226	3.00364	1.81506	2.86974	2.68336	2.41011	1.51156	1.25593	1.04254	6.76521	5.91771	4.76798
56410	0.69826	0.71540	0.51592	4.34704	4.02915	3.70126	4.17010	3.02572	1.81635	2.86215	2.66522	2.40663	1.49460	1.25054	1.05531	6.77957	5.87269	4.75214
56570	0.69257	0.71537	0.50507	4.37149	4.05971	3.68966	4.20135	2.99347	1.82156	2.85558	2.70815	2.45401	1.49238	1.24314	1.03711	6.76955	5.89770	4.79091
56740	0.69239	0.72158	0.50631	4.33166	4.03577	3.72037	4.18952	3.00277	1.82037	2.87215	2.70415	2.40814	1.51341	1.24001	1.04713	6.77434	5.91189	4.75948
56900	0.70734	0.72710	0.51265	4.38813	4.06459	3.69602	4.18205	3.02494	1.83285	2.83065	2.67838	2.39522	1.48774	1.25285	1.03405	6.77309	5.88213	4.76190
57060	0.70965	0.71539	0.50530	4.37655	4.07092	3.69476	4.18090	3.00926	1.81387	2.83258	2.67002	2.40136	1.48847	1.24601	1.03930	6.76903	5.86701	4.76245
57230	0.69433	0.71796	0.50501	4.36635	4.04981	3.74030	4.20288	3.00231	1.81160	2.86834	2.69188	2.40901	1.49316	1.24758	1.03372	6.79101	5.90258	4.74001
57390	0.69792	0.71494	0.49837	4.40650	4.05935	3.67274	4.18420	3.00397	1.81494	2.81929	2.69571	2.60705	1.49944	1.23498	1.04486	6.77916	5.92381	4.80202	24.60	6.0	0.00	7.62	0.01277	0.01291	0.01679	0.00779	0.00581	0.00637	0.00469	0.01268	0.01690	0.00678	0.00694	0.00900	0.01493	0.01099	0.01200	0.00217	0.00617	0.00868
57550	0.69555	0.71377	0.51370	4.40945	4.07767	3.75285	4.17885	3.01922	1.81705	2.89106	2.94490	2.50591	1.56947	1.27638	1.05618	6.79716	5.87523	4.82554
57720	0.69802	0.70676	0.49544	4.39739	4.06431	3.71406	4.18486	3.00462	1.81576	2.84338	2.70322	2.39485	1.49561	1.23505	1.03379	6.76421	5.87582	4.74809
57880	0.69233	0.70993	0.50033	4.37341	4.05563	3.70774	4.18726	3.01479	1.82974	2.83983	2.71711	2.44807	1.50881	1.26088	1.05522	6.76848	5.86717	4.76497
58040	0.70674	0.71420	0.50727	4.37338	4.05279	3.68483	4.19696	3.02162	1.81836	2.82744	2.65193	2.41005	1.50180	1.24210	1.04445	6.77717	5.87000	4.74132
58210	0.68849	0.70842	0.49954	4.37002	4.03855	3.66049	4.17830	3.00192	1.82148	2.83175	2.67731	2.40480	1.49637	1.22790	1.03444	6.76804	5.88094	4.72750
58370	0.68894	0.70645	0.49945	4.32002	4.02294	3.66775	4.18267	3.00677	1.80731	2.81837	2.65082	2.38034	1.49328	1.24316	1.03841	6.77334	5.81578	4.71727
58540	0.69447	0.71019	0.50120	4.36733	4.02729	3.68380	4.18368	3.00058	1.79610	2.82932	2.65027	2.41165	1.49148	1.23882	1.03793	6.75075	5.85917	4.75796
58700	0.69301	0.71181	0.50213	4.35527	4.04941	3.73069	4.17066	3.01033	1.80590	2.85289	2.69959	2.41201	1.49600	1.25016	1.03601	6.75649	5.86050	4.76347
58860	0.69387	0.70623	0.49790	4.35917	4.04779	3.69746	4.17753	2.99442	1.80715	2.83393	2.66090	2.40334	1.49574	1.23148	1.04180	6.74429	5.86696	4.74957
59030	0.68807	0.70769	0.50251	4.42092	4.05563	3.69984	4.18083	3.01397	1.80757	2.82731	2.68673	2.41675	1.49565	1.24283	1.03550	6.72597	5.85761	4.73196	24.66	6.1	0.00	7.37	0.01277	0.01291	0.01679	0.00779	0.00581	0.00637	0.00469	0.01268	0.01690	0.00678	0.00694	0.00900	0.01493	0.01099	0.01200	0.00218	0.00617	0.00868
59190	0.69452	0.71211	0.50468	4.36765	4.05311	3.69519	4.19929	3.01445	1.83944	2.86901	2.67569	2.45045	1.49870	1.24529	1.05821	6.78841	5.92724	4.79797
59360	0.71015	0.72254	0.51380	4.36537	4.07611	3.73146	4.20667	3.01478	1.81983	2.87192	2.69666	2.42375	1.52119	1.25042	1.05827	6.78442	5.91731	4.78996
59520	0.69845	0.70894	0.51235	4.35930	4.04192	3.74670	4.21988	3.02497	1.81882	2.82902	2.70322	2.46184	1.50870	1.25875	1.04097	6.76483	5.90277	4.78056
59690	0.69620	0.71261	0.50124	4.36226	4.06391	3.70312	4.20907	3.01609	1.82262	2.83367	2.69072	2.43210	1.49684	1.24009	1.04180	6.76726	5.88436	4.77328
59850	0.69252	0.71744	0.50895	4.37422	4.06293	3.74609	4.18760	3.01379	1.81932	2.83856	2.69435	2.39490	1.49822	1.25687	1.04599	6.73419	5.86244	4.72852
60020	0.69872	0.71721	0.50010	4.34802	4.04046	3.68551	4.19699	3.01542	1.80864	2.80468	2.65631	2.38659	1.49621	1.24723	1.04258	6.82106	5.87326	4.77539
60180	0.69722	0.71679	0.50891	4.36565	4.03264	3.69177	4.20496	3.01524	1.82400	2.82758	2.65411	2.40468	1.50455	1.25323	1.05210	6.75328	5.87330	4.76754
60350	0.70427	0.72562	0.50195	4.37538	3.99675	3.69357	4.20294	3.00991	1.81958	2.82103	2.66503	2.41536	1.50015	1.25217	1.04912	6.75188	5.83896	4.73778
60510	0.69643	0.71157	0.50658	4.34504	4.04358	3.68935	4.18333	3.01889	1.81260	2.84135	2.67962	2.41246	1.50657	1.24680	1.05128	6.75482	5.89740	4.73209
60670	0.69515	0.71955	0.50319	4.37215	4.05634	3.72269	4.20066	2.99889	1.81305	2.84513	2.65861	2.39159	1.50207	1.24190	1.03625	6.74462	5.86892	4.74568	24.60	6.2	0.00	7.31	0.01277	0.01291	0.01679	0.00779	0.00581	0.00637	0.00469	0.01268	0.01690	0.00678	0.00694	0.00900	0.01493	0.01099	0.01200	0.00217	0.00617	0.00869
60840	0.69205	0.71469	0.49986	4.37578	4.06861	3.70771	4.19363	3.00877	1.81074	2.82388	2.67483	2.43855	1.49847	1.24366	1.04728	6.76934	5.90950	4.78797
61000	0.70394	0.71191	0.50241	4.34704	4.05704	3.69121	4.18345	3.00204	1.81391	2.86764	2.67844	2.43233	1.48978	1.23919	1.03307	6.73852	5.89556	4.75418
61160	0.69522	0.70959	0.50119	4.37024	4.05302	3.68882	4.19447	3.00890	1.81100	2.81443	2.68522	2.41024	1.49301	1.25025	1.04099	6.82266	5.90275	4.78676
61330	0.69644	0.72185	0.50871	4.34509	4.04455	3.72204	4.19137	3.01085	1.81847	2.87394	2.67570	2.39091	1.49647	1.23594	1.03864	6.78253	5.87829	4.77487
61490	0.69509	0.71028	0.50123	4.35374	4.04661	3.71012	4.19085	3.00904	1.80425	2.86043	2.69358	2.42249	1.48957	1.24909	1.03471	6.72971	5.85965	4.75220
61660	0.69369	0.70648	0.50117	4.35028	4.03603	3.69671	4.19485	3.01377	1.81727	2.82546	2.66300	2.39914	1.48857	1.23953	1.03697	6.80121	5.87446	4.78101
61820	0.69394	0.71397	0.49373	4.36161	4.02392	3.68725	4.17883	3.01408	1.81776	2.81243	2.69544	2.43349	1.49712	1.24749	1.03619	6.72876	5.89270	4.76866
61980	0.69933	0.71534	0.51159	4.34028	4.05966	3.69265	4.18525	3.00498	1.80264	2.83742	2.65852	2.44716	1.49255	1.25140	1.04363	6.72480	5.87450	4.76105
62150	0.70102	0.71583	0.49842	4.38114	4.03595	3.71478	4.18876	2.99371	1.81269	2.83497	2.66229	2.39731	1.48514	1.23231	1.03105	6.72509	5.85804	4.75145
62310	0.70432	0.71888	0.50646	4.34464	4.01901	3.68714	4.17739	3.00395	1.81352	2.81453	2.65677	2.45055	1.49999	1.24917	1.03868	6.74365	5.84987	4.74087	24.60	6.1	0.00	7.27	0.01277	0.01291	0.01679	0.00779	0.00581	0.00637	0.00469	0.01268	0.01690	0.00678	0.00694	0.00900	0.01493	0.01099	0.01200	0.00218	0.00617	0.00869
62480	0.70283	0.71009	0.50828	4.36237	4.04817	3.68197	4.20034	3.01505	1.81054	2.82577	2.65067	2.40295	1.48812	1.23549	1.04132	6.76158	5.85111	4.75110
62640	0.68796	0.70645	0.49800	4.33898	4.03466	3.69175	4.18406	2.99567	1.81109	2.82839	2.66909	2.42520	1.49355	1.23477	1.03976	6.82162	5.94157	4.77941
62810	0.69642	0.72106	0.50188	4.33385	4.06613	3.69599	4.18837	3.01778	1.80476	2.81359	2.63334	2.38336	1.49539	1.24912	1.04549	6.75996	5.82977	4.72196
62970	0.69792	0.70586	0.50091	4.34581	4.03264	3.70296	4.18104	3.00935	1.79858	2.84275	2.66274	2.41244	1.47433	1.22686	1.03172	6.77240	5.86443	4.77112
63130	0.68949	0.70282	0.49735	4.34145	4.02592	3.66115	4.16476	3.00017	1.82226	2.80409	2.67623	2.41213	1.48844	1.24127	1.03671	6.77151	5.85390	4.74002
63300	0.69184	0.70942	0.50204	4.37547	4.05313	3.68035	4.18125	3.00422	1.82424	2.83962	2.66906	2.39688	1.50416	1.24235	1.03509	6.79000	5.87938	4.77129
63460	0.68783	0.71610	0.50493	4.35197	4.04340	3.75422	4.19366	3.00358	1.82084	2.80077	2.64206	2.41433	1.48574	1.24900	1.04177	6.79067	5.84966	4.74576
63620	0.70393	0.71794	0.50949	4.35290	4.05818	3.69517	4.18615	2.99996	1.81798	2.87073	2.67604	2.38919	1.49191	1.24976	1.03655	6.74879	5.87143	4.75701
63790	0.70056	0.71635	0.50063	4.36005	4.04418	3.71454	4.18632	3.00872	1.81149	2.83463	2.66329	2.39657	1.49294	1.23619	1.03647	6.78713	5.86774	4.76755
63950	0.68541	0.71687	0.50182	4.39248	4.07245	3.71956	4.19641	2.99488	1.80581	2.84576	2.67666	2.41996	1.50700	1.26763	1.03929	6.74604	5.84324	4.74671	24.66	6.1	0.00	7.27	0.01277	0.01291	0.01679	0.00779	0.00581	0.00637	0.00469	0.01268	0.01690	0.00678	0.00694	0.00900	0.01493	0.01099	0.01200	0.00218	0.00617	0.00869
64120	0.70066	0.71212	0.50024	4.37930	4.05359	3.67938	4.18830	3.02292	1.81660	2.85129	2.65479	2.38714	1.50257	1.25306	1.04128	6.76492	5.85306	4.74980
64280	0.71164	0.71620	0.50218	4.37430	4.04907	3.70283	4.18803	3.00460	1.80191	2.83877	2.70401	2.42998	1.49133	1.24062	1.03765	6.77552	5.90780	4.74269
64450	0.69258	0.71172	0.50010	4.36460	4.01897	3.71141	4.17840	3.01936	1.81706	2.82747	2.66779	2.40353	1.49596	1.24502	1.04938	6.78155	5.86654	4.76856
64610	0.70042	0.71717	0.50958	4.39083	4.06232	3.68193	4.21012	3.01706	1.81522	2.84043	2.67299	2.40615	1.50023	1.24557	1.04370	6.76654	5.91413	4.81380
64770	0.70205	0.71490	0.49771	4.37060	4.06362	3.71724	4.17885	3.01080	1.82226	2.83437	2.68220	2.42631	1.50571	1.25130	1.04620	6.76110	5.85562	4.77031
64940	0.69975	0.71045	0.49934	4.36962	4.04979	3.71749	4.19540	3.01168	1.84963	2.81419	2.67818	2.42483	1.50028	1.24293	1.04208	6.79055	5.88438	4.77162
65100	0.69739	0.71819	0.51412	4.38322	4.05117	3.70098	4.20441	3.02181	1.80958	2.85718	2.68849	2.42094	1.49239	1.24516	1.04210	6.79290	5.87068	4.77002
65270	0.69362	0.70354	0.49503	4.37108	4.08519	3.71150	4.19098	3.00849	1.80871	2.84019	2.67893	2.41924	1.49145	1.23623	1.05179	6.75250	5.86470	4.74347
65430	0.69582	0.71534	0.50242	4.35342	4.04915	3.69069	4.18594	2.99894	1.80994	2.90668	2.67745	2.45220	1.49477	1.23617	1.03273	6.78752	5.85565	4.74260
65590	0.68796	0.71988	0.50412	4.36025	4.04467	3.73302	4.18258	3.00985	1.81462	2.82709	2.68435	2.43504	1.49331	1.24302	1.03542	6.76002	5.86796	4.76160	24.72	6.1	0.00	7.31	0.01277	0.01291	0.01679	0.00779	0.00581	0.00637	0.00469	0.01268	0.01690	0.00679	0.00694	0.00900	0.01493	0.01099	0.01200	0.00218	0.00617	0.00869
65760	0.68973	0.70588	0.50611	4.36315	4.01682	3.68049	4.18261	3.01004	1.81399	2.82095	2.71054	2.44358	1.49768	1.26085	1.04264	6.76965	5.89614	4.76221
65920	0.70099	0.71345	0.50850	4.40211	4.07038	3.69022	4.18619	3.02211	1.81474	2.85958	2.70128	2.43264	1.50214	1.25221	1.05774	6.78313	5.88769	4.74548
66090	0.70004	0.72663	0.50776	4.36314	4.06778	3.71292	4.18292	2.98083	1.79579	3.13038	2.89592	2.44720	1.51044	1.25105	1.04948	6.74833	5.90950	4.78972
66250	0.69489	0.71851	0.49667	4.35562	4.04321	3.68180	4.16654	3.00470	1.81141	2.82548	2.69554	2.39135	1.49339	1.25019	1.04444	6.75847	5.85711	4.73848
66420	0.68839	0.71132	0.49935	4.35162	4.03184	3.66249	4.19231	3.01838	1.81464	2.81684	2.66746	2.41295	1.50042	1.24083	1.02955	6.75568	5.86493	4.76427
66580	0.69337	0.70907	0.49419	4.39270	4.03495	3.69642	4.17365	3.00648	1.80444	2.80867	2.64331	2.39787	1.47863	1.23083	1.02688	6.74694	5.85466	4.74549
66740	0.69155	0.70607	0.49597	4.33856	4.04297	3.69485	4.16921	2.99164	1.80088	2.80125	2.65374	2.37500	1.49313	1.23761	1.05672	6.73160	5.87006	4.75647
66910	0.69744	0.71708	0.50550	4.32657	4.02947	3.68422	4.18365	2.99444	1.81273	2.81621	2.65053	2.40493	1.50142	1.25037	1.04068	6.78675	5.85664	4.79408
67070	0.70631	0.72542	0.50336	4.33728	4.01877	3.68448	4.18716	2.99929	1.81921	2.85689	2.67364	2.39622	1.50322	1.24868	1.04945	6.75281	5.85282	4.73552
67240	0.69663	0.72462	0.50373	4.36651	4.04994	3.71574	4.18465	3.00360	1.80623	2.81997	2.68196	2.41723	1.48587	1.24121	1.04045	6.75983	5.89003	4.78084	24.66	6.0	0.00	7.26	0.01277	0.01291	0.01679	0.00779	0.00581	0.00637	0.00469	0.01268	0.01690	0.00678	0.00694	0.00900	0.01493	0.01099	0.01200	0.00217	0.00617	0.00869
67400	0.69846	0.72327	0.50116	4.32046	4.01636	3.67360	4.18055	3.01240	1.81058	2.86655	2.66760	2.41633	1.49530	1.23866	1.04357	6.76013	5.84608	4.76182
67560	0.70507	0.71269	0.49880	4.34462	4.04922	3.71452	4.19932	3.00650	1.81172	2.88335	2.71955	2.41703	1.49358	1.24440	1.04350	6.78834	5.87198	4.80070
67730	0.69663	0.71834	0.50749	4.34719	4.04447	3.69814	4.17659	3.01852	1.81794	2.84065	2.67411	2.41685	1.50318	1.24843	1.04165	6.72950	5.86079	4.75685
67890	0.69087	0.70606	0.49773	4.37814	4.03116	3.70571	4.18840	3.00271	1.81659	2.83027	2.67050	2.39497	1.49509	1.23960	1.04819	6.77515	5.84440	4.77112
68060	0.70378	0.71491	0.50563	4.35134	4.04772	3.68461	4.19838	3.00430	1.80875	2.94436	2.67393	2.43501	1.48302	1.23830	1.03519	6.74182	5.85442	4.81168
68220	0.68409	0.70680	0.50053	4.38524	4.01929	3.67361	4.17298	3.00142	1.80311	2.83540	2.69499	2.41563	1.48712	1.24535	1.03880	6.73148	5.85165	4.72497
68390	0.69119	0.70501	0.49451	4.36224	4.03296	3.67287	4.17926	3.00212	1.79855	2.83275	2.67971	2.42522	1.48678	1.24177	1.03867	6.74579	5.89680	4.72965
68550	0.68973	0.70721	0.49577	4.32974	3.98997	3.68835	4.16670	2.99063	1.80048	2.80958	2.63260	2.37431	1.49127	1.24030	1.03604	6.73243	5.82612	4.76609
68720	0.70013	0.70458	0.50189	4.38316	4.05607	3.71932	4.19741	3.01596	1.82646	2.83890	2.67631	2.40627	1.50131	1.24559	1.04180	6.74851	5.89596	4.71682
68880	0.69252	0.70755	0.50158	4.36976	4.06929	3.71508	4.19847	3.01106	1.81339	2.81308	2.68722	2.41119	1.48951	1.24833	1.04953	6.77116	5.88238	4.79372	24.66	6.1	0.00	7.42	0.01277	0.01291	0.01679	0.00779	0.00581	0.00637	0.00469	0.01268	0.01690	0.00678	0.00694	0.00900	0.01493	0.01099	0.01200	0.00217	0.00617	0.00869
69040	0.70304	0.71329	0.50348	4.41687	4.06279	3.73173	4.18678	3.01257	1.81084	2.86238	2.70124	2.44520	1.49882	1.24661	1.04946	6.82842	5.91840	4.82150
69210	0.68783	0.71373	0.49926	4.39905	4.04077	3.71094	4.19356	2.99772	1.81466	2.86832	2.72437	2.44916	1.50902	1.25885	1.04960	6.78908	5.87545	4.77796
69370	0.71281	0.72117	0.51572	4.38560	4.10735	3.70627	4.19996	3.03947	1.82478	2.84892	2.68229	2.39976	1.50249	1.25083	1.04297	6.80341	5.90951	4.77527
69530	0.69238	0.71410	0.50727	4.37606	4.05036	3.71608	4.18560	3.00664	1.81764	2.83718	2.69290	2.41748	1.50757	1.24217	1.04907	6.73587	5.85364	4.75164
69700	0.69971	0.71220	0.49938	4.35415	4.06905	3.70646	4.20627	3.02499	1.82886	2.81627	2.66777	2.42824	1.50045	1.25033	1.04414	6.71065	5.87393	4.75212
69860	0.71567	0.71440	0.50804	4.37606	4.08730	3.68287	4.19471	3.02241	1.81355	2.83917	2.70465	2.43899	1.51018	1.25355	1.05020	6.79462	5.89413	4.77200
70020	0.71242	0.72536	0.51587	4.35512	4.05411	3.69955	4.20136	3.01756	1.82037	2.83823	2.68089	2.42508	1.51702	1.25646	1.04943	6.76314	5.86090	4.72034
70190	0.70032	0.71157	0.50142	4.36896	4.04175	3.67174	4.18379	3.01080	1.81309	2.84386	2.65741	2.43713	1.48994	1.23202	1.03484	6.73690	5.83446	4.74300
70350	0.69139	0.71648	0.49947	4.35049	4.02207	3.68703	4.17577	3.01097	1.81892	2.84985	2.67252	2.41393	1.50146	1.24263	1.06096	6.74211	5.87630	4.78443
70520	0.70289	0.73005	0.51979	4.35997	4.07400	3.72361	4.20295	3.02500	1.82626	2.88209	2.71856	2.43465	1.50354	1.24459	1.04508	6.82508	5.92274	4.78781	24.66	6.1	0.00	7.26	0.01277	0.01291	0.01679	0.00779	0.00581	0.00637	0.00469	0.01268	0.01690	0.00678	0.00694	0.00900	0.01493	0.01099	0.01200	0.00217	0.00617	0.00869
70680	0.71233	0.71873	0.51057	4.38502	4.05913	3.69648	4.19995	3.03996	1.82556	2.88003	2.70007	2.45999	1.52265	1.25893	1.06014	6.80754	5.88919	4.78073
70840	0.70105	0.71180	0.49861	4.39918	4.05785	3.70547	4.20201	3.02044	1.82933	2.87072	2.66915	2.42516	1.49706	1.24723	1.05212	6.80769	5.90212	4.77411
71010	0.70912	0.72377	0.51375	4.45760	4.14464	3.75495	4.22686	3.03075	1.83981	2.91951	2.74153	2.56952	1.51014	1.27584	1.05392	6.97706	5.91499	4.80680
71170	0.70355	0.72421	0.51678	4.39039	4.10139	3.76672	4.24450	3.05637	1.84884	2.86279	2.69770	2.44168	1.52518	1.27093	1.06610	6.83419	5.92168	4.82860
71330	0.71761	0.72940	0.51178	4.37662	4.10531	3.76007	4.23583	3.05799	1.85528	2.94977	2.72218	2.45069	1.53500	1.27555	1.07518	6.79727	5.94616	4.81057
71500	0.72392	0.72853	0.51490	4.42425	4.12773	3.75250	4.24418	3.06146	1.84753	2.87907	2.70867	2.43652	1.52184	1.27982	1.06400	6.81568	5.91286	4.80067
71660	0.71270	0.73283	0.50880	4.39020	4.05455	3.73352	4.23374	3.03777	1.83670	2.87067	2.71028	2.41959	1.51291	1.25859	1.05690	6.77220	5.89675	4.79018
71830	0.70746	0.71899	0.50862	4.37813	4.05084	3.69597	4.22571	3.03097	1.82059	2.83065	2.67999	2.40932	1.50890	1.25135	1.04560	6.77942	5.89132	4.76767
71990	0.70349	0.70927	0.50183	4.37511	4.06367	3.70357	4.24023	3.01970	1.82150	2.87299	2.66940	2.39544	1.50830	1.25836	1.05048	6.79676	5.88177	4.74539
72160	0.70828	0.73604	0.50961	4.35318	4.03316	3.69447	4.22371	3.03972	1.84203	2.85227	2.69639	2.44134	1.51736	1.23987	1.06292	6.83090	5.91798	4.82104	24.66	6.2	0.00	7.28	0.01277	0.01291	0.01679	0.00779	0.00581	0.00637	0.00469	0.01268	0.01690	0.00678	0.00694	0.00900	0.01493	0.01099	0.01200	0.00217	0.00617	0.00869
72320	0.71012	0.72001	0.50654	4.39446	4.08771	3.73749	4.21206	3.04411	1.83315	2.87940	2.69751	2.42682	1.54417	1.26259	1.05950	6.79023	5.95267	4.82627
72480	0.71621	0.72649	0.51056	4.50250	4.10581	3.74239	4.23872	3.04471	1.83985	2.88507	2.76792	2.46012	1.52343	1.26860	1.05905	6.83735	5.92883	4.79759
72650	0.71817	0.74089	0.52150	4.45433	4.11126	3.77217	4.22570	3.05327	1.84800	2.87542	2.73975	2.46647	1.53110	1.27130	1.07070	6.82157	5.93563	4.81452
72810	0.71661	0.73317	0.52125	4.38580	4.08944	3.72406	4.22001	3.04892	1.83289	2.88681	2.70737	2.44930	1.53408	1.26267	1.05554	6.84699	5.96528	4.84529
72980	0.71163	0.72698	0.51324	4.69837	4.08158	3.75936	4.23422	3.05252	1.85518	3.18078	2.71521	2.46171	1.51721	1.26800	1.05604	6.83134	5.91482	4.80880
73140	0.71026	0.72587	0.51181	4.44899	4.10589	3.75312	4.20813	3.03211	1.82686	2.88520	2.70711	2.48535	1.51742	1.26819	1.06168	6.85850	5.92888	4.83695
73300	0.71330	0.71369	0.50505	4.42675	4.08374	3.72565	4.21597	3.03840	1.83856	2.85058	2.71610	2.42884	1.51842	1.25525	1.05799	6.80145	5.98338	4.81313
73470	0.70758	0.72484	0.51719	4.41807	4.10487	3.77600	4.22675	3.05821	1.84378	2.88604	2.73790	2.46502	1.52424	1.27182	1.06471	6.82179	5.98451	4.83784
73630	0.70395	0.72979	0.51528	4.43623	4.11769	3.76059	4.23775	3.03295	1.84499	3.25372	2.73173	2.49511	1.51986	1.26398	1.06428	6.86222	5.94993	4.85442
73790	0.71214	0.73132	0.51606	4.43353	4.10332	3.76949	4.24476	3.04012	1.85548	2.90721	3.01868	2.94180	1.53119	1.27763	1.07113	6.83553	5.96691	4.82832	24.72	6.2	0.00	7.29	0.01277	0.01291	0.01679	0.00779	0.00581	0.00637	0.00469	0.01268	0.01690	0.00678	0.00694	0.00900	0.01493	0.01099	0.01200	0.00217	0.00617	0.00869
73960	0.71586	0.72481	0.52225	4.44080	4.11094	3.73978	4.25126	3.04217	1.83364	2.90926	2.73983	2.46858	1.52723	1.27373	1.06375	6.81369	5.96232	4.84046
74120	0.71244	0.72577	0.51857	4.39251	4.09222	3.74631	4.21815	3.05252	1.84149	2.86455	2.68524	2.44934	1.50786	1.26028	1.05822	6.82516	5.90997	4.79664
74290	0.70766	0.72954	0.51435	4.40539	4.09597	3.74126	4.21435	3.04607	1.84000	2.87282	2.72878	2.46902	1.52049	1.25966	1.05595	6.81531	5.93416	4.80272
74450	0.71590	0.73512	0.51884	4.40848	4.06121	3.69891	4.20934	3.03819	1.82822	2.84668	2.70439	2.42675	1.52287	1.25832	1.05829	6.78348	5.91800	4.82213
74610	0.70494	0.72012	0.52176	4.41605	4.10722	3.73322	4.24154	3.03359	1.82716	2.83792	2.70447	2.43613	1.51726	1.25789	1.05666	6.80326	5.89275	4.79960
74780	0.70658	0.71380	0.50429	4.40230	4.05081	3.72461	4.22046	3.02850	1.81999	2.87046	2.72419	2.44153	1.50268	1.26110	1.05148	6.77647	5.92506	4.78480
74940	0.70502	0.71986	0.50433	4.39082	4.07097	3.72447	4.21247	3.04777	1.83584	2.86410	2.70592	2.43099	1.50962	1.26367	1.05859	6.80829	5.90540	4.76592
75100	0.69339	0.71892	0.49716	4.41026	4.06189	3.76729	4.21641	3.02813	1.82622	2.86243	2.69646	2.44119	1.50881	1.26382	1.04782	6.79159	5.91326	4.73473
75270	0.69734	0.71687	0.50560	4.38625	4.05833	3.72717	4.23047	3.03510	1.83719	2.81740	2.68235	2.43615	1.51805	1.26396	1.06492	6.78990	5.91298	4.77971
75430	0.70632	0.72047	0.50484	4.40806	4.09046	3.73315	4.21067	3.03473	1.83788	2.86883	2.70447	2.42610	1.50226	1.25891	1.04635	6.81823	5.91011	4.78997	24.72	6.1	0.00	7.29	0.01277	0.01291	0.01679	0.00779	0.00581	0.00637	0.00469	0.01268	0.01690	0.00678	0.00694	0.00900	0.01493	0.01099	0.01200	0.00217	0.00617	0.00868
75600	0.70593	0.72505	0.50730	4.40225	4.09638	3.78279	4.21120	3.04084	1.82993	2.86014	2.71664	2.45300	1.51181	1.25243	1.05065	6.82097	5.91994	4.81068
75760	0.70630	0.71777	0.50598	4.41772	4.08664	3.75590	4.20956	3.01332	1.85640	2.87331	2.83658	2.41731	1.51642	1.24904	1.04768	6.82482	5.93204	4.78071
75920	0.70533	0.71570	0.50546	4.40655	4.21288	3.74416	4.22054	3.03642	1.83621	2.87736	2.72744	2.43855	1.51402	1.24996	1.04863	6.78608	5.89649	4.77363
76090	0.70199	0.72480	0.50924	4.33985	4.04232	3.70647	4.22344	3.02988	1.82427	2.86252	2.68909	2.42684	1.50705	1.24659	1.04948	6.76868	5.89044	4.82098
76250	0.70778	0.71626	0.50312	4.36832	4.06134	3.67359	4.21270	3.02425	1.82664	2.84101	2.71029	2.42919	1.51566	1.25077	1.05177	6.81645	5.90912	4.79689
76420	0.69256	0.71145	0.50355	4.38653	4.05942	3.71662	4.21033	3.01841	1.81270	2.86745	2.70359	2.45890	1.50003	1.25555	1.04453	6.81793	5.95211	4.81815
76580	0.69902	0.71371	0.50137	4.39688	4.09487	3.75309	4.22162	3.03909	1.83682	2.86590	2.68200	2.43140	1.51592	1.26051	1.06373	6.82674	5.94488	4.81238
76740	0.71208	0.72451	0.50026	4.39311	4.09497	3.79508	4.24457	3.04521	1.84279	2.85556	2.70982	2.45280	1.52988	1.27359	1.06413	6.89029	5.97371	4.82629
76910	0.71408	0.73038	0.51607	4.43330	4.11521	3.89629	4.24135	3.06021	1.84839	2.88263	2.77481	2.45684	1.52291	1.26589	1.06632	6.81867	5.93230	4.83743
77070	0.72185	0.72825	0.51851	4.47214	4.12778	3.73840	4.25860	3.06412	1.84373	2.88482	2.72599	2.46845	1.52630	1.26948	1.07182	6.88194	5.99076	4.91119	24.72	6.1	0.00	7.26	0.01277	0.01291	0.01679	0.00779	0.00581	0.00637	0.00469	0.01268	0.01690	0.00679	0.00694	0.00900	0.01493	0.01099	0.01200	0.00217	0.00617	0.00868
77240	0.71308	0.72048	0.50428	4.41466	4.14974	3.73607	4.26276	3.05403	1.83761	3.03385	3.06815	2.55224	1.52430	1.26679	1.05977	6.90767	6.03946	4.89088
77400	0.71800	0.73245	0.51786	4.44140	4.10642	3.74221	4.27296	3.07821	1.86480	2.91713	2.73982	2.44679	1.53934	1.27334	1.07821	6.85293	5.94796	4.83432
77560	0.70972	0.72526	0.51368	4.43602	4.10628	3.76633	4.24813	3.07829	1.84120	2.90469	2.74462	2.45128	1.53367	1.27355	1.07830	6.86237	5.96850	4.82098
77730	0.71297	0.73035	0.52089	5.17653	4.87822	4.20644	4.23800	3.16899	1.84663	2.88998	2.72729	2.43303	1.54479	1.40997	1.06401	6.85628	5.94735	4.83435
77890	0.70890	0.72292	0.51037	4.41874	4.09724	3.73275	4.25146	3.04521	1.84458	2.86699	2.71433	2.43758	1.52262	1.26314	1.07374	6.82408	5.94179	4.80181
78060	0.71282	0.71931	0.50465	4.42870	4.11557	3.75597	4.24530	3.04422	1.84372	2.86166	2.73949	2.46005	1.51622	1.25339	1.06070	6.84595	5.94989	4.82934
78220	0.70890	0.72609	0.51434	4.41817	4.08688	3.76525	4.25930	3.05731	1.86185	2.89737	2.74467	2.45249	1.51893	1.26845	1.07270	6.82231	5.91821	4.79636
78380	0.71298	0.72845	0.51603	4.41803	4.09738	3.74584	4.26847	3.06456	1.84290	2.90087	2.75254	2.44679	1.53187	1.27037	1.07293	6.82631	5.94495	4.78560
78550	0.71820	0.72666	0.51814	4.42130	4.09596	3.73131	4.24544	3.08297	1.84322	2.86628	2.73423	2.42938	1.52280	1.26948	1.07338	6.82312	5.95201	4.80391
78710	0.71400	0.74609	0.51847	4.40018	4.07894	3.70545	4.26634	3.06677	1.85194	2.87278	2.71762	2.46145	1.52977	1.26363	1.05869	6.82942	5.96240	4.78958	24.66	6.1	0.00	7.26	0.01277	0.01291	0.01679	0.00779	0.00581	0.00637	0.00469	0.01268	0.01690	0.00679	0.00694	0.00900	0.01493	0.01099	0.01200	0.00217	0.00617	0.00868
78880	0.71173	0.73325	0.51490	4.38353	4.03940	3.74456	4.25164	3.08070	1.87334	2.91473	2.71395	2.42447	1.54695	1.26908	1.07485	6.82690	5.97613	4.81550
79040	0.71369	0.71585	0.51449	4.39680	4.10968	3.75189	4.26845	3.06817	1.85628	2.90521	2.71945	2.44835	1.53731	1.28417	1.07696	6.84151	5.93547	4.81519
79200	0.72271	0.72922	0.51250	4.40574	4.11175	3.78040	4.27841	3.08916	1.86365	2.90338	2.72967	2.46258	1.53581	1.27169	1.07208	6.86023	5.94307	4.79079
79370	0.71910	0.72694	0.52432	4.42721	4.12952	3.79194	4.27595	3.09205	1.86373	2.89179	2.73229	2.47978	1.54012	1.28336	1.07923	6.91368	5.99515	4.83446
79530	0.72051	0.73301	0.52066	4.42862	4.11298	3.79372	4.29923	3.10370	1.85909	2.87908	2.74684	2.45918	1.53804	1.28047	1.07685	6.90972	5.99001	4.83924
79700	0.71761	0.72605	0.51023	4.44870	4.12971	3.80278	4.27339	3.10116	1.86556	2.89620	2.76879	2.45253	1.54368	1.29861	1.08296	6.87988	5.97807	4.85615
79860	0.72340	0.74052	0.52411	4.47693	4.12952	3.77817	4.26561	3.09154	1.87980	2.90312	2.74418	2.45265	1.55074	1.27902	1.07571	6.87995	6.00540	4.84436
80020	0.72526	0.75514	0.53082	4.40889	4.12290	3.79965	4.31859	3.10513	1.88425	2.91809	2.74345	2.47577	1.55220	1.30261	1.09700	6.90546	5.97937	4.84758
80190	0.74150	0.74422	0.53065	4.47526	4.09105	3.77995	4.29709	3.10800	1.88333	2.90961	2.75868	2.46890	1.56226	1.29572	1.08560	6.87265	5.98228	4.84150
80350	0.72574	0.73599	0.51961	4.44854	4.10481	3.75416	4.29831	3.07790	1.87989	2.91340	2.75591	2.47619	1.55224	1.30104	1.08530	6.94622	5.97166	4.83623	24.72	6.1	0.00	7.26	0.01276	0.01291	0.01679	0.00779	0.00581	0.00637	0.00469	0.01268	0.01690	0.00679	0.00694	0.00900	0.01493	0.01099	0.01200	0.00217	0.00617	0.00868
80510	0.72828	0.75167	0.52750	4.43357	4.14328	3.79421	4.30509	3.12348	1.88516	2.93423	2.76425	2.47654	1.57011	1.30557	1.10424	6.93205	6.05180	4.90990
80680	0.73405	0.73832	0.51847	4.47134	4.14197	3.81662	4.29051	3.10870	1.88342	2.92317	2.79074	2.46723	1.54829	1.29884	1.08715	6.91081	5.98602	4.87039
80840	0.72985	0.74864	0.53539	4.47151	4.12453	3.77605	4.28675	3.09494	1.88388	2.89229	2.72742	2.45384	1.54790	1.29373	1.07976	6.87344	6.01112	4.87858
81000	0.72361	0.72772	0.51456	4.48492	4.16085	3.78883	4.30330	3.11860	1.87052	2.91823	2.74883	2.47826	1.54478	1.28700	1.09500	6.90386	6.03095	4.85655
81170	0.71617	0.73266	0.51288	4.50234	4.17580	3.76964	4.28619	3.08709	1.86431	2.92381	2.79759	2.47352	1.54551	1.29691	1.08935	6.90834	6.02067	4.88051
81330	0.72418	0.74302	0.51511	4.47397	4.16012	3.81567	4.30442	3.10193	1.90041	2.93802	2.82383	2.51189	1.55218	1.29589	1.09566	6.91410	5.99705	4.88709
81490	0.74067	0.74413	0.53155	4.50721	4.15220	3.79476	4.30337	3.10775	1.89136	2.91439	2.79931	2.53091	1.56034	1.30234	1.08636	6.92988	6.01415	4.89383
81660	0.72277	0.74552	0.52731	4.49589	4.16601	3.84180	4.30017	3.10160	1.87295	2.92448	2.76460	2.51204	1.56916	1.29419	1.09550	6.94127	6.01825	4.88607
81820	0.74224	0.75752	0.54410	4.45229	4.14177	3.80037	4.30738	3.10054	1.88781	2.94383	2.74670	2.45718	1.55488	1.29988	1.09331	6.92853	5.98243	4.87168
81990	0.74139	0.74532	0.53927	4.48207	4.15391	3.78598	4.32090	3.11190	1.88711	2.92632	2.80863	2.47184	1.55076	1.29372	1.10399	6.88068	5.93984	4.82481	24.72	6.1	0.00	6.76	0.01276	0.01291	0.01679	0.00779	0.00581	0.00637	0.00469	0.01268	0.01690	0.00679	0.00694	0.00900	0.01493	0.01099	0.01200	0.00217	0.00617	0.00868
82150	0.72423	0.74300	0.51790	4.45869	4.13417	3.76578	4.28577	3.08871	1.86724	2.89342	2.72640	2.43681	1.54813	1.29047	1.07958	6.86229	5.97672	4.81740
82310	0.72175	0.73294	0.51358	4.44308	4.09675	3.73082	4.30681	3.09108	1.86565	2.88664	2.71479	2.44448	1.53664	1.27473	1.06444	6.86564	5.96534	4.81621
82480	0.72116	0.72754	0.50810	4.43902	4.11126	3.76238	4.28398	3.07818	1.85985	2.90432	2.73271	2.43224	1.54747	1.28859	1.07766	6.85166	5.98965	4.82932
82640	0.72171	0.73675	0.51363	4.43714	4.10917	3.78189	4.30305	3.11605	1.87049	2.90046	2.72816	2.46115	1.53679	1.28963	1.09766	6.85025	5.97833	4.84489
82810	0.72540	0.74303	0.52061	4.44156	4.12708	3.76845	4.30597	3.10307	1.88556	2.92785	2.75287	2.47115	1.55136	1.30237	1.08443	6.89194	6.00257	4.85395
82970	0.72709	0.74181	0.52048	4.42840	4.11846	3.77646	4.32830	3.09364	1.87543	2.90664	2.77085	2.49697	1.54986	1.29306	1.07706	6.90874	6.05438	4.87626
83140	0.72351	0.73883	0.51420	4.50420	4.15819	3.77446	4.30854	3.10668	1.87670	2.91216	2.74758	2.47925	1.55069	1.28957	1.08603	6.88918	6.00840	4.89958
83300	0.73061	0.74298	0.52580	4.43674	4.13444	3.76903	4.30731	3.11115	1.89320	2.93677	2.74357	2.46742	1.55276	1.29174	1.08425	6.87956	5.98386	4.82020
83460	0.72599	0.74596	0.53146	4.48292	4.16484	3.78994	4.31956	3.10510	1.88594	2.90725	2.73537	2.49098	1.55654	1.29080	1.09165	6.92564	5.99732	4.85350
83630	0.72429	0.74184	0.52008	4.44290	4.15006	3.78904	4.33092	3.11334	1.88262	2.91550	2.77790	2.48495	1.54507	1.29283	1.09860	6.92901	6.04985	4.91301	24.72	6.0	0.00	7.67	0.01276	0.01291	0.01679	0.00779	0.00581	0.00637	0.00469	0.01268	0.01690	0.00679	0.00694	0.00900	0.01493	0.01099	0.01200	0.00217	0.00617	0.00868
83790	0.72903	0.74813	0.52717	4.45181	4.17132	3.78411	4.31721	3.10860	1.87340	2.92701	2.78927	2.48341	1.55056	1.29069	1.08395	6.90269	5.99999	4.87607
83960	0.72117	0.73716	0.51888	4.45524	4.12475	3.78802	4.30468	3.11073	1.88058	2.87810	2.73011	2.45079	1.54447	1.29732	1.08218	6.87636	6.01105	4.86220
84120	0.71765	0.74081	0.51599	4.40856	4.13090	3.76850	4.30609	3.09567	1.87208	2.93392	2.75509	2.48539	1.54065	1.29559	1.07902	6.87628	5.98414	4.86020
84280	0.71871	0.73964	0.52268	4.46862	4.11245	3.77002	4.30113	3.08622	1.87490	2.88955	2.72375	2.46895	1.54867	1.28558	1.07561	6.89828	5.96676	4.83145
84450	0.72258	0.73607	0.51556	4.44093	4.13606	3.78466	4.29231	3.10292	1.86599	2.90457	2.75567	2.46993	1.57353	1.27926	1.08432	6.90478	5.97682	4.86573
84610	0.71602	0.73515	0.52265	4.45088	4.12971	3.74018	4.31555	3.09812	1.87599	2.90700	2.72196	2.47529	1.55267	1.30007	1.08124	6.88381	5.98842	4.85296
84780	0.73240	0.74764	0.52399	4.41385	4.10626	3.74651	4.32598	3.09928	1.88401	2.89398	2.74713	2.49018	1.55146	1.28186	1.08354	6.85545	5.99717	4.84577
84940	0.72850	0.75112	0.53517	4.45962	4.15198	3.76155	4.28957	3.10675	1.87085	2.90225	2.75113	2.48714	1.53169	1.28503	1.07877	6.89037	6.01300	4.86853
85100	0.73295	0.74417	0.52262	4.44718	4.14427	3.79064	4.28469	3.09998	1.87724	2.91560	2.78144	2.48586	1.55718	1.29868	1.09106	6.89656	6.02391	4.85789
85270	0.73315	0.73636	0.52364	4.46937	4.17437	3.80404	4.29762	3.09652	1.88192	2.90795	2.73872	2.46138	1.54798	1.28901	1.08330	6.97220	6.03393	4.89777	24.72	6.1	0.00	7.44	0.01276	0.01291	0.01679	0.00779	0.00581	0.00637	0.00469	0.01268	0.01690	0.00678	0.00694	0.00900	0.01493	0.01099	0.01200	0.00217	0.00617	0.00868
85430	0.72651	0.73921	0.52046	4.47382	4.11948	3.79785	4.28652	3.08275	1.87400	2.88000	2.72975	2.48205	1.54645	1.28412	1.06763	6.86124	5.93886	4.79381
85600	0.70576	0.71825	0.51286	4.42389	4.10297	3.75488	4.26341	3.06786	1.85714	2.87815	2.72909	2.44487	1.52814	1.27402	1.06758	6.87873	5.97232	4.81869
85760	0.71183	0.72250	0.51228	4.46813	4.14206	3.81213	4.26068	3.08576	1.85933	2.88073	2.74849	2.44716	1.54072	1.27929	1.06477	6.86890	5.94067	4.80183
85930	0.72478	0.73715	0.52842	4.42327	4.09276	3.73830	4.27010	3.07633	1.84536	2.86191	2.71922	2.44900	1.52347	1.27542	1.07165	6.83747	5.92156	4.84928
86090	0.72011	0.73377	0.51533	4.44018	4.07674	3.77093	4.26495	3.05568	1.85524	2.86667	2.71289	2.42568	1.52856	1.27298	1.05946	6.82946	5.94545	4.82087
86260	0.69790	0.72321	0.50894	4.37687	4.06584	3.74815	4.24832	3.05438	1.86220	2.84822	2.69797	2.41422	1.51591	1.26504	1.05215	6.80777	5.87802	4.76873
86420	0.70381	0.71293	0.50587	4.38618	4.06068	3.70292	4.22418	3.02918	1.81672	2.83487	2.70199	2.45832	1.51061	1.26413	1.06521	6.78538	5.92861	4.79308
86590	0.71084	0.72028	0.51157	4.38487	4.04393	3.68728	4.22471	3.05037	1.84184	2.85258	2.66897	2.39175	1.51213	1.25420	1.05144	6.74458	5.89103	4.74588
86750	0.69540	0.70944	0.50395	4.35649	4.04828	3.71872	4.21180	3.03882	1.82647	2.86172	2.74221	2.44584	1.50486	1.24179	1.04324	6.75576	5.86699	4.73634
86920	0.69804	0.71918	0.50648	4.37755	4.05173	3.72969	4.20062	3.00952	1.83219	2.90675	2.72257	2.44346	1.50998	1.31993	1.07261	6.76182	5.87502	4.74789	24.72	6.3	0.00	7.25	0.01276	0.01291	0.01678	0.00779	0.00581	0.00637	0.00469	0.01268	0.01690	0.00678	0.00694	0.00900	0.01493	0.01099	0.01199	0.00217	0.00617	0.00868
87080	0.72889	0.72546	0.50831	4.38661	4.04399	3.69682	4.20571	3.01622	1.81379	2.83414	2.70091	2.42540	1.50367	1.25595	1.05043	6.72800	5.88477	4.75220
87240	0.71684	0.72071	0.50914	4.33516	4.01463	3.67288	4.21442	3.01326	1.81216	2.83907	2.68895	2.40855	1.49056	1.23489	1.03934	6.71245	5.85552	4.74181
87400	0.69745	0.71122	0.50546	4.33255	4.08818	3.69556	4.20316	3.00753	1.81363	2.85557	2.69100	2.43041	1.50811	1.24773	1.04013	6.71296	5.89013	4.76298
87570	0.69234	0.71066	0.49749	4.37656	4.03237	3.68898	4.19631	3.01255	1.81488	2.82490	2.65728	2.41994	1.49508	1.24454	1.03723	6.72411	5.84446	4.72873
87730	0.69297	0.70535	0.49772	4.34449	4.01037	3.66373	4.18713	2.99905	1.80389	2.81555	2.67133	2.39282	1.50748	1.24876	1.04651	6.73923	5.83578	4.73168
87890	0.69526	0.71511	0.50755	4.33393	4.07070	3.66307	4.20623	3.00438	1.81206	2.86444	2.64250	2.41359	1.48279	1.24693	1.04121	6.75519	5.88791	4.76624
88060	0.69277	0.70205	0.50379	4.33324	4.01740	3.71358	4.15946	2.98152	1.80192	2.83245	2.67733	2.38820	1.50032	1.24291	1.03679	6.72836	5.90487	4.77265
88220	0.70126	0.71274	0.50514	4.34853	4.03163	3.68712	4.17004	2.98572	1.80711	2.85258	2.69368	2.41361	1.48030	1.24155	1.04459	6.71692	5.86724	4.73223
88390	0.70317	0.72120	0.51006	4.35535	4.03357	3.71487	4.17219	3.01931	1.82004	2.88961	2.66662	2.42356	1.49063	1.24767	1.03665	6.70849	5.84561	4.72185
88550	0.68650	0.70710	0.50831	4.32457	3.99860	3.68114	4.15385	2.99273	1.80179	2.81608	2.66251	2.40929	1.49536	1.23159	1.03999	6.71991	5.83275	4.75030	24.78	6.0	0.00	7.26	0.01276	0.01291	0.01678	0.00779	0.00581	0.00637	0.00469	0.01268	0.01690	0.00678	0.00694	0.00900	0.01493	0.01099	0.01200	0.00217	0.00617	0.00868
88710	0.68689	0.71428	0.50444	4.35844	4.04384	3.71776	4.18393	2.99314	1.80206	2.81729	2.65355	2.39847	1.48624	1.24454	1.03698	6.76224	5.82442	4.72413
88880	0.69322	0.70371	0.49938	4.37018	4.05728	3.72062	4.14737	3.06489	1.80243	2.89748	2.68812	2.44813	1.49682	1.23435	1.03112	6.73239	5.85972	4.71930
89040	0.68614	0.70684	0.50023	4.31446	4.04049	3.64924	4.17622	2.99293	1.79948	2.81574	2.65172	2.40091	1.48112	1.22965	1.03992	6.72659	5.87347	4.71877
89200	0.69066	0.71866	0.49577	4.34676	4.02241	3.66789	4.15350	3.00048	1.79941	2.82674	2.66827	2.42575	1.47828	1.23445	1.03972	6.69165	5.80319	4.69163
89370	0.68331	0.70079	0.50209	4.34969	4.03234	3.69562	4.16709	2.98549	1.79980	2.82456	2.70679	2.39750	1.48231	1.23973	1.04123	6.69670	5.84107	4.72074
89530	0.70119	0.70529	0.50339	4.31814	4.01104	3.66200	4.17282	2.97209	1.80678	2.78073	2.66568	2.42388	1.47795	1.23192	1.02812	6.70284	5.82817	4.70627
89690	0.68946	0.69881	0.48945	4.32643	3.99651	3.65117	4.16713	2.99122	1.80461	2.81668	2.66327	2.40139	1.47860	1.23600	1.03611	6.72872	5.82538	4.68776
89850	0.68871	0.70165	0.49745	4.31518	3.99164	3.66413	4.15915	2.98169	1.79879	2.83087	2.66369	2.39469	1.48952	1.21962	1.03118	6.66135	5.76014	4.66457
90020	0.68021	0.69377	0.49037	4.33979	4.00278	3.63276	4.15731	2.94990	1.79327	2.78106	2.61743	2.36153	1.47645	1.21788	1.02886	6.68047	5.76088	4.66126
90180	0.68639	0.70598	0.50119	4.31882	3.96748	3.63762	4.13620	2.96297	1.79341	2.78018	2.61245	2.36127	1.47371	1.21773	1.02278	6.67314	5.79944	4.68301	24.78	6.1	0.00	7.26	0.01276	0.01291	0.01678	0.00779	0.00581	0.00637	0.00469	0.01268	0.01690	0.00678	0.00694	0.00900	0.01492	0.01099	0.01199	0.00217	0.00617	0.00868
90350	0.70177	0.70317	0.49487	4.30868	3.98143	3.61666	4.14447	2.95140	1.78216	2.80411	2.63607	2.36742	1.47142	1.21966	1.03089	6.69015	5.79378	4.69702
90510	0.68801	0.69439	0.49071	4.28826	3.99561	3.62718	4.14797	2.96180	1.77445	2.79879	2.64323	2.38323	1.47822	1.22033	1.02351	6.65353	5.76570	4.67486
90680	0.68689	0.69874	0.49312	4.27253	3.95569	3.61047	4.12825	2.94823	1.77938	2.79000	2.62594	2.33561	1.46151	1.20335	1.02642	6.65156	5.78877	4.69503
90840	0.67301	0.73270	0.49299	4.29108	3.99042	3.65087	4.14129	2.97406	1.80156	2.78749	2.63088	2.37110	1.47922	1.23783	1.01862	6.69549	5.80069	4.65342
91010	0.68385	0.69793	0.49639	4.27765	3.96482	3.62945	4.14046	2.95797	1.77955	2.78538	2.60884	2.34625	1.47150	1.22323	1.01710	6.68314	5.80689	4.67680
91170	0.68048	0.70775	0.49312	4.29887	3.99680	3.62144	4.12981	2.96274	1.78061	2.78571	2.62122	2.34316	1.46569	1.20913	1.02410	6.65244	5.78071	4.65249
91340	0.67464	0.69564	0.48519	4.28646	3.96284	3.59637	4.11879	2.95786	1.77459	2.76317	2.62347	2.34161	1.47130	1.21913	1.01864	6.65498	5.80673	4.66463
91500	0.67720	0.69769	0.48806	4.27177	3.96259	3.64806	4.12863	2.95667	1.76563	2.78159	2.60691	2.36606	1.47090	1.22519	1.02142	6.68730	5.80740	4.66675
91660	0.67856	0.70100	0.49706	4.27616	3.97414	3.63364	4.14139	2.97018	1.77489	2.79182	2.62614	2.33578	1.46778	1.21008	1.02761	6.67190	5.80675	4.66470
91830	0.68918	0.70673	0.49470	4.26470	3.94292	3.60151	4.13660	2.95685	1.77498	2.78938	2.65656	2.38772	1.46873	1.21756	1.02424	6.68465	5.82887	4.69954	24.72	6.1	0.00	7.25	0.01276	0.01291	0.01678	0.00779	0.00581	0.00637	0.00469	0.01268	0.01690	0.00678	0.00694	0.00899	0.01492	0.01099	0.01200	0.00217	0.00617	0.00868
91990	0.68810	0.70166	0.50057	4.28533	3.98046	3.65463	4.14557	2.95545	1.78591	2.80376	2.65877	2.39236	1.45876	1.21999	1.03116	6.68633	5.80454	4.71196
92150	0.70016	0.69745	0.49453	4.32468	3.99755	3.65137	4.13847	2.98099	1.78367	2.79683	2.63929	2.37678	1.46722	1.22236	1.02892	6.69093	5.82429	4.75513
92320	0.67900	0.70713	0.49400	4.31211	3.97201	3.64273	4.14422	2.96840	1.76715	2.77556	2.63566	2.37039	1.46738	1.22196	1.01909	6.61826	5.79927	4.66171
92480	0.68192	0.69583	0.49677	4.27993	3.97961	3.65951	4.10966	2.95409	1.77931	2.77579	2.61192	2.37813	1.45926	1.21582	1.02189	6.67713	5.79561	4.68316
92640	0.68284	0.68744	0.49865	4.27821	4.00550	3.63519	4.12271	2.95830	1.77497	2.78293	2.61371	2.35831	1.46702	1.23349	1.02663	6.64267	5.75384	4.62966
92810	0.68476	0.70043	0.49407	4.29350	3.98118	3.63145	4.15215	2.96023	1.77235	2.78009	2.62113	2.35880	1.47683	1.22576	1.02278	6.65213	5.79948	4.65821
92970	0.68494	0.69747	0.49135	4.28677	3.97455	3.62750	4.12713	2.95611	1.79200	2.76712	2.61710	2.35334	1.45625	1.21271	1.02178	6.66830	5.83252	4.67735
93130	0.67632	0.69370	0.49697	4.29214	3.96614	3.64524	4.11153	2.95557	1.78755	2.77262	2.62273	2.36880	1.46130	1.22084	1.02309	6.66203	5.74631	4.64266
93300	0.67453	0.69132	0.48964	4.24439	3.96648	3.60474	4.12468	2.94221	1.76926	2.81919	2.67258	2.41957	1.44469	1.20851	1.01328	6.61913	5.77261	4.67980
93460	0.67613	0.69240	0.48733	4.27672	3.95860	3.65331	4.12431	2.95124	1.76623	2.79297	2.63251	2.39805	1.46539	1.20860	1.00935	6.64020	6.24896	4.66965	24.72	6.1	0.00	7.23	0.01276	0.01291	0.01678	0.00779	0.00581	0.00637	0.00469	0.01268	0.01690	0.00678	0.00694	0.00900	0.01492	0.01099	0.01200	0.00217	0.00617	0.00868
93630	0.68545	0.69965	0.48518	4.25844	3.93962	3.60534	4.10318	2.95235	1.77490	2.76107	2.63082	2.34366	1.45700	1.20368	1.01526	6.64806	5.72519	4.65819
93790	0.68227	0.70158	0.48408	4.27421	3.93788	3.57398	4.12918	2.96700	1.77706	2.74548	2.61545	2.36770	1.45380	1.21567	1.01939	6.66358	5.76093	4.67329
93960	0.67705	0.69193	0.49412	4.30957	3.97033	3.60294	4.12047	2.93969	1.76308	2.85182	2.62945	2.41845	1.45017	1.21755	1.01591	6.69111	5.94169	4.89251
94120	0.68576	0.70418	0.49606	4.24320	3.93559	3.62638	4.12399	2.97054	1.78555	2.75619	2.61125	2.35983	1.46600	1.21586	1.02227	6.62457	5.77141	4.68975
94280	0.67072	0.69431	0.48827	4.26438	3.95341	3.65369	4.10905	2.93314	1.76611	2.76946	2.60853	2.36887	1.45290	1.20721	1.02392	6.58861	5.73077	4.62968
94450	0.67686	0.69050	0.49516	4.28187	3.98471	3.63346	4.11132	2.96296	1.76839	2.78942	2.62923	2.38626	1.46798	1.22065	1.02220	6.63373	5.77997	4.69587
94610	0.68113	0.69417	0.48979	4.28873	3.94470	3.64009	4.12037	2.95643	1.78869	2.78978	2.63180	2.38481	1.46160	1.21734	1.01714	6.67547	5.79814	4.67707
94770	0.68063	0.69772	0.49193	4.29501	3.97412	3.63283	4.12742	2.95945	1.78137	2.81391	2.65970	2.34944	1.45955	1.20853	1.01716	6.64857	5.74608	4.67232
94940	0.67702	0.69648	0.49587	4.31410	3.97971	3.66162	4.12106	2.95513	1.78030	2.78791	2.62984	2.43099	1.45460	1.20944	1.01749	6.67971	5.78982	4.69818
95100	0.68237	0.70993	0.51460	4.29806	3.98520	3.86210	4.14959	2.96533	1.78455	2.83550	2.65216	2.36615	1.45578	1.21937	1.01780	6.64854	5.86364	4.67538	24.84	6.1	0.00	7.36	0.01276	0.01291	0.01678	0.00779	0.00581	0.00637	0.00469	0.01268	0.01690	0.00678	0.00694	0.00900	0.01493	0.01099	0.01200	0.00217	0.00617	0.00868
95260	0.68118	0.69265	0.49182	4.31417	3.99052	3.62382	4.12534	2.94594	1.76287	2.77525	2.62838	2.39387	1.46259	1.20841	1.01550	6.63493	5.80210	4.68917
95430	0.67862	0.69213	0.48814	4.30106	3.96034	3.64787	4.11267	2.95190	1.78323	2.77582	2.60733	2.38147	1.45516	1.20946	1.02003	6.67179	5.77368	4.70906
95590	0.67959	0.68880	0.48542	4.30974	3.96246	3.63953	4.10494	2.95424	1.77415	2.79344	2.63573	2.36069	1.47202	1.22135	1.01180	6.63566	5.79268	4.68959
