WetView ver 7.1	07-17-2019	10:58:06
AC9 Absorption and Attenuation Meter
00000311		; Serial number
2	; structure version number
Reserved
0.000000	0.000000		; Depth calibration
19200			; Baud rate
0.100000			; Path length (meters)
23			; number of temperature calibration bins
				12.61517	13.44096	14.46844	15.49904	16.50682	17.50108	18.49752	19.51783	20.49177	21.49009	22.48286	23.50673	24.54012	25.54812	26.49986	27.49321	28.50960	29.48671	30.47471	31.49432	32.50437	33.48679	34.49133	; temperature bins
a650	Blue	18.61587		0.01156	0.01096	0.01010	0.00930	0.00851	0.00774	0.00661	0.00573	0.00499	0.00402	0.00285	0.00203	0.00096	0.00000	-0.00110	-0.00152	-0.00210	-0.00247	-0.00259	-0.00317	-0.00346	-0.00380	-0.00403		; offset and temperature correction info
a676	Green	18.78942		0.00964	0.00899	0.00863	0.00813	0.00730	0.00639	0.00545	0.00448	0.00385	0.00301	0.00233	0.00165	0.00046	0.00000	-0.00106	-0.00167	-0.00251	-0.00280	-0.00316	-0.00329	-0.00377	-0.00392	-0.00441		; offset and temperature correction info
a715	Brown	18.59217		0.01171	0.01109	0.01043	0.00975	0.00878	0.00789	0.00685	0.00572	0.00469	0.00356	0.00255	0.00160	0.00061	0.00000	-0.00063	-0.00113	-0.00152	-0.00183	-0.00226	-0.00293	-0.00364	-0.00404	-0.00473		; offset and temperature correction info
c510	Red	18.18396		-0.00549	-0.00480	-0.00383	-0.00272	-0.00202	-0.00118	-0.00044	-0.00038	-0.00015	-0.00021	0.00013	0.00007	-0.00007	0.00000	-0.00007	-0.00065	-0.00045	-0.00018	0.00007	0.00039	-0.00001	-0.00002	-0.00045		; offset and temperature correction info
c532	Magenta	18.26528		-0.00721	-0.00645	-0.00581	-0.00518	-0.00465	-0.00345	-0.00281	-0.00270	-0.00182	-0.00141	-0.00108	-0.00072	-0.00022	0.00000	0.00044	0.00030	0.00031	-0.00006	-0.00052	-0.00089	-0.00142	-0.00149	-0.00154		; offset and temperature correction info
c555	Black	18.37125		-0.00430	-0.00419	-0.00381	-0.00319	-0.00286	-0.00254	-0.00205	-0.00196	-0.00138	-0.00137	-0.00067	-0.00051	-0.00030	0.00000	0.00067	0.00087	0.00057	0.00027	-0.00015	-0.00089	-0.00127	-0.00137	-0.00150		; offset and temperature correction info
a412	LtBlue	15.33566		-0.06011	-0.05567	-0.05012	-0.04441	-0.03922	-0.03412	-0.02941	-0.02503	-0.02049	-0.01588	-0.01121	-0.00784	-0.00311	0.00000	0.00273	0.00611	0.00757	0.00871	0.01066	0.01299	0.01539	0.01781	0.02175		; offset and temperature correction info
a440	LtGreen	16.05925		-0.01380	-0.01214	-0.01039	-0.00858	-0.00690	-0.00532	-0.00426	-0.00322	-0.00230	-0.00158	-0.00055	0.00006	0.00001	0.00000	0.00017	0.00016	-0.00094	-0.00222	-0.00363	-0.00486	-0.00567	-0.00651	-0.00782		; offset and temperature correction info
a488	Yellow	16.82827		0.00255	0.00293	0.00331	0.00354	0.00373	0.00378	0.00363	0.00350	0.00291	0.00225	0.00215	0.00142	0.00099	0.00000	-0.00092	-0.00169	-0.00295	-0.00396	-0.00479	-0.00542	-0.00582	-0.00604	-0.00663		; offset and temperature correction info
c650	Blue	18.49287		-0.00570	-0.00516	-0.00456	-0.00403	-0.00346	-0.00232	-0.00132	-0.00122	-0.00073	-0.00066	-0.00035	-0.00016	0.00003	0.00000	0.00044	0.00078	0.00108	0.00057	0.00040	-0.00042	-0.00033	-0.00029	-0.00034		; offset and temperature correction info
c676	Green	18.50570		0.00299	0.00293	0.00287	0.00293	0.00278	0.00294	0.00317	0.00251	0.00243	0.00215	0.00139	0.00123	0.00068	0.00000	-0.00041	-0.00106	-0.00205	-0.00268	-0.00325	-0.00413	-0.00495	-0.00610	-0.00674		; offset and temperature correction info
c715	Brown	17.88888		0.00826	0.00812	0.00773	0.00790	0.00766	0.00758	0.00753	0.00650	0.00571	0.00461	0.00359	0.00222	0.00101	0.00000	-0.00146	-0.00284	-0.00385	-0.00448	-0.00463	-0.00513	-0.00623	-0.00715	-0.00838		; offset and temperature correction info
a510	Red	17.18050		0.00353	0.00364	0.00354	0.00361	0.00381	0.00381	0.00356	0.00332	0.00277	0.00229	0.00176	0.00116	0.00036	0.00000	-0.00014	-0.00069	-0.00088	-0.00147	-0.00150	-0.00129	-0.00120	-0.00134	-0.00091		; offset and temperature correction info
a532	Magenta	17.40228		0.00550	0.00548	0.00526	0.00479	0.00464	0.00422	0.00393	0.00328	0.00253	0.00212	0.00136	0.00085	0.00039	0.00000	-0.00059	-0.00146	-0.00188	-0.00262	-0.00330	-0.00393	-0.00491	-0.00540	-0.00605		; offset and temperature correction info
a555	Black	17.72308		0.00849	0.00832	0.00800	0.00760	0.00724	0.00655	0.00580	0.00495	0.00435	0.00347	0.00252	0.00153	0.00049	0.00000	-0.00050	-0.00155	-0.00214	-0.00306	-0.00350	-0.00411	-0.00470	-0.00539	-0.00570		; offset and temperature correction info
c412	LtBlue	16.72802		-0.05949	-0.05458	-0.04744	-0.04134	-0.03547	-0.03064	-0.02511	-0.02047	-0.01574	-0.01163	-0.00761	-0.00442	-0.00204	0.00000	0.00100	0.00051	-0.00043	-0.00239	-0.00475	-0.00629	-0.00827	-0.00955	-0.01337		; offset and temperature correction info
c440	LtGreen	17.42637		-0.02723	-0.02503	-0.02216	-0.01930	-0.01691	-0.01394	-0.01125	-0.00926	-0.00732	-0.00582	-0.00401	-0.00226	-0.00093	0.00000	0.00082	0.00123	0.00133	0.00097	0.00038	-0.00003	-0.00022	-0.00023	-0.00125		; offset and temperature correction info
c488	Yellow	18.03666		-0.00640	-0.00554	-0.00465	-0.00357	-0.00276	-0.00154	-0.00067	-0.00031	-0.00014	-0.00012	0.00046	0.00032	0.00020	0.00000	0.00001	-0.00024	-0.00060	-0.00084	-0.00126	-0.00180	-0.00276	-0.00304	-0.00427		; offset and temperature correction info
0.003500	0.004000	0.015000	0.020000	0.015000	0.020000	2500.000000	2000.000000	1000.000000	; maxANoise	maxCNoise	maxADifference	maxCDifference	minACounts	minCCounts	minRCounts	maxTempSdev	maxDepthSdev
0			; auxilliary capabilities
1			; acquisition binsize
0	2.12431	2.27931	1.87675	11.46660	11.06938	10.70087	6.87578	5.10991	3.56928	9.59406	9.42091	9.11716	3.13288	2.79182	2.51943	15.25924	13.44428	11.90672	34.77	6.2	0.00	-2.04	0.01729	0.01198	0.01516	0.01829	0.01892	0.01479	0.00545	0.01511	0.02001	0.01861	0.01290	0.01643	0.01702	0.01759	0.01375	0.00575	0.01616	0.02151
170	2.12410	2.28186	1.87675	11.46322	11.06950	10.70322	6.88265	5.10646	3.57036	9.59530	9.42223	9.11704	3.13663	2.79337	2.52197	15.25486	13.44544	11.90831
330	2.12524	2.27926	1.87612	11.46500	11.06906	10.70203	6.89339	5.10370	3.56807	9.59244	9.41962	9.11616	3.13204	2.79327	2.52322	15.25352	13.44760	11.91073
500	2.12752	2.28158	1.87745	11.46881	11.07253	10.70418	6.89697	5.10252	3.56812	9.59434	9.42145	9.11738	3.13224	2.79137	2.51992	15.25647	13.44480	11.90780
660	2.12393	2.27799	1.87664	11.46438	11.07084	10.70382	6.89654	5.10874	3.56780	9.59577	9.42176	9.11836	3.13528	2.79321	2.51865	15.25826	13.44584	11.90782
830	2.12507	2.27880	1.87479	11.46417	11.06828	10.70073	6.87682	5.10326	3.56377	9.59001	9.41828	9.11426	3.13577	2.79059	2.52044	15.25656	13.44589	11.91010
990	2.12609	2.28012	1.87666	11.46545	11.06937	10.70232	6.88985	5.10388	3.56617	9.59559	9.42001	9.11728	3.13113	2.78923	2.51513	15.25442	13.44274	11.90725
1150	2.12423	2.28118	1.87772	11.46523	11.07033	10.70502	6.89593	5.10505	3.56851	9.59587	9.42126	9.11830	3.13516	2.79153	2.51829	15.25853	13.44680	11.91075
1320	2.12344	2.27686	1.87575	11.46505	11.06924	10.70148	6.88143	5.10162	3.56620	9.59383	9.42035	9.11904	3.13516	2.79257	2.51998	15.26112	13.44797	11.91240
1480	2.12690	2.28025	1.87601	11.46750	11.07035	10.70528	6.89758	5.10389	3.56695	9.59563	9.42271	9.11832	3.13051	2.78956	2.51578	15.25227	13.44405	11.90675
1650	2.12589	2.28020	1.87646	11.46769	11.07508	10.70784	6.88037	5.10595	3.56738	9.59925	9.42392	9.12123	3.13127	2.79057	2.51920	15.25985	13.44849	11.91121	34.77	6.2	0.00	-2.04	0.01729	0.01198	0.01516	0.01829	0.01892	0.01479	0.00545	0.01511	0.02001	0.01861	0.01290	0.01643	0.01702	0.01759	0.01375	0.00575	0.01616	0.02151
1810	2.12308	2.27803	1.87550	11.46812	11.07178	10.70448	6.89430	5.09871	3.56588	9.59500	9.42211	9.11645	3.13004	2.79106	2.51883	15.26360	13.44797	11.91251
1980	2.12510	2.27736	1.87534	11.46738	11.07083	10.70435	6.88013	5.10014	3.56584	9.59558	9.42086	9.11711	3.13153	2.78963	2.51736	15.25601	13.44356	11.90745
2140	2.12423	2.27819	1.87609	11.46824	11.07290	10.70688	6.89760	5.10256	3.57004	9.59756	9.42567	9.11978	3.13321	2.79287	2.51996	15.26405	13.44968	11.91193
2310	2.12467	2.27676	1.87552	11.46666	11.07132	10.70321	6.89185	5.10296	3.56512	9.59456	9.42103	9.11875	3.13335	2.79196	2.52060	15.26780	13.44829	11.91241
2470	2.12467	2.27837	1.87482	11.46741	11.07186	10.70514	6.88173	5.10352	3.56538	9.59611	9.42352	9.11783	3.13118	2.78897	2.51878	15.25109	13.44450	11.90804
2640	2.12486	2.27887	1.87908	11.46886	11.07356	10.70666	6.89298	5.10768	3.57082	9.59811	9.42608	9.12242	3.13280	2.79196	2.51878	15.25190	13.44720	11.91215
2800	2.12410	2.27851	1.87680	11.46802	11.07032	10.70278	6.88375	5.10255	3.56532	9.59420	9.42230	9.11693	3.13124	2.78742	2.51679	15.25547	13.44465	11.90844
2970	2.12366	2.27627	1.87346	11.46686	11.07026	10.70239	6.88295	5.10342	3.56230	9.59425	9.42153	9.11667	3.13261	2.79178	2.52140	15.25092	13.44648	11.91248
3130	2.12669	2.28011	1.87776	11.47115	11.07480	10.70705	6.87872	5.10641	3.56760	9.59657	9.42671	9.11851	3.13412	2.79037	2.51845	15.25663	13.44539	11.91002
3290	2.12220	2.27557	1.87440	11.46854	11.07199	10.70458	6.88519	5.10401	3.56633	9.59590	9.42214	9.11875	3.13277	2.78962	2.51649	15.25323	13.44672	11.91087	34.77	6.2	0.00	-2.04	0.01729	0.01197	0.01516	0.01829	0.01892	0.01479	0.00545	0.01511	0.02001	0.01861	0.01290	0.01643	0.01702	0.01759	0.01374	0.00575	0.01616	0.02151
3460	2.12357	2.27399	1.87174	11.46741	11.06923	10.70198	6.88900	5.09711	3.56225	9.59331	9.42162	9.11771	3.13022	2.78904	2.52095	15.25163	13.44459	11.91072
3620	2.12486	2.27615	1.87252	11.46979	11.07355	10.70576	6.88199	5.09961	3.56424	9.59706	9.42473	9.12148	3.12921	2.78906	2.51805	15.25457	13.44340	11.90882
3790	2.12408	2.27670	1.87413	11.46882	11.07200	10.70491	6.88665	5.10039	3.56167	9.59693	9.42518	9.12049	3.13097	2.78907	2.51618	15.26056	13.44420	11.91253
3950	2.12296	2.27657	1.87466	11.47024	11.07131	10.70478	6.88750	5.09915	3.56310	9.59636	9.42337	9.11925	3.12782	2.78553	2.51627	15.25359	13.44499	11.91165
4120	2.12190	2.27674	1.87369	11.47037	11.07282	10.70675	6.88072	5.09970	3.56484	9.59801	9.42551	9.11988	3.12904	2.78597	2.51629	15.25681	13.44650	11.91066
4280	2.12353	2.27669	1.87491	11.47303	11.07610	10.70699	6.87874	5.10055	3.56490	9.59692	9.42678	9.12261	3.13043	2.78983	2.51507	15.25520	13.44724	11.91223
4450	2.12276	2.27527	1.87112	11.47025	11.07375	10.70338	6.87535	5.09480	3.56125	9.59638	9.42389	9.12012	3.12993	2.79104	2.51886	15.25377	13.44880	11.91480
4610	2.12412	2.27744	1.87413	11.47518	11.07736	10.70776	6.87394	5.10569	3.56566	9.59746	9.42624	9.12157	3.12946	2.78931	2.51721	15.26056	13.44751	11.91211
4780	2.12137	2.27301	1.87367	11.47388	11.07721	10.70737	6.88717	5.10035	3.56486	9.59718	9.42622	9.12195	3.12913	2.78791	2.51626	15.25761	13.44613	11.91237
4940	2.12332	2.28140	1.87755	11.47620	11.07770	10.70883	6.88910	5.10055	3.56398	9.60028	9.42757	9.12268	3.12761	2.78630	2.51529	15.25796	13.45146	11.91484	34.77	6.2	0.00	-2.04	0.01729	0.01197	0.01516	0.01829	0.01892	0.01479	0.00545	0.01511	0.02001	0.01861	0.01290	0.01643	0.01702	0.01759	0.01374	0.00575	0.01616	0.02151
5110	2.12040	2.27619	1.87502	11.47167	11.07491	10.70619	6.88345	5.09850	3.56316	9.59552	9.42616	9.12062	3.13190	2.78887	2.52234	15.26324	13.45307	11.91836
5270	2.12334	2.27611	1.87443	11.47500	11.07727	10.70757	6.88571	5.10113	3.56438	9.59912	9.42655	9.12255	3.12797	2.78833	2.51661	15.25930	13.44846	11.91427
5440	2.12158	2.27485	1.87255	11.47303	11.07450	10.70733	6.88373	5.09682	3.56312	9.59799	9.42720	9.12163	3.13039	2.79166	2.51727	15.26181	13.45174	11.91564
5600	2.12229	2.27441	1.87303	11.47292	11.07603	10.70840	6.88067	5.09961	3.56514	9.59824	9.42599	9.12158	3.13006	2.78921	2.51614	15.26020	13.44703	11.91472
5770	2.12158	2.27478	1.87126	11.47102	11.07536	10.70860	6.87790	5.10252	3.56427	9.59853	9.42640	9.12196	3.13161	2.78921	2.51540	15.26082	13.44906	11.91331
5930	2.12023	2.27504	1.87314	11.47117	11.07272	10.70572	6.88458	5.09355	3.55880	9.59623	9.42409	9.11974	3.12644	2.78619	2.51685	15.26127	13.44931	11.91430
6100	2.12256	2.27620	1.87221	11.47183	11.07439	10.70591	6.88129	5.09613	3.56141	9.59790	9.42530	9.12142	3.12707	2.78445	2.51215	15.25752	13.44653	11.91179
6260	2.11988	2.27461	1.87253	11.47044	11.07431	10.70654	6.87969	5.09943	3.56167	9.59734	9.42517	9.12083	3.12731	2.78548	2.51370	15.25466	13.44750	11.91166
6420	2.11905	2.27622	1.87270	11.46964	11.07351	10.70516	6.87846	5.10019	3.56157	9.59761	9.42584	9.12183	3.12786	2.78628	2.51425	15.25752	13.44780	11.91418
6590	2.12063	2.27380	1.87137	11.47240	11.07467	10.70719	6.88592	5.09548	3.56179	9.59823	9.42633	9.12170	3.12779	2.78642	2.51296	15.25586	13.44475	11.91074	34.83	6.0	0.00	-2.04	0.01729	0.01197	0.01515	0.01830	0.01892	0.01479	0.00545	0.01511	0.02001	0.01861	0.01290	0.01643	0.01702	0.01759	0.01374	0.00575	0.01616	0.02151
6760	2.12266	2.27493	1.87419	11.47461	11.07842	10.70943	6.88465	5.09804	3.56191	9.60053	9.43067	9.12499	3.12713	2.78726	2.51513	15.26203	13.44770	11.91396
6920	2.12150	2.27346	1.87097	11.47225	11.07632	10.70539	6.88013	5.09731	3.55882	9.59835	9.42506	9.12075	3.12872	2.78902	2.51776	15.25908	13.45303	11.91762
7090	2.12523	2.27733	1.87453	11.47458	11.07989	10.70893	6.88776	5.09693	3.56041	9.60005	9.42890	9.12514	3.12569	2.78439	2.51207	15.25872	13.44986	11.91558
7250	2.12058	2.27373	1.87203	11.47373	11.07627	10.70694	6.88169	5.09667	3.55899	9.59847	9.42659	9.12336	3.12480	2.78338	2.51038	15.25881	13.44572	11.91349
7420	2.11955	2.27162	1.87175	11.47634	11.07922	10.70979	6.88894	5.09925	3.56203	9.60145	9.42965	9.12545	3.12680	2.78661	2.51116	15.26373	13.45080	11.91480
7580	2.11803	2.27315	1.87044	11.47418	11.07774	10.70775	6.87712	5.09630	3.55845	9.59832	9.42648	9.12291	3.12435	2.78818	2.51280	15.25685	13.45067	11.91696
7750	2.12038	2.27341	1.87158	11.47465	11.08018	10.70816	6.87957	5.09721	3.56312	9.59976	9.43101	9.12515	3.12724	2.78490	2.51279	15.26212	13.45137	11.91574
7910	2.11940	2.27441	1.87176	11.47614	11.08011	10.70848	6.87839	5.09693	3.56299	9.60194	9.43205	9.12487	3.12662	2.78575	2.51239	15.25881	13.44800	11.91355
8080	2.12032	2.27446	1.87100	11.47818	11.08167	10.71018	6.87632	5.09879	3.56296	9.60364	9.43069	9.12678	3.12660	2.78470	2.51351	15.26820	13.45005	11.91646
8240	2.11907	2.27246	1.87231	11.47831	11.08213	10.70860	6.87594	5.09820	3.55905	9.60260	9.43173	9.12680	3.12389	2.78238	2.51263	15.26395	13.44908	11.91365	34.77	6.1	0.00	-2.04	0.01729	0.01197	0.01515	0.01830	0.01892	0.01479	0.00545	0.01511	0.02001	0.01861	0.01290	0.01643	0.01702	0.01759	0.01374	0.00575	0.01616	0.02151
8410	2.11825	2.27594	1.86974	11.47687	11.08077	10.71015	6.87952	5.09633	3.56143	9.60337	9.43260	9.12724	3.12716	2.78345	2.51282	15.26565	13.45344	11.91795
8570	2.12021	2.27309	1.86876	11.47951	11.08235	10.70916	6.88460	5.09425	3.55591	9.60182	9.43154	9.12563	3.12656	2.78400	2.51103	15.26717	13.45416	11.92024
8740	2.12083	2.27406	1.87082	11.48158	11.08438	10.71090	6.87274	5.09648	3.55993	9.60350	9.43204	9.12712	3.12496	2.78365	2.51098	15.26565	13.45233	11.91608
8900	2.11844	2.27099	1.87001	11.47991	11.08207	10.70864	6.87985	5.09079	3.56023	9.60271	9.43173	9.12659	3.12132	2.78196	2.51222	15.26457	13.45096	11.91515
9070	2.11852	2.27099	1.86967	11.48075	11.08336	10.71197	6.87175	5.09407	3.55810	9.60182	9.43357	9.12747	3.12447	2.78327	2.51195	15.26395	13.44990	11.91729
9230	2.11631	2.26963	1.87014	11.47768	11.08109	10.70875	6.87490	5.09211	3.55459	9.60033	9.42992	9.12561	3.12456	2.78581	2.51404	15.26386	13.45381	11.91849
9400	2.12170	2.27285	1.87190	11.48140	11.08284	10.70933	6.87561	5.09452	3.55572	9.60156	9.43223	9.12644	3.12255	2.78245	2.51178	15.26645	13.45099	11.91768
9560	2.11736	2.27342	1.87051	11.48038	11.08332	10.71161	6.88554	5.09482	3.56023	9.60285	9.43307	9.12845	3.12174	2.78115	2.51156	15.26654	13.45094	11.91816
9730	2.11817	2.27338	1.87133	11.48243	11.08511	10.71377	6.87622	5.09374	3.56118	9.60478	9.43465	9.12999	3.12590	2.78481	2.51206	15.26314	13.45277	11.92112
9900	2.11821	2.27167	1.86752	11.47918	11.08146	10.70946	6.86224	5.08933	3.55671	9.60239	9.43222	9.12787	3.12768	2.78536	2.51666	15.26264	13.45609	11.92184	34.77	6.1	0.00	-2.04	0.01729	0.01197	0.01515	0.01830	0.01892	0.01479	0.00545	0.01511	0.02001	0.01861	0.01290	0.01644	0.01702	0.01759	0.01374	0.00575	0.01616	0.02151
10060	2.12083	2.27157	1.86799	11.48368	11.08402	10.71456	6.86920	5.09498	3.55836	9.60485	9.43377	9.12943	3.12488	2.78190	2.51289	15.26175	13.45332	11.92008
10220	2.11895	2.27224	1.87003	11.48056	11.08344	10.71332	6.87145	5.09205	3.55698	9.60633	9.43461	9.12961	3.12282	2.78321	2.51136	15.25799	13.45223	11.91914
10390	2.11698	2.27374	1.87094	11.48436	11.08547	10.71662	6.87696	5.09802	3.56262	9.60798	9.43563	9.13113	3.12859	2.78408	2.51183	15.26380	13.45820	11.92243
10550	2.11774	2.27186	1.86892	11.48094	11.08362	10.71390	6.87221	5.09436	3.55652	9.60433	9.43360	9.12867	3.12125	2.77872	2.51152	15.26353	13.45290	11.91890
10720	2.11916	2.26852	1.86650	11.47906	11.08407	10.71242	6.87578	5.09353	3.55755	9.60418	9.43308	9.12848	3.12354	2.78035	2.51172	15.25924	13.45456	11.91951
10880	2.11725	2.27093	1.86764	11.48113	11.08341	10.71405	6.87216	5.09230	3.55303	9.60401	9.43367	9.12903	3.12402	2.78306	2.51109	15.26318	13.45565	11.92195
11050	2.11800	2.27108	1.87051	11.48488	11.08545	10.71435	6.87432	5.09349	3.55685	9.60561	9.43442	9.13113	3.12208	2.77981	2.50897	15.26380	13.45570	11.92163
11210	2.11466	2.27169	1.87126	11.48108	11.08530	10.71613	6.87202	5.09662	3.56161	9.60777	9.43787	9.13249	3.12405	2.78132	2.51107	15.26434	13.45532	11.92190
11380	2.11738	2.27138	1.86892	11.48373	11.08554	10.71467	6.88039	5.09635	3.55960	9.60676	9.43619	9.13213	3.12308	2.78312	2.51043	15.26774	13.45359	11.92250
11550	2.11593	2.27033	1.86799	11.48264	11.08513	10.71612	6.87246	5.08856	3.55739	9.60562	9.43426	9.13110	3.12412	2.78362	2.51557	15.26738	13.45660	11.92481	34.77	6.1	0.00	-2.04	0.01728	0.01197	0.01515	0.01830	0.01892	0.01479	0.00545	0.01511	0.02001	0.01861	0.01290	0.01643	0.01702	0.01759	0.01374	0.00575	0.01616	0.02151
11710	2.11784	2.27115	1.86865	11.48528	11.08717	10.71683	6.87316	5.09474	3.55777	9.60811	9.43586	9.13234	3.12291	2.78206	2.51246	15.26335	13.45251	11.92072
11880	2.11836	2.27311	1.87079	11.48649	11.08913	10.71874	6.88003	5.09869	3.56197	9.60869	9.44000	9.13343	3.12624	2.78357	2.51365	15.26595	13.45894	11.92466
12040	2.11832	2.27069	1.87082	11.48468	11.08731	10.71520	6.87537	5.09326	3.55832	9.60707	9.43728	9.13154	3.12534	2.78124	2.50954	15.26425	13.45539	11.92169
12210	2.11573	2.26815	1.86620	11.48306	11.08527	10.71306	6.87406	5.08821	3.55260	9.60652	9.43422	9.12925	3.12376	2.78228	2.51389	15.26282	13.45678	11.92352
12370	2.11736	2.27090	1.86845	11.48341	11.08488	10.71540	6.87208	5.09312	3.55720	9.60640	9.43586	9.13070	3.12194	2.77780	2.50989	15.25505	13.45033	11.91891
12540	2.11620	2.27446	1.86905	11.48476	11.08619	10.71677	6.87660	5.09550	3.55965	9.60889	9.43816	9.13225	3.12550	2.78116	2.51248	15.26309	13.45460	11.92280
12700	2.11768	2.26870	1.87030	11.48251	11.08527	10.71396	6.87354	5.08780	3.55397	9.60595	9.43629	9.13148	3.12620	2.78555	2.51510	15.26496	13.45693	11.92537
12870	2.12090	2.27363	1.87094	11.48523	11.08813	10.71776	6.87561	5.09024	3.55779	9.60894	9.43877	9.13524	3.12313	2.78166	2.50972	15.25862	13.45564	11.92275
13030	2.11733	2.27299	1.87058	11.48428	11.08533	10.71574	6.87594	5.09101	3.55353	9.60813	9.43779	9.13258	3.11947	2.77761	2.51040	15.25549	13.45355	11.92274
13200	2.11658	2.27294	1.86973	11.48282	11.08739	10.71634	6.87751	5.09192	3.55601	9.60683	9.43737	9.13252	3.11936	2.77621	2.50679	15.26240	13.45233	11.92084	34.77	6.1	0.00	-2.04	0.01728	0.01197	0.01515	0.01830	0.01892	0.01479	0.00545	0.01511	0.02001	0.01861	0.01290	0.01643	0.01702	0.01759	0.01374	0.00575	0.01616	0.02151
13360	2.11292	2.26919	1.86683	11.48164	11.08501	10.71441	6.87347	5.09237	3.55266	9.60608	9.43479	9.13090	3.11981	2.78131	2.50881	15.26401	13.45394	11.92256
13530	2.11632	2.27052	1.86720	11.48467	11.08472	10.71390	6.86660	5.08843	3.55382	9.60708	9.43573	9.13095	3.12327	2.78339	2.51322	15.26517	13.46195	11.92723
13690	2.11874	2.27392	1.86933	11.48924	11.09057	10.71868	6.87521	5.09387	3.55794	9.61136	9.44086	9.13469	3.12364	2.78254	2.50984	15.26589	13.46053	11.92678
13860	2.11809	2.26938	1.86720	11.48714	11.08805	10.71705	6.87116	5.09075	3.55475	9.60844	9.43867	9.13374	3.11951	2.77801	2.50734	15.26035	13.45607	11.92355
14020	2.11357	2.27029	1.86704	11.48369	11.08685	10.71653	6.87135	5.09251	3.55718	9.61073	9.44020	9.13540	3.12116	2.78082	2.50804	15.26366	13.45731	11.92293
14190	2.11418	2.26818	1.86368	11.48479	11.08553	10.71647	6.87252	5.08574	3.55153	9.60833	9.43636	9.13353	3.12182	2.78135	2.51021	15.26866	13.45897	11.92789
14350	2.11796	2.27041	1.86809	11.48689	11.08991	10.71919	6.88297	5.09250	3.55622	9.60969	9.44102	9.13522	3.12105	2.78136	2.50897	15.27555	13.45863	11.92516
14520	2.11488	2.26901	1.86656	11.48646	11.08884	10.71731	6.87591	5.08995	3.55415	9.60918	9.43748	9.13363	3.11906	2.77837	2.50666	15.25847	13.45523	11.92322
14680	2.11613	2.26921	1.86806	11.48584	11.08778	10.72029	6.87370	5.08945	3.55539	9.61043	9.44192	9.13693	3.12285	2.77850	2.50930	15.26661	13.45875	11.92637
14850	2.11337	2.26898	1.86570	11.48471	11.08532	10.71815	6.87201	5.08376	3.54989	9.60747	9.43798	9.13369	3.12099	2.77970	2.50924	15.26680	13.46261	11.92789	34.77	6.0	0.00	-2.04	0.01728	0.01197	0.01515	0.01830	0.01892	0.01479	0.00545	0.01510	0.02001	0.01861	0.01290	0.01643	0.01702	0.01759	0.01374	0.00575	0.01616	0.02151
15010	2.11695	2.27120	1.86646	11.48883	11.08765	10.72010	6.87558	5.08750	3.55418	9.61229	9.43985	9.13534	3.11990	2.77924	2.50735	15.26725	13.45837	11.92703
15180	2.11563	2.27124	1.86836	11.48599	11.08757	10.72024	6.86378	5.09133	3.55459	9.61200	9.43910	9.13653	3.12014	2.77848	2.50603	15.26438	13.45901	11.92521
15340	2.11569	2.27081	1.87032	11.48708	11.08822	10.72204	6.86999	5.09057	3.55667	9.61519	9.43903	9.13778	3.12206	2.78095	2.50767	15.26841	13.46077	11.92790
15510	2.11505	2.26870	1.86520	11.48656	11.08541	10.71932	6.87173	5.08847	3.55376	9.61094	9.43791	9.13558	3.11951	2.77802	2.50547	15.27181	13.45956	11.92430
15670	2.11389	2.26841	1.86413	11.48299	11.08404	10.71864	6.85734	5.08747	3.55348	9.61079	9.43897	9.13502	3.11906	2.77920	2.50912	15.26608	13.46040	11.92808
15840	2.11457	2.26766	1.86733	11.48326	11.08527	10.72048	6.87290	5.08788	3.55431	9.61285	9.43936	9.13618	3.11974	2.78034	2.51140	15.27234	13.46338	11.92843
16000	2.11695	2.27183	1.86799	11.48669	11.08773	10.72198	6.86355	5.08960	3.55267	9.61456	9.44098	9.13697	3.12183	2.77947	2.50988	15.26653	13.46114	11.92826
16170	2.11440	2.27087	1.86702	11.48286	11.08602	10.71947	6.86999	5.09200	3.55280	9.61410	9.44028	9.13710	3.12075	2.77865	2.50758	15.26519	13.46283	11.92849
16330	2.11464	2.26986	1.86460	11.48379	11.08438	10.71480	6.87102	5.08563	3.55029	9.60889	9.43597	9.13309	3.12027	2.77728	2.50670	15.26751	13.46154	11.92823
16500	2.11553	2.27035	1.86674	11.48475	11.08673	10.71874	6.86078	5.09045	3.55336	9.61155	9.43832	9.13478	3.12060	2.77488	2.50742	15.26619	13.46014	11.92460	34.83	6.0	0.00	-2.04	0.01728	0.01197	0.01515	0.01830	0.01892	0.01479	0.00545	0.01510	0.02001	0.01861	0.01290	0.01643	0.01702	0.01759	0.01374	0.00575	0.01616	0.02151
16660	2.11122	2.27017	1.86582	11.48331	11.08493	10.71819	6.87121	5.08739	3.55411	9.61230	9.43987	9.13633	3.12096	2.77849	2.51033	15.26780	13.45861	11.92617
16820	2.11423	2.26726	1.86327	11.48403	11.08539	10.71703	6.86703	5.08603	3.55061	9.60896	9.43765	9.13428	3.11875	2.77765	2.50617	15.26458	13.45930	11.92535
16990	2.11465	2.26926	1.86533	11.48270	11.08513	10.71737	6.86679	5.08824	3.55163	9.60925	9.43791	9.13375	3.11683	2.77427	2.50407	15.26601	13.45744	11.92318
17150	2.11331	2.26944	1.86733	11.48486	11.08511	10.71737	6.87023	5.08779	3.55346	9.61023	9.43838	9.13488	3.11750	2.77721	2.50606	15.26055	13.45642	11.92186
17320	2.11125	2.26653	1.86461	11.48075	11.08276	10.71448	6.87441	5.08742	3.55295	9.60871	9.43441	9.13191	3.11977	2.77846	2.50562	15.26252	13.45697	11.92490
17480	2.11439	2.26763	1.86483	11.48276	11.08476	10.71435	6.86031	5.08827	3.55269	9.60935	9.43746	9.13312	3.11847	2.77794	2.50441	15.26458	13.45404	11.91997
17650	2.11473	2.27244	1.86866	11.48525	11.08785	10.71885	6.86839	5.08948	3.55679	9.61298	9.43898	9.13674	3.12173	2.77926	2.51068	15.27209	13.46168	11.92680
17810	2.11456	2.26831	1.86773	11.48405	11.08516	10.71604	6.86792	5.08819	3.55056	9.60947	9.43633	9.13357	3.11696	2.77721	2.50429	15.27254	13.45613	11.92365
17980	2.11157	2.26849	1.86606	11.48296	11.08470	10.71624	6.86900	5.08935	3.55267	9.60950	9.43677	9.13289	3.11783	2.77431	2.50580	15.26252	13.45662	11.92270
18140	2.11355	2.26557	1.86458	11.48276	11.08548	10.71702	6.87409	5.08821	3.55204	9.60957	9.43758	9.13548	3.11720	2.77736	2.50488	15.26500	13.45636	11.92063	34.77	6.0	0.00	-2.04	0.01728	0.01197	0.01515	0.01830	0.01892	0.01479	0.00545	0.01510	0.02000	0.01861	0.01290	0.01643	0.01702	0.01759	0.01374	0.00575	0.01616	0.02151
18310	2.11359	2.26874	1.86670	11.48377	11.08698	10.71668	6.86742	5.08820	3.55440	9.61036	9.43825	9.13461	3.12045	2.77930	2.50773	15.26750	13.45713	11.92140
18470	2.11419	2.26715	1.86348	11.48086	11.08288	10.71284	6.86582	5.08268	3.55005	9.60601	9.43469	9.13083	3.11711	2.77620	2.50673	15.26589	13.45437	11.92083
18640	2.11256	2.26655	1.86547	11.48251	11.08366	10.71362	6.88125	5.08737	3.55213	9.60721	9.43489	9.13337	3.11895	2.77851	2.50615	15.25999	13.45571	11.92224
18810	2.11491	2.26631	1.86536	11.48387	11.08448	10.71477	6.86977	5.08924	3.55109	9.60699	9.43469	9.13305	3.12080	2.78165	2.50981	15.26884	13.46038	11.92481
18970	2.11604	2.27048	1.86787	11.48776	11.08754	10.71737	6.87405	5.09070	3.55270	9.61032	9.43901	9.13458	3.11815	2.77780	2.50529	15.26437	13.45735	11.92226
19140	2.11467	2.26751	1.86397	11.48351	11.08371	10.71344	6.87353	5.08542	3.55145	9.60870	9.43586	9.13169	3.11585	2.77564	2.50406	15.26804	13.45430	11.91976
19300	2.10978	2.26612	1.86563	11.48371	11.08356	10.71636	6.87146	5.08763	3.55238	9.61014	9.43799	9.13501	3.11984	2.77728	2.50742	15.26517	13.45542	11.92096
19470	2.11094	2.26444	1.86338	11.48369	11.08276	10.71419	6.86074	5.08488	3.55023	9.60825	9.43515	9.13236	3.12142	2.77809	2.50896	15.26598	13.45792	11.92585
19630	2.11476	2.26693	1.86651	11.48614	11.08794	10.71754	6.86868	5.08396	3.55286	9.61158	9.43920	9.13723	3.12070	2.77583	2.50778	15.26991	13.45760	11.92359
19800	2.11129	2.26569	1.86413	11.48424	11.08429	10.71707	6.85443	5.08333	3.54797	9.61089	9.43683	9.13567	3.11545	2.77461	2.50266	15.26011	13.45561	11.92103	34.77	6.0	0.00	-2.04	0.01728	0.01197	0.01515	0.01830	0.01892	0.01479	0.00545	0.01510	0.02000	0.01861	0.01290	0.01643	0.01702	0.01759	0.01374	0.00575	0.01616	0.02151
19960	2.11063	2.26535	1.86429	11.48478	11.08697	10.71782	6.86670	5.08745	3.55028	9.61254	9.43966	9.13706	3.11812	2.77648	2.50301	15.26207	13.45720	11.92440
20130	2.11089	2.26369	1.86086	11.48408	11.08316	10.71446	6.86012	5.08181	3.54648	9.60875	9.43526	9.13260	3.11909	2.77743	2.50954	15.27012	13.45879	11.92560
20290	2.11336	2.26823	1.86514	11.48646	11.08640	10.71690	6.86876	5.08493	3.55036	9.61188	9.43938	9.13601	3.11699	2.77495	2.50501	15.26547	13.46057	11.92490
20460	2.10943	2.26751	1.86328	11.48594	11.08601	10.71653	6.85796	5.08696	3.55281	9.61103	9.43778	9.13583	3.11688	2.77458	2.50574	15.26323	13.45723	11.92252
20620	2.11306	2.26896	1.86697	11.48776	11.08809	10.71851	6.85951	5.08521	3.55213	9.61259	9.44071	9.13849	3.11612	2.77573	2.50499	15.26967	13.45876	11.92592
20790	2.11238	2.26530	1.86325	11.48594	11.08534	10.71593	6.85852	5.07880	3.54748	9.61133	9.43676	9.13398	3.11701	2.77775	2.50535	15.27083	13.46219	11.92742
20950	2.11470	2.26885	1.86474	11.48946	11.08830	10.71907	6.85838	5.08801	3.54988	9.61176	9.43888	9.13437	3.11563	2.77564	2.50549	15.26887	13.45847	11.92497
21120	2.11049	2.26663	1.86395	11.48706	11.08695	10.71656	6.86618	5.08438	3.55116	9.61024	9.43821	9.13642	3.11772	2.77710	2.50612	15.26547	13.45983	11.92548
21280	2.11503	2.26871	1.86632	11.48789	11.08859	10.71917	6.86402	5.09099	3.55108	9.61278	9.44112	9.13804	3.11644	2.77506	2.50482	15.26654	13.46028	11.92601
21450	2.11217	2.26823	1.86581	11.48733	11.09050	10.72138	6.86638	5.08763	3.55416	9.61551	9.44297	9.13992	3.11880	2.77623	2.50450	15.26541	13.46265	11.92790	34.77	6.2	0.00	-2.04	0.01728	0.01197	0.01515	0.01830	0.01892	0.01479	0.00545	0.01510	0.02000	0.01861	0.01290	0.01643	0.01702	0.01759	0.01374	0.00575	0.01616	0.02151
21610	2.11115	2.26675	1.86418	11.48796	11.08827	10.71780	6.86958	5.08300	3.54597	9.61159	9.43972	9.13708	3.11710	2.77782	2.50648	15.26577	13.46168	11.92863
21780	2.11557	2.26888	1.86558	11.48988	11.08933	10.72001	6.86920	5.08583	3.55076	9.61326	9.44358	9.13989	3.11342	2.77437	2.50252	15.26819	13.46002	11.92652
21940	2.11007	2.26447	1.86540	11.48711	11.08989	10.71988	6.86765	5.08726	3.55039	9.61500	9.44231	9.13945	3.11490	2.77330	2.50379	15.26658	13.46061	11.92520
22100	2.11189	2.26237	1.86304	11.48588	11.08641	10.71682	6.86488	5.08258	3.54599	9.61176	9.44214	9.13764	3.11459	2.77279	2.50349	15.26890	13.46146	11.92660
22270	2.11105	2.26653	1.86259	11.48756	11.08875	10.71885	6.86906	5.08042	3.54988	9.61491	9.44201	9.13901	3.11289	2.77400	2.50351	15.26854	13.46059	11.92660
22430	2.11073	2.26485	1.86479	11.48800	11.08797	10.72091	6.86690	5.08302	3.54675	9.61378	9.44196	9.13980	3.11529	2.77385	2.50475	15.26837	13.46228	11.92640
22600	2.11005	2.26491	1.86318	11.48833	11.08857	10.71883	6.86366	5.08339	3.54858	9.61423	9.44192	9.13946	3.11737	2.77397	2.50389	15.26801	13.46094	11.92784
22760	2.11303	2.26697	1.86402	11.48933	11.08956	10.72069	6.87320	5.08475	3.55004	9.61491	9.44302	9.14206	3.11150	2.77284	2.50228	15.26470	13.45868	11.92497
22930	2.11377	2.26688	1.86662	11.49133	11.09267	10.72307	6.86714	5.08783	3.55077	9.61812	9.44616	9.14315	3.11638	2.77535	2.50513	15.27642	13.46312	11.92936
23090	2.11269	2.26484	1.86316	11.49151	11.09177	10.72179	6.85763	5.07991	3.54545	9.61625	9.44317	9.13971	3.11638	2.77759	2.50968	15.27306	13.46748	11.93266	34.83	6.1	0.00	-2.04	0.01728	0.01197	0.01515	0.01830	0.01892	0.01479	0.00545	0.01510	0.02000	0.01861	0.01290	0.01643	0.01702	0.01759	0.01374	0.00575	0.01616	0.02151
23260	2.11451	2.26663	1.86750	11.49211	11.09371	10.72293	6.85407	5.08245	3.55122	9.61762	9.44559	9.14367	3.11443	2.77552	2.50288	15.26957	13.46388	11.92975
23420	2.11157	2.26353	1.86478	11.49177	11.09254	10.72340	6.86261	5.08304	3.54877	9.61769	9.44376	9.14158	3.11416	2.77395	2.50313	15.27377	13.46284	11.92839
23590	2.11192	2.26472	1.86530	11.49067	11.09292	10.72274	6.85731	5.08313	3.54754	9.61743	9.44499	9.14145	3.11611	2.77522	2.50360	15.26751	13.45904	11.92878
23750	2.11320	2.26672	1.86348	11.49042	11.09154	10.71937	6.86492	5.08363	3.54665	9.61711	9.44436	9.14075	3.11439	2.77436	2.50619	15.26769	13.46056	11.92826
23920	2.11209	2.26737	1.86265	11.49054	11.09212	10.72128	6.87018	5.08333	3.54699	9.61732	9.44356	9.14181	3.11731	2.77672	2.50688	15.27368	13.46604	11.93175
24080	2.11517	2.26783	1.86778	11.49418	11.09652	10.72649	6.87192	5.08728	3.54980	9.62002	9.44589	9.14576	3.11866	2.77722	2.50378	15.27368	13.46348	11.93203
24250	2.11187	2.26515	1.86245	11.49323	11.09275	10.72167	6.86172	5.08110	3.54532	9.61736	9.44442	9.14452	3.11376	2.77417	2.50143	15.27002	13.46212	11.92838
24410	2.10948	2.26172	1.85995	11.49101	11.09291	10.72102	6.86238	5.07872	3.54658	9.61754	9.44302	9.14158	3.11483	2.77529	2.50417	15.26698	13.46733	11.93343
24580	2.11259	2.26675	1.86420	11.49581	11.09780	10.72458	6.86097	5.08653	3.54824	9.61987	9.44733	9.14440	3.11449	2.77312	2.50310	15.26653	13.46252	11.93036
24740	2.11062	2.26469	1.86552	11.49319	11.09564	10.72427	6.87947	5.08445	3.55058	9.62162	9.44851	9.14571	3.11545	2.77259	2.50384	15.27239	13.46530	11.93213	34.83	6.2	0.00	-2.04	0.01728	0.01197	0.01515	0.01830	0.01892	0.01479	0.00545	0.01510	0.02000	0.01861	0.01290	0.01643	0.01702	0.01759	0.01374	0.00575	0.01616	0.02151
24900	2.10821	2.26371	1.86237	11.49577	11.09688	10.72346	6.85793	5.08094	3.54571	9.61793	9.44597	9.14334	3.11868	2.77504	2.50432	15.27338	13.46635	11.93197
25070	2.11169	2.26498	1.86322	11.49455	11.09588	10.72425	6.86413	5.08267	3.54860	9.61867	9.44605	9.14446	3.11314	2.76989	2.50238	15.26274	13.46037	11.92800
25230	2.10632	2.25961	1.85928	11.49117	11.09184	10.72121	6.84868	5.07659	3.54408	9.61559	9.44334	9.14133	3.11719	2.77764	2.50814	15.27356	13.46568	11.93520
25400	2.11181	2.26837	1.86183	11.49709	11.09844	10.72502	6.86677	5.07943	3.54924	9.62165	9.44832	9.14606	3.11658	2.77728	2.50487	15.26864	13.46610	11.93138
25560	2.11101	2.26388	1.86317	11.49314	11.09545	10.72339	6.86592	5.07861	3.54478	9.61836	9.44773	9.14456	3.11345	2.77356	2.50419	15.27374	13.46352	11.93173
25730	2.11083	2.26461	1.86235	11.49459	11.09584	10.72487	6.86465	5.08104	3.54667	9.62026	9.44763	9.14419	3.11486	2.77435	2.50263	15.27401	13.46521	11.93221
25890	2.11059	2.26410	1.86067	11.49444	11.09730	10.72378	6.86404	5.08067	3.54520	9.62045	9.44638	9.14500	3.11319	2.77274	2.50660	15.27257	13.46791	11.93312
26060	2.11183	2.26583	1.86333	11.49636	11.09751	10.72642	6.86409	5.08254	3.54902	9.62058	9.45053	9.14565	3.11363	2.77182	2.50388	15.27588	13.46548	11.93146
26220	2.11170	2.26686	1.86481	11.49657	11.09987	10.72746	6.86940	5.08532	3.54896	9.62228	9.44944	9.14623	3.11640	2.77368	2.50611	15.27061	13.46727	11.93218
26390	2.11294	2.26381	1.86102	11.49405	11.09556	10.72207	6.85662	5.07860	3.54200	9.61803	9.44498	9.14421	3.11693	2.77869	2.50597	15.27256	13.46817	11.93500	34.83	6.1	0.00	-2.04	0.01728	0.01197	0.01515	0.01830	0.01892	0.01479	0.00545	0.01510	0.02000	0.01861	0.01290	0.01643	0.01702	0.01759	0.01374	0.00575	0.01616	0.02151
26550	2.11413	2.26750	1.86291	11.49679	11.09713	10.72515	6.85859	5.08352	3.54759	9.62098	9.44818	9.14556	3.11736	2.77537	2.50421	15.26916	13.46393	11.92988
26720	2.11082	2.26527	1.86443	11.49442	11.09573	10.72440	6.85248	5.08402	3.54745	9.61967	9.44706	9.14508	3.11672	2.77622	2.50574	15.27918	13.46758	11.93452
26880	2.11161	2.26460	1.86404	11.49631	11.09829	10.72479	6.86446	5.08000	3.54862	9.62157	9.44941	9.14718	3.11516	2.77471	2.50217	15.27444	13.46534	11.93229
27050	2.10965	2.26355	1.86548	11.49552	11.09909	10.72582	6.86122	5.08674	3.54914	9.62202	9.44801	9.14707	3.11679	2.77548	2.50487	15.27453	13.46507	11.93214
27210	2.11338	2.26506	1.86264	11.49412	11.09716	10.72325	6.85751	5.08303	3.54498	9.62010	9.44818	9.14394	3.11426	2.77285	2.50315	15.27605	13.46624	11.93228
27380	2.11251	2.26575	1.86361	11.49649	11.09871	10.72351	6.86667	5.08519	3.54695	9.62035	9.44778	9.14674	3.11482	2.77245	2.50032	15.27524	13.45991	11.92871
27540	2.10838	2.26230	1.86067	11.49107	11.09634	10.72554	6.86583	5.08160	3.54752	9.62090	9.44752	9.14582	3.11379	2.77385	2.50132	15.27238	13.46115	11.92907
27700	2.10962	2.26255	1.86015	11.49310	11.09622	10.72291	6.85986	5.07849	3.54397	9.61909	9.44763	9.14497	3.11279	2.77207	2.50134	15.27014	13.46051	11.92864
27870	2.11098	2.26576	1.86514	11.49747	11.10203	10.72841	6.87114	5.08698	3.54929	9.62355	9.45195	9.14887	3.11830	2.77190	2.50458	15.27587	13.46755	11.93432
28030	2.11067	2.26500	1.86312	11.49774	11.09801	10.72491	6.86061	5.07869	3.54599	9.61862	9.44588	9.14521	3.11508	2.77250	2.50323	15.27210	13.46598	11.93508	34.83	6.1	0.00	-2.04	0.01728	0.01197	0.01515	0.01830	0.01892	0.01479	0.00545	0.01510	0.02000	0.01861	0.01290	0.01643	0.01702	0.01759	0.01374	0.00575	0.01616	0.02151
28200	2.10979	2.26424	1.86157	11.49816	11.10010	10.72750	6.86799	5.08073	3.54466	9.61985	9.44927	9.14661	3.11283	2.77191	2.50184	15.26637	13.46354	11.93041
28360	2.10848	2.26308	1.86198	11.49730	11.09847	10.72491	6.85845	5.08098	3.54330	9.62027	9.44711	9.14627	3.11417	2.76960	2.50427	15.27004	13.46513	11.93235
28520	2.11084	2.26108	1.86254	11.49652	11.09911	10.72351	6.85929	5.07914	3.54606	9.61941	9.44800	9.14742	3.11175	2.77167	2.50228	15.27595	13.46533	11.93399
28690	2.10766	2.26665	1.86410	11.49767	11.09959	10.72701	6.86371	5.08095	3.54679	9.62168	9.44825	9.14755	3.11438	2.77265	2.50271	15.27067	13.46523	11.93305
28850	2.10918	2.26499	1.86428	11.49876	11.10017	10.72703	6.87175	5.08149	3.54595	9.62266	9.45067	9.14953	3.11363	2.77294	2.50271	15.27979	13.46841	11.93458
29020	2.10895	2.26414	1.86221	11.49720	11.09902	10.72459	6.86211	5.07958	3.54498	9.61990	9.44733	9.14613	3.11446	2.77259	2.50635	15.27541	13.46724	11.93478
29190	2.10967	2.26586	1.86322	11.49981	11.10158	10.72881	6.85361	5.08736	3.54739	9.62283	9.45078	9.14719	3.11474	2.77392	2.50209	15.27666	13.46620	11.93383
29350	2.10922	2.26506	1.86310	11.49962	11.10138	10.72765	6.85868	5.08265	3.54977	9.62387	9.45036	9.14890	3.11313	2.77478	2.50542	15.27183	13.46627	11.93153
29520	2.11425	2.26897	1.86805	11.49582	11.09911	10.72564	6.87345	5.09097	3.55787	9.62303	9.44910	9.14781	3.12204	2.78225	2.50973	15.27085	13.46416	11.93071
29680	2.12238	2.28096	1.88201	11.48722	11.08971	10.71595	6.88133	5.10813	3.57110	9.61514	9.44148	9.14038	3.13629	2.79235	2.52145	15.25585	13.45510	11.92225	34.83	6.1	0.00	-2.04	0.01729	0.01198	0.01516	0.01829	0.01891	0.01479	0.00545	0.01511	0.02002	0.01860	0.01289	0.01643	0.01703	0.01760	0.01375	0.00575	0.01615	0.02150
29850	2.12416	2.28033	1.87603	11.48475	11.08781	10.71677	6.88119	5.10704	3.56662	9.61585	9.44127	9.14016	3.13295	2.79111	2.52185	15.26256	13.45480	11.92263
30010	2.12645	2.28101	1.87943	11.48393	11.08777	10.71672	6.89023	5.11584	3.57676	9.61438	9.44036	9.13853	3.14553	2.79520	2.52319	15.25844	13.45721	11.92693
30160	2.12479	2.26897	1.86408	11.49586	11.09989	10.72806	6.85024	5.06523	3.52124	9.62034	9.45922	9.15452	3.08274	2.72884	2.45693	15.28664	13.48650	11.95905
30330	2.06531	2.21614	1.81537	11.53598	11.12928	10.75691	6.76967	4.99163	3.46606	9.64027	9.47763	9.17305	3.02615	2.68896	2.42338	15.31986	13.51391	11.97871
30500	2.04312	2.20159	1.80531	11.55669	11.15178	10.77202	6.76344	4.98785	3.46247	9.65402	9.49055	9.18434	3.03401	2.69426	2.43327	15.33057	13.52502	11.98376
30680	2.06719	2.22838	1.84031	11.54492	11.13804	10.75754	6.84053	5.08156	3.56219	9.64175	9.46753	9.15772	3.17833	2.83284	2.56445	15.29399	13.47330	11.94490
30830	2.16559	2.31407	1.90991	11.50288	11.10931	10.73685	6.93132	5.12837	3.57270	9.63077	9.45971	9.15955	3.13545	2.77400	2.49897	15.29157	13.48884	11.95979
30980	2.09604	2.24006	1.83206	11.53942	11.13515	10.76469	6.78461	5.01768	3.48218	9.65004	9.48593	9.18182	3.05932	2.71001	2.44108	15.32850	13.52605	11.98863
31150	2.05491	2.21216	1.81424	11.55785	11.14874	10.77059	6.77935	5.01470	3.48850	9.64946	9.48082	9.17304	3.06885	2.74267	2.48429	15.29650	13.48909	11.95135
31310	2.11200	2.27147	1.87381	11.50729	11.10587	10.73187	6.90003	5.12385	3.58809	9.62628	9.45018	9.14787	3.16743	2.81286	2.54655	15.25998	13.46288	11.93207	34.83	6.7	0.00	-2.04	0.01730	0.01198	0.01517	0.01828	0.01891	0.01478	0.00546	0.01513	0.02003	0.01860	0.01289	0.01643	0.01704	0.01761	0.01376	0.00575	0.01615	0.02150
31450	2.13720	2.27911	1.87431	11.50112	11.10418	10.73366	6.85709	5.07003	3.52422	9.62109	9.46048	9.16180	3.08300	2.72085	2.44933	15.30040	13.49803	11.96906
31610	2.04941	2.20035	1.79969	11.54693	11.14238	10.76596	6.75874	4.97626	3.45642	9.64784	9.48206	9.17401	3.03667	2.70580	2.44390	15.30283	13.49414	11.95448
31780	2.06888	2.23493	1.84454	11.51268	11.11313	10.73632	6.84584	5.08048	3.56347	9.63163	9.45182	9.15229	3.16432	2.81655	2.56127	15.27063	13.46548	11.93400
31920	2.16102	2.30877	1.90599	11.49427	11.09956	10.72984	6.92044	5.12664	3.57202	9.62409	9.45123	9.15223	3.13147	2.77285	2.49974	15.28165	13.47925	11.94929
32070	2.09697	2.24077	1.83952	11.52195	11.12552	10.75214	6.81820	5.03214	3.49332	9.63797	9.47371	9.17307	3.06720	2.71353	2.44625	15.30867	13.51216	11.97772
32230	2.05087	2.20238	1.80291	11.55655	11.15228	10.77310	6.74519	4.98055	3.45505	9.65360	9.48885	9.18441	3.03401	2.70289	2.43983	15.31532	13.51024	11.97107
32400	2.06368	2.22587	1.83229	11.53081	11.12670	10.74781	6.83072	5.05928	3.53530	9.63096	9.46196	9.15740	3.12014	2.78021	2.51825	15.27923	13.47575	11.94190
32550	2.12607	2.28059	1.87728	11.50903	11.10857	10.73817	6.88319	5.09957	3.55022	9.62702	9.46104	9.15904	3.11275	2.75496	2.48263	15.28667	13.48993	11.96267
32700	2.07905	2.22509	1.82187	11.54537	11.14143	10.76247	6.77360	4.99254	3.45632	9.64467	9.48924	9.18394	3.03124	2.68829	2.42184	15.32369	13.52328	11.99116
32870	2.04818	2.20856	1.81418	11.55918	11.14616	10.76140	6.76597	5.01379	3.49479	9.63828	9.47311	9.16428	3.08667	2.75810	2.49537	15.29006	13.48914	11.95853	34.77	6.0	0.00	-2.04	0.01731	0.01199	0.01518	0.01828	0.01890	0.01478	0.00546	0.01514	0.02005	0.01859	0.01289	0.01642	0.01705	0.01762	0.01377	0.00574	0.01614	0.02149
33030	2.11623	2.27313	1.87916	11.51781	11.11665	10.74068	6.88034	5.10796	3.56855	9.62899	9.45960	9.15640	3.14673	2.79827	2.52774	15.26854	13.47095	11.94071
33180	2.13245	2.27882	1.87708	11.50937	11.10728	10.73476	6.87119	5.08302	3.53515	9.62322	9.46387	9.15876	3.09881	2.74041	2.46906	15.28566	13.49143	11.96403
33340	2.07383	2.22314	1.82315	11.54806	11.14169	10.76123	6.78042	5.00177	3.46921	9.64287	9.48539	9.17773	3.03497	2.69683	2.43203	15.31396	13.51156	11.97823
33520	2.05356	2.21647	1.82001	11.55471	11.14449	10.75749	6.79093	5.02335	3.50098	9.63737	9.47323	9.16598	3.09406	2.76515	2.50568	15.29383	13.49081	11.95764
33680	2.12412	2.28307	1.88408	11.52008	11.11534	10.74230	6.90455	5.12939	3.59126	9.63001	9.46217	9.15902	3.16261	2.80426	2.53174	15.27705	13.47543	11.94740
33830	2.12748	2.27505	1.86902	11.51951	11.11843	10.74426	6.85521	5.06663	3.52671	9.63244	9.47135	9.16760	3.09511	2.73848	2.47137	15.29832	13.50123	11.97048
33990	2.07640	2.22650	1.82772	11.55375	11.14523	10.76382	6.80098	5.01519	3.47960	9.64711	9.48897	9.18357	3.05263	2.70487	2.43584	15.32800	13.51842	11.98522
34160	2.05262	2.21131	1.81333	11.56329	11.15258	10.76661	6.78339	5.00637	3.48329	9.64793	9.48599	9.17620	3.06200	2.73288	2.47123	15.30820	13.50188	11.96529
34320	2.09299	2.25536	1.85612	11.53104	11.12369	10.74616	6.86120	5.08362	3.54759	9.63376	9.46404	9.16279	3.12576	2.78032	2.51267	15.27992	13.47963	11.94702
34470	2.12303	2.27364	1.87248	11.51399	11.10854	10.73353	6.87362	5.08685	3.54242	9.62529	9.46383	9.16318	3.10523	2.74754	2.47508	15.27901	13.48794	11.96011	34.77	6.5	0.00	-2.04	0.01732	0.01200	0.01518	0.01827	0.01890	0.01477	0.00547	0.01515	0.02006	0.01859	0.01289	0.01642	0.01706	0.01763	0.01378	0.00574	0.01613	0.02148
34630	2.07241	2.22342	1.82014	11.54615	11.14219	10.76191	6.77792	4.99354	3.46503	9.64851	9.49046	9.18472	3.03797	2.69953	2.43393	15.31054	13.51116	11.97945
34810	2.05189	2.21651	1.81649	11.55894	11.15014	10.76385	6.77708	5.01699	3.49441	9.64447	9.47885	9.16903	3.09520	2.76434	2.50876	15.29463	13.49447	11.96083
34970	2.12633	2.28697	1.88951	11.52483	11.12096	10.74493	6.91256	5.13301	3.59278	9.63545	9.46308	9.16111	3.16811	2.81528	2.54042	15.27417	13.47820	11.94868
35120	2.13616	2.28365	1.87884	11.51836	11.11665	10.74380	6.88028	5.09058	3.54203	9.63422	9.47271	9.17209	3.10457	2.74584	2.47491	15.29975	13.50180	11.97226
35280	2.07762	2.22613	1.82635	11.55881	11.15415	10.77243	6.78930	5.00390	3.46904	9.65561	9.49887	9.19391	3.03966	2.70194	2.43599	15.32630	13.52293	11.98751
35450	2.05704	2.22576	1.82991	11.55918	11.15202	10.76755	6.81081	5.04921	3.53371	9.64832	9.48029	9.17223	3.12581	2.79624	2.53578	15.28556	13.48430	11.95116
35610	2.14911	2.30696	1.90471	11.51196	11.11085	10.73819	6.92796	5.14285	3.59975	9.62815	9.45908	9.16022	3.16808	2.80647	2.53617	15.26853	13.47385	11.94900
35760	2.12314	2.26650	1.86023	11.52888	11.12729	10.75385	6.83819	5.05073	3.50579	9.63957	9.48404	9.17865	3.07182	2.71464	2.44662	15.31423	13.51720	11.98814
35920	2.05346	2.20688	1.80842	11.57358	11.16619	10.77919	6.75793	4.99392	3.47352	9.65585	9.49083	9.18340	3.06024	2.73038	2.47755	15.31045	13.49487	11.95836
36080	2.11023	2.28207	1.89249	11.52132	11.11842	10.74046	6.93026	5.15698	3.61154	9.62980	9.46242	9.15718	3.18357	2.82230	2.54922	15.27366	13.47574	11.94918	34.77	6.3	0.00	-2.04	0.01731	0.01199	0.01518	0.01828	0.01890	0.01478	0.00546	0.01514	0.02005	0.01859	0.01289	0.01642	0.01705	0.01762	0.01377	0.00574	0.01614	0.02149
36220	2.13964	2.28115	1.87371	11.52531	11.12353	10.75129	6.85160	5.06385	3.51916	9.63376	9.47861	9.17702	3.07968	2.71617	2.44462	15.30894	13.51794	11.98861
36390	2.04771	2.20052	1.80300	11.57812	11.16881	10.78298	6.75837	4.98180	3.46181	9.65859	9.49846	9.19008	3.04506	2.71169	2.45553	15.30750	13.50458	11.96704
36550	2.09037	2.25710	1.86329	11.52593	11.11931	10.74063	6.87958	5.10770	3.57243	9.62578	9.45832	9.15184	3.15666	2.80712	2.54329	15.26184	13.46806	11.94199
36700	2.14469	2.29143	1.88640	11.50666	11.10618	10.73461	6.88691	5.10396	3.55425	9.62551	9.46094	9.16112	3.12101	2.76415	2.49213	15.27626	13.48109	11.95491
36860	2.09425	2.24592	1.84284	11.52911	11.12570	10.74808	6.82169	5.04605	3.51384	9.63467	9.47088	9.16479	3.09071	2.74764	2.48018	15.27823	13.48358	11.95092
37020	2.09458	2.25210	1.85460	11.51668	11.11225	10.73696	6.86214	5.08175	3.55255	9.62212	9.45444	9.15005	3.13595	2.79866	2.53820	15.25728	13.45745	11.92800
37180	2.14030	2.29115	1.88918	11.49404	11.09342	10.72049	6.89969	5.11501	3.57243	9.61692	9.45074	9.14880	3.14211	2.78773	2.51990	15.25755	13.45901	11.93098
37340	2.12137	2.27555	1.87644	11.49551	11.09589	10.72248	6.88296	5.10146	3.56756	9.61576	9.45001	9.14715	3.14359	2.79595	2.52405	15.25022	13.45467	11.92676
37500	2.12867	2.28325	1.88120	11.49431	11.09698	10.72383	6.88489	5.10726	3.57018	9.61744	9.45352	9.14725	3.14249	2.79616	2.52654	15.26175	13.45810	11.93074
37660	2.12252	2.27748	1.87685	11.50309	11.10355	10.73033	6.87597	5.09950	3.56415	9.62228	9.45835	9.15282	3.13152	2.78612	2.51659	15.26752	13.46622	11.93830	34.77	6.2	0.00	-2.04	0.01730	0.01198	0.01516	0.01828	0.01891	0.01478	0.00546	0.01512	0.02003	0.01860	0.01289	0.01643	0.01704	0.01760	0.01376	0.00575	0.01615	0.02150
37830	2.12215	2.27681	1.87586	11.50493	11.10472	10.73176	6.87273	5.09904	3.56315	9.62366	9.46057	9.15597	3.13636	2.79490	2.52460	15.27253	13.47521	11.94761
37990	2.12666	2.28274	1.88034	11.51323	11.11250	10.73724	6.88006	5.10262	3.56744	9.62836	9.46523	9.16108	3.13437	2.79222	2.51998	15.28543	13.47268	11.94564
38160	2.12521	2.28264	1.87990	11.51647	11.11601	10.74192	6.89714	5.10814	3.57050	9.63162	9.46820	9.16351	3.13570	2.79022	2.52307	15.27835	13.47872	11.94773
38320	2.12717	2.28078	1.87872	11.51662	11.11544	10.73829	6.87198	5.10114	3.56607	9.62897	9.46672	9.16222	3.13329	2.78885	2.51933	15.27504	13.47558	11.94888
38480	2.12515	2.27946	1.87900	11.52131	11.11711	10.74017	6.88669	5.09960	3.56903	9.62944	9.46743	9.16140	3.13615	2.79472	2.52473	15.27567	13.47815	11.95195
38650	2.12633	2.27972	1.88000	11.52488	11.12380	10.74335	6.88561	5.10670	3.56965	9.63330	9.46989	9.16455	3.13371	2.79164	2.52033	15.26833	13.47715	11.95117
38810	2.12474	2.27952	1.88147	11.52421	11.12547	10.74544	6.88166	5.10820	3.57328	9.63446	9.47518	9.16908	3.13798	2.79288	2.52398	15.28167	13.48180	11.95481
38980	2.12670	2.28249	1.87922	11.52811	11.12459	10.74596	6.88806	5.10367	3.56804	9.63424	9.47226	9.16707	3.13701	2.79619	2.52652	15.27988	13.48603	11.95723
39140	2.13012	2.28003	1.87962	11.53284	11.12882	10.74811	6.89093	5.10354	3.56922	9.63697	9.47466	9.17014	3.13690	2.79231	2.51971	15.28176	13.48439	11.95736
39310	2.12103	2.27278	1.87455	11.53327	11.12941	10.75095	6.88241	5.09680	3.55863	9.63688	9.47630	9.17075	3.12370	2.78264	2.51258	15.28314	13.48745	11.95999	34.77	6.1	0.00	-2.04	0.01729	0.01198	0.01516	0.01829	0.01892	0.01479	0.00545	0.01511	0.02001	0.01860	0.01290	0.01643	0.01702	0.01759	0.01375	0.00575	0.01616	0.02151
39470	2.11892	2.27451	1.87398	11.53293	11.13001	10.75052	6.87206	5.09672	3.55869	9.63785	9.47587	9.17105	3.12651	2.78322	2.51318	15.28888	13.48718	11.95849
39640	2.12029	2.27351	1.87357	11.53131	11.12712	10.74757	6.87671	5.09422	3.55830	9.63770	9.47421	9.16845	3.12824	2.78833	2.51590	15.28368	13.48773	11.95872
39800	2.12144	2.27626	1.87511	11.53283	11.12752	10.74954	6.87356	5.09907	3.55911	9.63985	9.47610	9.17236	3.12432	2.78557	2.51414	15.27983	13.48773	11.95981
39970	2.12066	2.27423	1.87295	11.53077	11.12678	10.74866	6.87511	5.09905	3.55815	9.63977	9.47537	9.17118	3.12599	2.78390	2.51371	15.28583	13.48345	11.95616
40140	2.12147	2.27351	1.87507	11.52886	11.12863	10.74813	6.87671	5.09605	3.56236	9.64040	9.47445	9.17148	3.12498	2.78484	2.51299	15.28279	13.48273	11.95386
40300	2.11982	2.27324	1.87183	11.52603	11.12438	10.74561	6.87794	5.09054	3.55626	9.63767	9.47190	9.16790	3.12774	2.78427	2.51285	15.28888	13.48477	11.95641
40470	2.12178	2.27524	1.87486	11.52780	11.12445	10.74572	6.87502	5.09608	3.55949	9.63829	9.47258	9.16940	3.12525	2.78372	2.51372	15.28798	13.48432	11.95377
40630	2.11923	2.27472	1.87408	11.52697	11.12498	10.74587	6.87831	5.09624	3.55912	9.63944	9.47537	9.17015	3.12638	2.78118	2.51241	15.28431	13.48091	11.95317
40800	2.12182	2.27623	1.87420	11.52933	11.12799	10.75104	6.88081	5.10048	3.56185	9.64362	9.47767	9.17392	3.12850	2.78630	2.51511	15.29076	13.48808	11.95590
40960	2.11691	2.26814	1.86844	11.52922	11.12737	10.74871	6.86899	5.08824	3.55236	9.64088	9.47715	9.17229	3.12003	2.77789	2.50716	15.28461	13.48418	11.95443	34.77	6.2	0.00	-2.04	0.01728	0.01197	0.01515	0.01829	0.01892	0.01479	0.00545	0.01510	0.02000	0.01861	0.01290	0.01643	0.01701	0.01758	0.01374	0.00575	0.01616	0.02151
41130	2.11354	2.26975	1.87023	11.52357	11.12459	10.74931	6.86579	5.08916	3.55289	9.64199	9.47468	9.17227	3.12136	2.77774	2.50861	15.29330	13.48761	11.95565
41290	2.11508	2.26652	1.86939	11.52258	11.12365	10.74739	6.86936	5.08607	3.55412	9.63946	9.47356	9.17061	3.12019	2.77898	2.50824	15.28712	13.48796	11.95747
41460	2.11307	2.26768	1.86910	11.52437	11.12533	10.74826	6.87143	5.08854	3.55468	9.64054	9.47352	9.16980	3.11802	2.77707	2.50771	15.28165	13.48358	11.95303
41620	2.11289	2.26840	1.86953	11.52353	11.12496	10.74786	6.87139	5.09028	3.55410	9.64132	9.47386	9.17123	3.12083	2.77859	2.50766	15.28282	13.48323	11.95206
41790	2.11418	2.26669	1.86824	11.52233	11.12134	10.74535	6.86659	5.08580	3.54957	9.63722	9.46920	9.16691	3.12093	2.77676	2.50845	15.28416	13.48552	11.95476
41950	2.11578	2.26962	1.87016	11.52280	11.12251	10.74506	6.86819	5.08734	3.55331	9.64001	9.47051	9.16927	3.11732	2.77791	2.50511	15.28837	13.48313	11.95358
42110	2.11518	2.26770	1.86748	11.52310	11.12473	10.74811	6.86960	5.08938	3.55538	9.64046	9.47210	9.17029	3.12063	2.77768	2.50707	15.28506	13.48450	11.95464
42280	2.11276	2.26533	1.86616	11.52236	11.12242	10.74662	6.86400	5.08433	3.54791	9.63780	9.46959	9.16844	3.11841	2.77822	2.50806	15.28712	13.48885	11.95699
42440	2.11481	2.26794	1.86771	11.52425	11.12360	10.74593	6.86824	5.08846	3.55143	9.64021	9.47029	9.16988	3.11770	2.77532	2.50380	15.28353	13.48328	11.95321
42610	2.11057	2.26526	1.86456	11.52711	11.12743	10.75229	6.86532	5.08283	3.54767	9.64426	9.47517	9.17343	3.11538	2.77299	2.50299	15.28668	13.49028	11.95730	34.83	6.2	0.00	-2.04	0.01727	0.01197	0.01515	0.01830	0.01892	0.01479	0.00545	0.01509	0.01999	0.01861	0.01290	0.01644	0.01701	0.01758	0.01373	0.00575	0.01616	0.02152
42770	2.11031	2.26455	1.86293	11.52398	11.12205	10.74810	6.85118	5.07944	3.54513	9.64029	9.47147	9.16949	3.11436	2.77443	2.50592	15.28883	13.48953	11.95929
42940	2.11111	2.26462	1.86519	11.52483	11.12443	10.74919	6.87421	5.08462	3.54781	9.64099	9.47250	9.17011	3.11395	2.77054	2.50224	15.28757	13.48756	11.95558
43100	2.11186	2.26733	1.86663	11.52418	11.12581	10.75088	6.87492	5.08634	3.54955	9.64311	9.47618	9.17243	3.11812	2.77445	2.50292	15.29573	13.49264	11.95947
43270	2.10903	2.26521	1.86307	11.52371	11.12381	10.74731	6.86095	5.08165	3.54661	9.63980	9.47063	9.16851	3.11577	2.77492	2.50782	15.28999	13.49296	11.95951
43430	2.11240	2.26489	1.86611	11.52459	11.12540	10.74872	6.86396	5.08303	3.54648	9.64157	9.47356	9.17011	3.11410	2.77256	2.50057	15.29322	13.48737	11.95567
43600	2.10933	2.26263	1.86546	11.52103	11.12291	10.74755	6.85338	5.07915	3.54738	9.64141	9.46988	9.17093	3.11223	2.77440	2.50218	15.29421	13.48998	11.95721
43760	2.11119	2.26571	1.86541	11.52175	11.12282	10.74793	6.87247	5.08452	3.54592	9.64033	9.47124	9.16838	3.11367	2.77183	2.50111	15.28623	13.48505	11.95317
43930	2.10947	2.26277	1.86538	11.52006	11.12281	10.74731	6.86894	5.08410	3.54947	9.64097	9.47165	9.17047	3.11556	2.76970	2.50301	15.28722	13.48493	11.95401
44090	2.11122	2.26361	1.86386	11.52006	11.12259	10.74522	6.86189	5.07992	3.54322	9.64040	9.47036	9.16794	3.11293	2.77313	2.50366	15.29259	13.48779	11.95695
44260	2.10798	2.26402	1.86488	11.52399	11.12555	10.75000	6.85871	5.07927	3.54645	9.64281	9.47427	9.17071	3.11291	2.76931	2.49962	15.28535	13.48766	11.95654	34.83	6.1	0.00	-2.04	0.01727	0.01196	0.01514	0.01830	0.01893	0.01480	0.00544	0.01509	0.01999	0.01861	0.01290	0.01644	0.01700	0.01757	0.01373	0.00575	0.01617	0.02152
44420	2.10490	2.26128	1.86176	11.52210	11.12414	10.74935	6.86172	5.07834	3.54298	9.64322	9.47264	9.17067	3.11192	2.77132	2.49840	15.29342	13.48726	11.95640
44590	2.10802	2.26086	1.86148	11.52411	11.12667	10.75185	6.86511	5.07845	3.54212	9.64581	9.47465	9.17371	3.11179	2.77257	2.50259	15.29234	13.48883	11.95848
44750	2.10514	2.26071	1.85964	11.52142	11.12376	10.75130	6.85383	5.07009	3.54320	9.64445	9.47433	9.17323	3.11070	2.77237	2.50208	15.28831	13.49301	11.96209
44920	2.10936	2.26293	1.86338	11.52590	11.12886	10.75337	6.86074	5.07592	3.54316	9.64698	9.47588	9.17470	3.10884	2.77095	2.49833	15.29315	13.49271	11.95996
45080	2.10723	2.26280	1.86124	11.52774	11.12940	10.75292	6.85900	5.07779	3.54424	9.64803	9.47584	9.17633	3.11007	2.76799	2.49582	15.29350	13.49169	11.95964
45250	2.10762	2.26164	1.86131	11.52692	11.12977	10.75600	6.86483	5.08231	3.54527	9.64850	9.47820	9.17617	3.11184	2.77376	2.49754	15.29422	13.49261	11.96044
45410	2.10744	2.26073	1.86127	11.52418	11.12854	10.75234	6.85754	5.07634	3.54354	9.64602	9.47534	9.17502	3.11093	2.77419	2.50200	15.29610	13.49500	11.96553
45580	2.10939	2.26455	1.86516	11.52833	11.13218	10.75800	6.85148	5.07629	3.54362	9.65168	9.47831	9.17812	3.11222	2.76946	2.50068	15.29503	13.49256	11.96233
45740	2.10811	2.26018	1.86319	11.52530	11.12780	10.75608	6.84833	5.07827	3.54205	9.64973	9.47796	9.17803	3.10851	2.76845	2.49699	15.29530	13.49266	11.96053
45910	2.10606	2.26106	1.86320	11.52872	11.13230	10.75961	6.86065	5.08032	3.54277	9.65368	9.47966	9.18063	3.11107	2.76895	2.49729	15.29706	13.49751	11.96509	34.83	6.2	0.00	-2.04	0.01727	0.01196	0.01514	0.01830	0.01893	0.01480	0.00544	0.01509	0.01998	0.01861	0.01290	0.01644	0.01700	0.01757	0.01373	0.00575	0.01617	0.02152
46070	2.10393	2.25459	1.85980	11.52726	11.12969	10.75670	6.85031	5.07266	3.53948	9.65076	9.47708	9.17834	3.11056	2.76989	2.49755	15.30118	13.49552	11.96337
46240	2.10463	2.25731	1.85804	11.52783	11.12999	10.75707	6.85726	5.07417	3.53820	9.65245	9.47809	9.17968	3.11282	2.77139	2.50119	15.30289	13.49888	11.96854
46400	2.10747	2.26129	1.86224	11.53004	11.13461	10.76149	6.85872	5.07595	3.54073	9.65544	9.48131	9.18268	3.10967	2.76915	2.49841	15.30100	13.49878	11.96679
46570	2.10700	2.26001	1.86147	11.52775	11.13076	10.75948	6.84796	5.07636	3.53987	9.65499	9.47848	9.18118	3.10747	2.76598	2.49511	15.29795	13.49863	11.96539
46730	2.10289	2.25653	1.85880	11.52591	11.12817	10.75564	6.85129	5.07435	3.53777	9.64859	9.47674	9.17657	3.10479	2.76421	2.49228	15.29374	13.49560	11.96236
46890	2.10242	2.25676	1.85976	11.52462	11.12766	10.75517	6.85580	5.07257	3.53790	9.65127	9.47640	9.17846	3.10691	2.76680	2.49609	15.29527	13.49358	11.96218
47060	2.10590	2.25562	1.85997	11.52539	11.12736	10.75671	6.84321	5.06984	3.53653	9.65133	9.47702	9.17869	3.10741	2.76930	2.49688	15.29285	13.49751	11.96620
47220	2.10806	2.26033	1.86215	11.52911	11.13174	10.75969	6.85844	5.07884	3.54139	9.65423	9.47882	9.18163	3.10687	2.76581	2.49528	15.29706	13.49525	11.96465
47390	2.10852	2.26296	1.86374	11.52880	11.13245	10.76065	6.85416	5.07587	3.54138	9.65543	9.47968	9.18160	3.10917	2.76650	2.49949	15.30289	13.49585	11.96519
47550	2.10560	2.25616	1.85833	11.52820	11.13028	10.75846	6.85571	5.06898	3.53563	9.65403	9.47966	9.18056	3.10430	2.76662	2.49493	15.29350	13.49607	11.96642	34.77	6.1	0.00	-2.04	0.01727	0.01196	0.01514	0.01830	0.01893	0.01480	0.00544	0.01508	0.01998	0.01861	0.01290	0.01644	0.01700	0.01757	0.01373	0.00576	0.01617	0.02152
47710	2.10146	2.25597	1.85870	11.52536	11.12982	10.75718	6.85176	5.06734	3.53526	9.65117	9.47806	9.17956	3.10366	2.76244	2.49263	15.29816	13.49398	11.96247
47880	2.10113	2.25458	1.85575	11.52298	11.12645	10.75468	6.85848	5.06830	3.53391	9.64940	9.47511	9.17626	3.10657	2.76614	2.49776	15.29269	13.49313	11.96349
48040	2.10362	2.25671	1.86042	11.52496	11.12789	10.75631	6.85519	5.07397	3.53635	9.65027	9.47745	9.17884	3.10373	2.75986	2.49298	15.29995	13.49102	11.96016
48210	2.10354	2.25885	1.86070	11.52539	11.12963	10.75866	6.85519	5.07269	3.53959	9.65338	9.47893	9.18091	3.10856	2.76642	2.49370	15.29403	13.49221	11.96312
48370	2.10195	2.25430	1.85886	11.52526	11.12729	10.75468	6.84588	5.06861	3.53559	9.64899	9.47529	9.17762	3.10579	2.76584	2.49624	15.29574	13.49433	11.96574
48540	2.10435	2.25949	1.85926	11.52635	11.13062	10.75746	6.84405	5.07155	3.53840	9.65068	9.47722	9.17837	3.10463	2.76543	2.49428	15.29368	13.49072	11.96203
48700	2.10307	2.25916	1.85927	11.52375	11.12945	10.75881	6.85500	5.07476	3.53690	9.65326	9.48089	9.18053	3.10379	2.76229	2.49297	15.29197	13.49104	11.96212
48870	2.10152	2.25687	1.86057	11.52759	11.13119	10.76173	6.84964	5.07374	3.54098	9.65339	9.48115	9.18093	3.10682	2.76492	2.49492	15.29565	13.49380	11.96259
49040	2.10211	2.25667	1.85844	11.52556	11.12843	10.75776	6.84485	5.06681	3.53540	9.65026	9.47745	9.17805	3.10238	2.76400	2.49109	15.28562	13.49122	11.96094
49200	2.10009	2.25574	1.85477	11.52591	11.13002	10.75881	6.85054	5.07089	3.53414	9.65122	9.47954	9.18151	3.10483	2.76357	2.49468	15.29448	13.49612	11.96539	34.83	6.0	0.00	-2.04	0.01726	0.01196	0.01514	0.01830	0.01893	0.01480	0.00544	0.01508	0.01998	0.01861	0.01290	0.01644	0.01699	0.01757	0.01372	0.00576	0.01617	0.02152
49370	2.10314	2.25773	1.85803	11.52855	11.13204	10.76090	6.84641	5.07139	3.53739	9.65392	9.48019	9.18248	3.10444	2.76373	2.49162	15.28759	13.49438	11.96378
49530	2.10117	2.25668	1.85752	11.52776	11.13034	10.75964	6.85628	5.07034	3.53642	9.65257	9.48248	9.17983	3.10656	2.76939	2.49740	15.29305	13.49763	11.96791
49700	2.10491	2.25856	1.85918	11.52987	11.13537	10.76116	6.84589	5.06856	3.53969	9.65407	9.48345	9.18277	3.10740	2.76755	2.49597	15.29386	13.49311	11.96463
49860	2.10422	2.25526	1.85850	11.52781	11.13155	10.76028	6.84871	5.06888	3.53409	9.65206	9.48072	9.18127	3.10091	2.76178	2.49004	15.29395	13.49132	11.96104
50030	2.10215	2.25948	1.86033	11.52730	11.13224	10.76206	6.84918	5.07505	3.53646	9.65396	9.48208	9.18386	3.10530	2.76148	2.49448	15.29404	13.49515	11.96416
50190	2.10147	2.25713	1.85768	11.52643	11.12950	10.75608	6.84453	5.06600	3.53242	9.65120	9.47864	9.17906	3.10246	2.76191	2.49012	15.29108	13.48940	11.96170
50360	2.10008	2.25398	1.85512	11.52447	11.12717	10.75535	6.84415	5.06491	3.53234	9.64810	9.47813	9.17833	3.10464	2.76206	2.49261	15.29502	13.49234	11.96377
50520	2.09978	2.25570	1.85726	11.52681	11.12956	10.75715	6.83734	5.07098	3.53578	9.64948	9.47828	9.17818	3.10266	2.76184	2.49093	15.29547	13.48890	11.96055
50690	2.10406	2.25729	1.85757	11.52686	11.13192	10.75898	6.85515	5.07133	3.53825	9.65207	9.47956	9.18009	3.10531	2.76206	2.49487	15.28965	13.49142	11.96393
50850	2.10022	2.25574	1.85505	11.52501	11.12887	10.75645	6.83964	5.06664	3.53174	9.64980	9.47656	9.17716	3.10337	2.76366	2.49398	15.29392	13.49370	11.96593	34.83	6.1	0.00	-2.04	0.01726	0.01196	0.01514	0.01830	0.01893	0.01480	0.00544	0.01508	0.01997	0.01861	0.01290	0.01644	0.01699	0.01756	0.01372	0.00576	0.01617	0.02152
51020	2.10336	2.25641	1.85961	11.52824	11.13055	10.75842	6.85238	5.06698	3.53313	9.65134	9.47785	9.17955	3.10360	2.75908	2.49216	15.29723	13.49049	11.96148
51180	2.09714	2.25401	1.85616	11.52487	11.12868	10.75699	6.84321	5.06528	3.53111	9.65025	9.47733	9.17681	3.10092	2.76222	2.48922	15.28890	13.49004	11.95885
51350	2.10113	2.25461	1.85601	11.52441	11.13007	10.75882	6.84246	5.06419	3.53500	9.65179	9.47954	9.17896	3.09985	2.76010	2.48965	15.29499	13.49104	11.96192
51510	2.10127	2.25493	1.85652	11.52630	11.12973	10.75767	6.84166	5.06617	3.53141	9.65130	9.47911	9.18002	3.09970	2.76057	2.49246	15.29069	13.49405	11.96426
51680	2.10017	2.25594	1.85875	11.52802	11.13155	10.76045	6.84425	5.06713	3.53257	9.65110	9.48036	9.18036	3.10430	2.76632	2.49685	15.29562	13.49604	11.96823
51840	2.10281	2.25767	1.85852	11.53155	11.13542	10.76164	6.84096	5.06734	3.53696	9.65302	9.48191	9.18230	3.10339	2.76316	2.49093	15.29750	13.49606	11.96556
52010	2.09936	2.25200	1.85461	11.52867	11.13214	10.75897	6.84885	5.06548	3.53317	9.65131	9.48053	9.17924	3.10211	2.76132	2.48917	15.29248	13.48955	11.96257
52170	2.09987	2.25439	1.85550	11.52710	11.13175	10.75816	6.84491	5.06485	3.53134	9.65191	9.47903	9.18039	3.10065	2.76268	2.49121	15.29643	13.49308	11.96436
52340	2.09971	2.25278	1.85522	11.52737	11.13204	10.75931	6.84857	5.06621	3.53326	9.65121	9.47738	9.17928	3.10100	2.76079	2.49053	15.30297	13.49653	11.96518
52500	2.09923	2.25473	1.85594	11.52916	11.13198	10.76204	6.84509	5.06626	3.53149	9.65128	9.47995	9.18156	3.09885	2.75940	2.49084	15.30141	13.49645	11.96393	34.83	6.0	0.00	-2.04	0.01726	0.01196	0.01514	0.01830	0.01893	0.01480	0.00544	0.01508	0.01997	0.01861	0.01290	0.01644	0.01699	0.01756	0.01372	0.00576	0.01617	0.02152
52670	2.10167	2.25961	1.85814	11.52993	11.13510	10.76338	6.84425	5.06831	3.53456	9.65469	9.48405	9.18411	3.10292	2.76196	2.49107	15.29737	13.49986	11.96751
52830	2.10068	2.25600	1.85684	11.52916	11.13314	10.76118	6.83439	5.06627	3.52989	9.65168	9.47932	9.17926	3.10284	2.76471	2.49287	15.29692	13.50162	11.97024
53000	2.10252	2.25725	1.85888	11.53455	11.13576	10.76366	6.84434	5.06861	3.53538	9.65330	9.48287	9.18226	3.10236	2.75971	2.48879	15.29683	13.49777	11.96793
53160	2.09879	2.25326	1.85503	11.52933	11.13220	10.76069	6.84961	5.06328	3.53270	9.65247	9.47934	9.18028	3.10018	2.75779	2.48708	15.28591	13.49304	11.96517
53330	2.09808	2.25518	1.85624	11.53047	11.13399	10.76193	6.84322	5.06289	3.53226	9.65402	9.48128	9.18205	3.10092	2.76204	2.48880	15.29459	13.49468	11.96577
53490	2.09780	2.25107	1.85453	11.52814	11.13144	10.75988	6.84368	5.06477	3.53141	9.65243	9.48003	9.17937	3.10043	2.76248	2.49064	15.29441	13.49573	11.96874
53660	2.10027	2.25274	1.85364	11.53042	11.13239	10.76073	6.84307	5.06578	3.53244	9.65223	9.48068	9.18064	3.10085	2.75881	2.48648	15.29262	13.49565	11.96577
53820	2.10121	2.25443	1.85757	11.53246	11.13331	10.76374	6.84810	5.07077	3.53413	9.65558	9.48312	9.18376	3.10298	2.76444	2.49176	15.29934	13.49881	11.97069
53990	2.10150	2.25506	1.85622	11.53078	11.13209	10.76170	6.83565	5.06794	3.53118	9.65178	9.48229	9.18252	3.09856	2.75727	2.48894	15.30149	13.49555	11.96698
54150	2.10086	2.25403	1.85535	11.52994	11.13208	10.76278	6.84383	5.06426	3.53231	9.65360	9.48179	9.18216	3.09793	2.76136	2.48988	15.29793	13.49693	11.96738	34.83	6.0	0.00	-2.04	0.01726	0.01196	0.01514	0.01831	0.01893	0.01480	0.00544	0.01508	0.01997	0.01861	0.01290	0.01644	0.01699	0.01756	0.01372	0.00576	0.01617	0.02152
54320	2.09982	2.25271	1.85377	11.53130	11.13407	10.76338	6.84740	5.06511	3.53148	9.65413	9.48321	9.18182	3.10206	2.75975	2.49260	15.30170	13.49999	11.96946
54480	2.09967	2.25568	1.85666	11.53364	11.13472	10.76473	6.85337	5.06749	3.53344	9.65434	9.48312	9.18387	3.10184	2.76128	2.49059	15.29739	13.49932	11.96670
54650	2.09810	2.25328	1.85656	11.52966	11.13410	10.76370	6.84994	5.06631	3.53654	9.65492	9.48250	9.18313	3.10395	2.76147	2.48943	15.29668	13.49865	11.96806
54810	2.09958	2.25210	1.85467	11.53054	11.13239	10.76187	6.83871	5.06657	3.53186	9.65138	9.47962	9.18055	3.09855	2.75983	2.49132	15.29784	13.49934	11.96770
54980	2.09903	2.25262	1.85601	11.53041	11.13324	10.75963	6.83579	5.06535	3.53044	9.65172	9.47885	9.18056	3.09818	2.75870	2.48925	15.29784	13.49300	11.96296
55140	2.09627	2.25110	1.85488	11.52852	11.13242	10.76167	6.83509	5.06732	3.53276	9.65269	9.48168	9.18141	3.10099	2.75983	2.48612	15.29811	13.49499	11.96500
55300	2.09802	2.25103	1.85332	11.52951	11.13066	10.75687	6.84289	5.06051	3.52427	9.65043	9.47764	9.17826	3.09689	2.75694	2.48592	15.29497	13.49402	11.96498
55470	2.09693	2.25315	1.85475	11.52755	11.13151	10.76057	6.84364	5.06352	3.53208	9.64972	9.47786	9.18026	3.09838	2.75813	2.48883	15.29766	13.49377	11.96504
55630	2.09685	2.25101	1.85354	11.52798	11.13153	10.75922	6.85041	5.06585	3.53047	9.65189	9.47951	9.18081	3.09738	2.76078	2.49112	15.29533	13.49357	11.96519
55800	2.09624	2.25479	1.85135	11.52909	11.13147	10.75920	6.84190	5.05961	3.52985	9.65105	9.47921	9.17870	3.09749	2.75915	2.49030	15.30102	13.49699	11.96611	34.83	6.1	0.00	-2.04	0.01726	0.01196	0.01514	0.01831	0.01893	0.01480	0.00544	0.01508	0.01997	0.01861	0.01290	0.01644	0.01699	0.01756	0.01372	0.00576	0.01617	0.02152
55960	2.09655	2.25351	1.85549	11.53046	11.13423	10.75971	6.85074	5.06762	3.53266	9.65120	9.47977	9.17852	3.09925	2.75660	2.48721	15.28928	13.49319	11.96226
56130	2.10083	2.25475	1.85545	11.53250	11.13486	10.76110	6.84134	5.06380	3.53554	9.65375	9.48041	9.18239	3.10085	2.76354	2.49010	15.29528	13.49590	11.96469
56290	2.10054	2.25282	1.85340	11.53018	11.13249	10.76069	6.84420	5.06397	3.52976	9.65114	9.48054	9.18019	3.10002	2.75819	2.48772	15.29287	13.49480	11.96271
56460	2.09774	2.25300	1.85376	11.52972	11.13338	10.75982	6.84143	5.06191	3.53086	9.65181	9.47938	9.18070	3.09648	2.75751	2.48837	15.29430	13.49421	11.96359
56620	2.09819	2.25273	1.85574	11.52919	11.13332	10.76214	6.84289	5.06647	3.53287	9.65305	9.48101	9.17993	3.09647	2.75610	2.48649	15.29788	13.49510	11.96368
56790	2.09831	2.25336	1.85506	11.53408	11.13531	10.76182	6.84895	5.06779	3.53226	9.65261	9.48170	9.18175	3.10077	2.75955	2.48991	15.30075	13.49876	11.96665
56950	2.10050	2.25269	1.85396	11.53239	11.13281	10.75958	6.83579	5.06020	3.53075	9.65055	9.47782	9.17878	3.09594	2.75638	2.48533	15.29304	13.49122	11.96321
57120	2.09701	2.25187	1.85422	11.53008	11.13150	10.75909	6.83993	5.05861	3.52778	9.65031	9.47960	9.17952	3.09657	2.75933	2.48824	15.29609	13.49455	11.96694
57290	2.09993	2.25380	1.85401	11.53135	11.13372	10.75894	6.84138	5.05919	3.52653	9.65243	9.48159	9.18101	3.10006	2.76027	2.48985	15.29959	13.50117	11.96959
57450	2.10239	2.25601	1.85860	11.53487	11.13649	10.76266	6.84713	5.06647	3.53249	9.65336	9.47972	9.18113	3.09854	2.75772	2.48707	15.30139	13.49756	11.96720	34.83	6.1	0.00	-2.04	0.01726	0.01196	0.01514	0.01830	0.01893	0.01480	0.00544	0.01508	0.01997	0.01861	0.01290	0.01644	0.01699	0.01756	0.01372	0.00576	0.01617	0.02152
57620	2.09845	2.25224	1.85512	11.53306	11.13478	10.76123	6.84887	5.06419	3.52838	9.65165	9.48021	9.18104	3.09538	2.75446	2.48586	15.29673	13.49552	11.96578
57780	2.09777	2.24889	1.85453	11.53184	11.13469	10.76181	6.85160	5.06341	3.52962	9.65376	9.48053	9.18153	3.09632	2.75813	2.48626	15.29664	13.49416	11.96725
57950	2.09750	2.25104	1.85292	11.53239	11.13244	10.75814	6.84140	5.05944	3.52703	9.65060	9.47877	9.17760	3.09736	2.75812	2.49002	15.29109	13.49806	11.97022
58110	2.09912	2.25099	1.85552	11.53423	11.13560	10.76185	6.83534	5.06406	3.52938	9.65303	9.48175	9.18131	3.09706	2.75868	2.48732	15.29413	13.49707	11.96725
58280	2.09950	2.25190	1.85389	11.53162	11.13382	10.76053	6.83896	5.06161	3.52927	9.65212	9.48079	9.17999	3.09494	2.75350	2.48435	15.29602	13.49344	11.96550
58440	2.09690	2.25331	1.85392	11.53175	11.13614	10.76029	6.84812	5.06298	3.52997	9.65225	9.47971	9.18040	3.09762	2.75771	2.48752	15.29727	13.49819	11.96780
58610	2.09726	2.25175	1.85173	11.53062	11.13247	10.75858	6.84356	5.06036	3.52748	9.64912	9.47695	9.17895	3.09747	2.75828	2.48826	15.29449	13.49975	11.96900
58770	2.09824	2.25277	1.85422	11.53447	11.13603	10.76076	6.83614	5.06226	3.52953	9.65281	9.48281	9.18004	3.09793	2.75804	2.48535	15.29969	13.49764	11.96737
58940	2.09764	2.25178	1.85304	11.53237	11.13375	10.76095	6.83882	5.06036	3.52670	9.65237	9.48133	9.17969	3.09489	2.75334	2.48491	15.29602	13.49866	11.96714
59100	2.09932	2.25493	1.85576	11.53289	11.13668	10.76449	6.84641	5.06410	3.52871	9.65321	9.48268	9.18213	3.09659	2.75622	2.48566	15.30537	13.50045	11.96855	34.83	6.2	0.00	-2.04	0.01726	0.01196	0.01513	0.01831	0.01893	0.01480	0.00544	0.01508	0.01997	0.01861	0.01290	0.01644	0.01699	0.01756	0.01372	0.00576	0.01617	0.02152
59270	2.09775	2.24911	1.85134	11.53030	11.13232	10.76020	6.83007	5.06240	3.52755	9.65063	9.47942	9.17908	3.09586	2.75692	2.48589	15.30304	13.50289	11.97235
59430	2.09884	2.25378	1.85272	11.53423	11.13596	10.76168	6.83730	5.06243	3.52984	9.65270	9.48208	9.18107	3.09406	2.75434	2.48231	15.30403	13.49955	11.96783
59600	2.09573	2.25112	1.85291	11.53071	11.13344	10.76031	6.83800	5.06266	3.52666	9.65216	9.47978	9.17955	3.09784	2.75611	2.48820	15.30528	13.50000	11.97044
59760	2.09796	2.24912	1.85264	11.53130	11.13380	10.76373	6.84425	5.06080	3.53095	9.65402	9.48238	9.18190	3.09749	2.75505	2.48750	15.30465	13.49945	11.96854
59930	2.09718	2.25099	1.85211	11.53105	11.13417	10.76147	6.83556	5.06061	3.52783	9.65399	9.48248	9.18178	3.09460	2.75493	2.48760	15.30241	13.49861	11.96879
60090	2.09506	2.24685	1.84934	11.53008	11.13253	10.75910	6.83504	5.05792	3.52271	9.64956	9.47856	9.17910	3.09429	2.75363	2.48808	15.29560	13.49923	11.96989
60260	2.09482	2.24973	1.85060	11.53245	11.13369	10.76123	6.83373	5.06014	3.52546	9.65220	9.48072	9.17987	3.09283	2.75618	2.48561	15.29883	13.49508	11.96599
60420	2.09387	2.24564	1.85186	11.52931	11.13235	10.76176	6.83138	5.06197	3.52951	9.65213	9.48092	9.18176	3.09480	2.75452	2.48244	15.29694	13.49801	11.96590
60590	2.09470	2.24883	1.85154	11.52922	11.13009	10.75647	6.83983	5.05696	3.52111	9.64905	9.47825	9.17828	3.09184	2.75516	2.48665	15.29650	13.49746	11.96923
60750	2.09835	2.25297	1.85125	11.53121	11.13381	10.76176	6.83691	5.06073	3.52741	9.65157	9.48013	9.18094	3.09167	2.75381	2.48384	15.29462	13.49710	11.96737	34.77	6.1	0.00	-2.04	0.01726	0.01196	0.01513	0.01831	0.01893	0.01480	0.00544	0.01508	0.01997	0.01861	0.01290	0.01644	0.01699	0.01756	0.01372	0.00576	0.01617	0.02152
60920	2.09586	2.24845	1.85243	11.52860	11.13273	10.75942	6.83903	5.06288	3.52748	9.65084	9.47921	9.17969	3.09166	2.75257	2.48053	15.28943	13.49461	11.96481
61080	2.09482	2.24971	1.85254	11.53084	11.13368	10.76213	6.84438	5.05891	3.52998	9.65202	9.48075	9.17997	3.09553	2.75423	2.48563	15.28970	13.49372	11.96499
61250	2.09376	2.24483	1.84859	11.52754	11.13138	10.75841	6.84100	5.05559	3.52503	9.64973	9.47665	9.17848	3.09663	2.75766	2.49041	15.29158	13.49971	11.97042
61410	2.09695	2.25321	1.85330	11.53328	11.13523	10.76305	6.85491	5.06253	3.52661	9.65264	9.48047	9.18198	3.09493	2.75409	2.48554	15.29516	13.49670	11.96725
61580	2.09554	2.25070	1.85000	11.53025	11.13336	10.75986	6.84213	5.05983	3.52672	9.65165	9.47925	9.18116	3.09214	2.75282	2.48225	15.29346	13.49737	11.96662
61740	2.09572	2.24942	1.85447	11.53417	11.13629	10.76285	6.83922	5.06003	3.53017	9.65425	9.48172	9.18444	3.09596	2.75600	2.48264	15.29946	13.49887	11.96687
61910	2.09720	2.25044	1.85050	11.53347	11.13479	10.76095	6.83649	5.05775	3.52602	9.65229	9.47923	9.18154	3.09198	2.75312	2.48335	15.28925	13.49638	11.96577
62070	2.09532	2.24866	1.85166	11.53111	11.13401	10.75942	6.83250	5.05745	3.52300	9.64990	9.47878	9.18013	3.09248	2.75383	2.48219	15.29095	13.49479	11.96598
62240	2.09371	2.24977	1.85149	11.52962	11.13378	10.75991	6.84528	5.05791	3.52683	9.65103	9.47889	9.18110	3.09354	2.75318	2.48403	15.29543	13.49889	11.96677
62400	2.09556	2.25246	1.85381	11.53121	11.13370	10.76041	6.83968	5.06043	3.52568	9.65142	9.48103	9.18077	3.09235	2.75230	2.48149	15.30116	13.49696	11.96541	34.83	6.2	0.00	-2.04	0.01726	0.01196	0.01513	0.01831	0.01893	0.01480	0.00544	0.01508	0.01997	0.01861	0.01290	0.01644	0.01699	0.01756	0.01372	0.00576	0.01617	0.02152
62570	2.09519	2.25086	1.85270	11.53029	11.13345	10.76132	6.83230	5.06068	3.53033	9.65201	9.48066	9.18056	3.09535	2.75383	2.48359	15.29292	13.49648	11.96749
62730	2.09572	2.24957	1.84970	11.53088	11.13297	10.75968	6.84785	5.05529	3.52336	9.64883	9.47834	9.17722	3.09517	2.75441	2.48395	15.29498	13.49920	11.96894
62900	2.09643	2.24909	1.85121	11.53274	11.13533	10.76126	6.81884	5.05931	3.52624	9.65266	9.47898	9.18106	3.09355	2.74972	2.48091	15.29202	13.49715	11.96414
63060	2.09462	2.24822	1.85095	11.53013	11.13431	10.76124	6.82583	5.05396	3.52344	9.65185	9.47830	9.18079	3.09378	2.75079	2.48071	15.29113	13.49696	11.96464
63220	2.09207	2.24553	1.84739	11.52996	11.13095	10.75816	6.84015	5.05374	3.52077	9.64880	9.47637	9.17798	3.08937	2.75007	2.48137	15.29301	13.49643	11.96424
63390	2.09374	2.24602	1.84766	11.52817	11.13141	10.75699	6.83428	5.05643	3.52343	9.64692	9.47701	9.17784	3.09211	2.75196	2.48232	15.29337	13.49300	11.96446
63550	2.09414	2.24632	1.84947	11.52773	11.12970	10.75742	6.82606	5.05292	3.52130	9.64717	9.47533	9.17687	3.09331	2.75385	2.48602	15.29283	13.49713	11.96856
63720	2.09499	2.24939	1.85121	11.53138	11.13384	10.75923	6.83597	5.05522	3.52549	9.65082	9.47942	9.17910	3.09217	2.75190	2.48278	15.29256	13.49225	11.96414
63880	2.09291	2.24852	1.85172	11.52879	11.13175	10.75810	6.83352	5.05637	3.52378	9.64958	9.47896	9.17968	3.09225	2.75026	2.48203	15.29077	13.49119	11.96262
64050	2.09326	2.24743	1.85096	11.53018	11.13387	10.76022	6.82123	5.05807	3.52517	9.65113	9.48004	9.18101	3.09320	2.75263	2.48215	15.28751	13.49381	11.96288	34.83	6.2	0.00	-2.04	0.01726	0.01196	0.01513	0.01830	0.01893	0.01480	0.00544	0.01508	0.01997	0.01861	0.01290	0.01644	0.01699	0.01756	0.01372	0.00576	0.01617	0.02152
64210	2.09183	2.24975	1.84874	11.52632	11.12969	10.75477	6.82761	5.05135	3.52124	9.64863	9.47742	9.17670	3.09212	2.75270	2.48418	15.29011	13.49391	11.96460
64380	2.09568	2.24802	1.85166	11.52891	11.13214	10.75924	6.83409	5.05429	3.52101	9.65158	9.48026	9.18036	3.09112	2.74793	2.48424	15.28984	13.49040	11.96218
64540	2.09553	2.25088	1.85202	11.53236	11.13612	10.76306	6.84235	5.06078	3.52912	9.65434	9.48028	9.18241	3.09446	2.75227	2.48495	15.29853	13.49811	11.96718
64710	2.09418	2.25047	1.85089	11.53090	11.13309	10.75838	6.83371	5.05675	3.52368	9.65081	9.48021	9.18083	3.09055	2.75175	2.47992	15.29154	13.49112	11.96359
64870	2.09267	2.24415	1.84914	11.52645	11.12946	10.75462	6.82897	5.05399	3.51786	9.64824	9.47772	9.17766	3.09221	2.75215	2.48220	15.29324	13.49368	11.96386
65040	2.09388	2.24394	1.84897	11.52782	11.13130	10.75650	6.82648	5.05171	3.52141	9.64994	9.47809	9.17805	3.09306	2.75171	2.48158	15.29306	13.49259	11.96396
65200	2.09311	2.24838	1.85058	11.52903	11.13325	10.75917	6.83090	5.05509	3.52125	9.65119	9.47996	9.17937	3.09053	2.75202	2.48094	15.28903	13.49261	11.96386
65370	2.09275	2.24532	1.84907	11.52963	11.13437	10.76195	6.83160	5.05534	3.52338	9.65250	9.48045	9.18241	3.09253	2.75169	2.48258	15.28975	13.49644	11.96393
65530	2.09334	2.24453	1.84945	11.52886	11.13204	10.75789	6.82578	5.05271	3.51834	9.64867	9.47850	9.17972	3.09131	2.75289	2.48339	15.29620	13.49717	11.96757
65700	2.09430	2.24614	1.84739	11.53265	11.13498	10.76009	6.83941	5.05589	3.52430	9.65108	9.48020	9.18037	3.09158	2.75157	2.48249	15.29512	13.49214	11.96394	34.83	5.9	0.00	-2.04	0.01726	0.01196	0.01513	0.01831	0.01893	0.01480	0.00544	0.01508	0.01997	0.01861	0.01290	0.01644	0.01699	0.01756	0.01372	0.00576	0.01617	0.02152
65860	2.09033	2.24846	1.85093	11.52922	11.13335	10.76073	6.82791	5.05974	3.52632	9.65286	9.48050	9.18142	3.09509	2.75446	2.48274	15.29091	13.49497	11.96496
66030	2.09419	2.24683	1.84919	11.53034	11.13301	10.75738	6.83697	5.05274	3.52062	9.64812	9.47775	9.17684	3.09274	2.75154	2.48339	15.29073	13.49525	11.96635
66190	2.09339	2.24862	1.85025	11.53051	11.13321	10.75764	6.82946	5.05580	3.52297	9.64898	9.47616	9.17767	3.08890	2.74813	2.48121	15.28947	13.49239	11.96143
66350	2.09316	2.24668	1.84952	11.52977	11.13224	10.75858	6.83546	5.05612	3.52053	9.65056	9.47695	9.17854	3.09265	2.75055	2.48235	15.29055	13.49018	11.96302
66520	2.09224	2.24294	1.84791	11.52641	11.12911	10.75416	6.83377	5.05475	3.51752	9.64816	9.47689	9.17755	3.08829	2.74825	2.47738	15.29001	13.49318	11.96397
66680	2.09020	2.24491	1.84761	11.52733	11.13029	10.75773	6.83711	5.05107	3.52031	9.64919	9.47667	9.17845	3.08851	2.75025	2.47868	15.29521	13.49450	11.96288
66850	2.09007	2.24412	1.84787	11.52780	11.13236	10.75760	6.83462	5.05585	3.52261	9.64997	9.47813	9.18009	3.09055	2.74905	2.48195	15.28849	13.49517	11.96327
67010	2.09117	2.24549	1.84521	11.52740	11.12963	10.75734	6.82561	5.05236	3.51967	9.64928	9.47508	9.17795	3.08858	2.75100	2.48058	15.29010	13.49251	11.96115
67180	2.09131	2.24894	1.84876	11.52922	11.13202	10.75826	6.83039	5.05568	3.52017	9.65080	9.47659	9.17943	3.08909	2.74883	2.47689	15.29324	13.48985	11.96077
67340	2.09353	2.24830	1.85022	11.53011	11.13327	10.75870	6.83526	5.05275	3.52267	9.65084	9.47982	9.18102	3.09099	2.75082	2.48122	15.29767	13.49504	11.96434	34.83	6.1	0.00	-2.04	0.01726	0.01196	0.01513	0.01830	0.01893	0.01480	0.00544	0.01508	0.01997	0.01861	0.01290	0.01644	0.01699	0.01756	0.01372	0.00576	0.01617	0.02152
67510	2.09227	2.24511	1.84962	11.52663	11.12946	10.75564	6.82011	5.05067	3.52135	9.64965	9.47557	9.17793	3.08839	2.74729	2.47727	15.29005	13.49188	11.96105
67670	2.09014	2.24389	1.84762	11.52568	11.13146	10.75432	6.83085	5.05261	3.52068	9.64854	9.47604	9.17821	3.08734	2.74800	2.47839	15.29050	13.49009	11.96151
67840	2.08779	2.24577	1.84938	11.52715	11.13091	10.75573	6.82564	5.05038	3.52180	9.64863	9.47553	9.17790	3.08917	2.74880	2.48102	15.29856	13.49148	11.96241
68000	2.09220	2.24562	1.84852	11.53033	11.13293	10.75989	6.83188	5.05347	3.52332	9.65189	9.47887	9.17982	3.09030	2.74846	2.47752	15.29220	13.49379	11.96298
68170	2.09062	2.24556	1.84894	11.52747	11.13236	10.75891	6.83442	5.05542	3.52310	9.65292	9.47776	9.18040	3.09075	2.74933	2.48010	15.29453	13.49601	11.96280
68330	2.09105	2.24537	1.84644	11.52779	11.13063	10.75494	6.83582	5.04914	3.51720	9.64972	9.47567	9.17831	3.08712	2.74722	2.47785	15.29337	13.49491	11.96323
68500	2.09041	2.24675	1.84732	11.52712	11.13055	10.75611	6.81720	5.05058	3.51673	9.64902	9.47729	9.17773	3.08562	2.74671	2.47733	15.29552	13.49150	11.96112
68660	2.08826	2.24172	1.84456	11.52466	11.13026	10.75417	6.82935	5.05367	3.51844	9.64845	9.47686	9.17749	3.08618	2.74414	2.47745	15.29605	13.49155	11.96104
68820	2.08846	2.24546	1.84560	11.52605	11.12980	10.75330	6.82639	5.05079	3.52082	9.64713	9.47561	9.17635	3.08634	2.74743	2.47866	15.29247	13.49349	11.96095
68990	2.08858	2.24065	1.84537	11.52658	11.12940	10.75590	6.83706	5.05334	3.52010	9.64840	9.47568	9.17606	3.08662	2.74796	2.47882	15.29266	13.49090	11.95891	34.83	6.0	0.00	-2.04	0.01726	0.01196	0.01513	0.01831	0.01893	0.01480	0.00544	0.01508	0.01997	0.01861	0.01290	0.01644	0.01699	0.01756	0.01372	0.00576	0.01617	0.02152
69150	2.08808	2.24513	1.84599	11.52815	11.13105	10.75474	6.84185	5.05477	3.52078	9.64930	9.47759	9.17911	3.08950	2.74930	2.47828	15.29499	13.49301	11.96204
69320	2.09027	2.24256	1.84536	11.52526	11.12883	10.75210	6.83138	5.04760	3.51734	9.64682	9.47335	9.17553	3.08683	2.74965	2.48101	15.29454	13.49609	11.96427
69490	2.09183	2.24637	1.84763	11.53006	11.13105	10.75588	6.82622	5.05175	3.51688	9.64747	9.47701	9.17613	3.08746	2.74803	2.47886	15.30090	13.49303	11.96209
69650	2.09010	2.24608	1.84956	11.52733	11.13040	10.75560	6.83781	5.04952	3.52069	9.64834	9.47570	9.17675	3.08642	2.74655	2.47581	15.28764	13.49080	11.95996
69820	2.08889	2.24480	1.84928	11.52899	11.13131	10.75543	6.83406	5.05397	3.52018	9.64971	9.47765	9.17735	3.08998	2.74807	2.47879	15.28675	13.49231	11.96050
69980	2.08817	2.24261	1.84475	11.52730	11.12835	10.75220	6.82856	5.04621	3.51618	9.64628	9.47318	9.17520	3.08735	2.74885	2.48221	15.30171	13.49637	11.96449
70150	2.09245	2.24742	1.84794	11.53053	11.13403	10.75521	6.81984	5.04860	3.51768	9.64945	9.47720	9.17753	3.08705	2.75038	2.48046	15.29759	13.49418	11.96209
70310	2.08906	2.24518	1.84486	11.52646	11.13060	10.75267	6.83237	5.04891	3.51712	9.64828	9.47432	9.17606	3.08498	2.74457	2.47470	15.29651	13.49057	11.95862
70480	2.09185	2.24729	1.85016	11.52713	11.13144	10.75650	6.83129	5.05284	3.52239	9.65045	9.47677	9.17887	3.08658	2.74810	2.47909	15.29373	13.49303	11.96219
70640	2.08843	2.24381	1.84634	11.52751	11.12863	10.75382	6.82971	5.04633	3.51674	9.64735	9.47463	9.17538	3.08466	2.74253	2.47666	15.29046	13.49149	11.95934	34.83	6.1	0.00	-2.04	0.01726	0.01196	0.01513	0.01831	0.01893	0.01480	0.00544	0.01508	0.01997	0.01861	0.01290	0.01644	0.01699	0.01756	0.01372	0.00576	0.01617	0.02152
70810	2.08769	2.24039	1.84693	11.52570	11.12903	10.75402	6.82989	5.04949	3.51798	9.64891	9.47731	9.17724	3.08797	2.74662	2.47893	15.29530	13.49311	11.96078
70970	2.08951	2.24142	1.84457	11.52733	11.12991	10.75413	6.83130	5.04697	3.51618	9.64770	9.47572	9.17695	3.08633	2.74727	2.47786	15.29503	13.49358	11.96206
71140	2.09204	2.24420	1.84832	11.52783	11.13133	10.75613	6.81770	5.04935	3.51736	9.64930	9.47626	9.17656	3.08646	2.74340	2.47645	15.29180	13.49124	11.95898
71300	2.08827	2.24277	1.84763	11.52502	11.13119	10.75658	6.82750	5.05490	3.51852	9.65111	9.47944	9.17868	3.08753	2.74781	2.47825	15.29799	13.49567	11.96144
71470	2.08831	2.24153	1.84613	11.52753	11.13105	10.75571	6.82516	5.04614	3.51875	9.64940	9.47643	9.17633	3.08518	2.74521	2.47529	15.29602	13.49147	11.96070
71630	2.08938	2.24219	1.84423	11.52865	11.13179	10.75555	6.82197	5.04790	3.51741	9.64961	9.47920	9.17892	3.08367	2.74937	2.47660	15.29799	13.49400	11.96148
71800	2.09087	2.24268	1.84783	11.52850	11.13176	10.75417	6.82267	5.04924	3.51648	9.64885	9.47772	9.17798	3.08398	2.74319	2.47676	15.29557	13.49052	11.95995
71960	2.09099	2.24706	1.84879	11.53022	11.13515	10.75897	6.82985	5.05458	3.52161	9.65251	9.48126	9.18123	3.08739	2.74922	2.47597	15.29602	13.49505	11.96405
72130	2.08806	2.24262	1.84770	11.52947	11.13461	10.75684	6.83074	5.05002	3.51872	9.64948	9.47953	9.17795	3.08480	2.74487	2.47656	15.29521	13.49542	11.96329
72290	2.08871	2.24291	1.84520	11.52906	11.13312	10.75699	6.81650	5.04726	3.51774	9.64918	9.47686	9.17874	3.08557	2.74614	2.47526	15.30320	13.49625	11.96394	34.83	6.1	0.00	-2.04	0.01726	0.01196	0.01513	0.01831	0.01893	0.01480	0.00544	0.01508	0.01997	0.01861	0.01290	0.01644	0.01699	0.01756	0.01372	0.00576	0.01617	0.02152
72460	2.08966	2.24220	1.84729	11.53168	11.13426	10.75637	6.82817	5.04628	3.51651	9.64974	9.47860	9.17830	3.08364	2.74460	2.47400	15.29003	13.49102	11.96160
72620	2.08873	2.24535	1.84904	11.53394	11.13707	10.76139	6.82723	5.05387	3.51928	9.65302	9.48328	9.18218	3.08858	2.74825	2.47782	15.29881	13.49821	11.96615
72790	2.08997	2.24358	1.84684	11.53160	11.13599	10.75785	6.81781	5.05021	3.51467	9.65086	9.48002	9.18048	3.08455	2.74475	2.47718	15.28949	13.49401	11.96440
72950	2.08685	2.24279	1.84558	11.53316	11.13582	10.75958	6.81162	5.04681	3.51602	9.65160	9.48107	9.18147	3.08511	2.74497	2.47624	15.28931	13.49182	11.96288
73120	2.08804	2.24308	1.84676	11.53048	11.13564	10.75793	6.82062	5.04642	3.51630	9.65041	9.47860	9.18051	3.08562	2.74505	2.47752	15.29522	13.49657	11.96723
73280	2.08841	2.24211	1.84704	11.53436	11.13733	10.75936	6.81940	5.04715	3.51800	9.65262	9.48180	9.18168	3.08434	2.74664	2.47728	15.29370	13.49376	11.96590
73450	2.08879	2.24295	1.84549	11.53142	11.13718	10.76135	6.82789	5.05208	3.51784	9.65240	9.48085	9.18175	3.08847	2.74637	2.47565	15.30042	13.49510	11.96606
73610	2.08787	2.24110	1.84258	11.53476	11.13844	10.75909	6.81411	5.04506	3.51354	9.65076	9.48012	9.17987	3.08619	2.74724	2.47696	15.29728	13.49843	11.96802
73780	2.08728	2.24280	1.84518	11.53721	11.13982	10.76026	6.82184	5.04837	3.51573	9.65318	9.48296	9.18357	3.08397	2.74419	2.47569	15.29710	13.49393	11.96582
73940	2.08575	2.24346	1.84549	11.53455	11.14127	10.76501	6.81320	5.04781	3.51739	9.65612	9.48447	9.18447	3.08710	2.74545	2.47820	15.30567	13.50031	11.97021	34.83	6.3	0.00	-2.04	0.01726	0.01196	0.01513	0.01831	0.01893	0.01480	0.00544	0.01508	0.01997	0.01861	0.01290	0.01644	0.01699	0.01756	0.01372	0.00576	0.01617	0.02152
74110	2.08780	2.24102	1.84762	11.53743	11.13928	10.76057	6.82614	5.04261	3.51487	9.65290	9.48220	9.18165	3.08380	2.74536	2.47489	15.29868	13.49986	11.97089
74270	2.08932	2.24140	1.84498	11.53837	11.14151	10.76362	6.83163	5.04559	3.51605	9.65485	9.48426	9.18415	3.08258	2.74201	2.47209	15.29518	13.49556	11.96567
74430	2.08535	2.24044	1.84495	11.53726	11.13917	10.76211	6.83379	5.04749	3.51430	9.65387	9.48216	9.18432	3.08536	2.74191	2.47254	15.29670	13.49474	11.96537
74600	2.08441	2.23873	1.84238	11.53500	11.13836	10.76262	6.82497	5.04622	3.51486	9.65280	9.48171	9.18235	3.08401	2.74167	2.46943	15.29572	13.49509	11.96282
74760	2.08786	2.24063	1.84272	11.53677	11.14108	10.76367	6.84032	5.05048	3.51584	9.65684	9.48461	9.18569	3.08719	2.74505	2.47385	15.30307	13.49922	11.96939
74930	2.08671	2.23904	1.84350	11.53631	11.14054	10.76170	6.83304	5.04453	3.51469	9.65320	9.48149	9.18197	3.08378	2.74936	2.47813	15.30011	13.50161	11.97120
75090	2.08871	2.24092	1.84421	11.53811	11.14088	10.76288	6.83731	5.04466	3.51553	9.65517	9.48179	9.18361	3.08306	2.74306	2.47292	15.29572	13.49680	11.96609
75250	2.08664	2.23960	1.84565	11.53709	11.14100	10.76405	6.82764	5.04610	3.51548	9.65668	9.48471	9.18458	3.08291	2.74366	2.47303	15.30074	13.49944	11.96858
75420	2.08622	2.23748	1.84254	11.53626	11.14009	10.76042	6.81643	5.04201	3.51464	9.65304	9.48344	9.18558	3.08121	2.74288	2.47453	15.30172	13.49962	11.97154
75590	2.08683	2.24107	1.84472	11.53928	11.14046	10.76361	6.82358	5.04606	3.51397	9.65503	9.48270	9.18458	3.08103	2.74227	2.47472	15.30319	13.49981	11.96785	34.88	6.0	0.00	-2.04	0.01726	0.01196	0.01513	0.01830	0.01893	0.01480	0.00544	0.01508	0.01997	0.01861	0.01290	0.01644	0.01699	0.01756	0.01372	0.00576	0.01617	0.02152
75750	2.08543	2.24030	1.84518	11.54087	11.14525	10.76777	6.82330	5.04897	3.51794	9.65956	9.48825	9.18983	3.08330	2.74377	2.47237	15.30418	13.50183	11.97311
75910	2.08626	2.23860	1.84363	11.54133	11.14235	10.76460	6.81524	5.04646	3.51471	9.65652	9.48478	9.18523	3.08239	2.74207	2.47267	15.30068	13.50123	11.97185
76080	2.08509	2.23896	1.84287	11.53990	11.14462	10.76694	6.82668	5.04562	3.51631	9.65727	9.48576	9.18705	3.08215	2.74392	2.47532	15.30427	13.50509	11.97378
76250	2.08374	2.24068	1.84358	11.54255	11.14385	10.76890	6.82597	5.04558	3.51395	9.65753	9.48681	9.18819	3.08521	2.74763	2.47636	15.30947	13.50750	11.97642
76410	2.09154	2.24425	1.84667	11.54458	11.14843	10.77033	6.82813	5.05000	3.51792	9.66056	9.48739	9.18959	3.08353	2.74493	2.47823	15.30516	13.50666	11.97450
76580	2.08674	2.24179	1.84111	11.54200	11.14351	10.76735	6.82077	5.04506	3.51542	9.65737	9.48564	9.18627	3.08279	2.74250	2.47206	15.29916	13.50103	11.97044
76740	2.08723	2.23927	1.84333	11.54007	11.14284	10.76769	6.82555	5.04659	3.51287	9.65738	9.48611	9.18877	3.08360	2.74419	2.47384	15.30122	13.50198	11.97339
76910	2.08720	2.23929	1.84324	11.53935	11.14060	10.76458	6.82157	5.04277	3.51163	9.65497	9.48347	9.18552	3.08404	2.74658	2.47741	15.30561	13.50748	11.97493
77070	2.08852	2.24234	1.84470	11.54097	11.14341	10.76558	6.83170	5.04834	3.51291	9.65731	9.48446	9.18777	3.08181	2.74232	2.47441	15.30418	13.50337	11.97372
77240	2.08539	2.24024	1.84243	11.53930	11.14145	10.76603	6.82206	5.04405	3.51411	9.65756	9.48449	9.18752	3.08350	2.74431	2.47444	15.30339	13.50121	11.97195	34.83	6.0	0.00	-2.04	0.01726	0.01196	0.01513	0.01830	0.01893	0.01480	0.00544	0.01508	0.01997	0.01861	0.01290	0.01644	0.01699	0.01756	0.01372	0.00576	0.01617	0.02152
77400	2.08566	2.23942	1.84327	11.53992	11.14304	10.76936	6.81376	5.04739	3.51670	9.65822	9.48775	9.18831	3.08331	2.74463	2.47475	15.30455	13.50379	11.97502
77570	2.08588	2.24055	1.84117	11.54042	11.14179	10.76413	6.82558	5.04422	3.51278	9.65749	9.48565	9.18697	3.08389	2.74776	2.47673	15.30832	13.50785	11.97665
77730	2.08815	2.24305	1.84490	11.54277	11.14413	10.76806	6.81910	5.04836	3.51575	9.65804	9.48590	9.18899	3.08315	2.74442	2.47600	15.30079	13.50265	11.97173
77900	2.08565	2.23939	1.84385	11.53900	11.14176	10.76612	6.81671	5.04710	3.51519	9.65673	9.48206	9.18547	3.08048	2.74112	2.47083	15.30123	13.49994	11.97114
78060	2.08640	2.24155	1.84348	11.54041	11.14435	10.76851	6.82609	5.04566	3.51549	9.65809	9.48648	9.18747	3.08309	2.74419	2.47372	15.30374	13.50272	11.97271
78230	2.08512	2.24129	1.84090	11.53898	11.14029	10.76319	6.81207	5.04247	3.51126	9.65475	9.48240	9.18491	3.08480	2.74891	2.47680	15.30464	13.50614	11.97686
78390	2.08939	2.24178	1.84291	11.54182	11.14614	10.76616	6.81606	5.04873	3.51392	9.65785	9.48597	9.18828	3.08430	2.74189	2.47476	15.29917	13.50392	11.97384
78560	2.08561	2.24055	1.84380	11.53939	11.14197	10.76392	6.81367	5.04445	3.51224	9.65767	9.48436	9.18743	3.08208	2.74164	2.47367	15.31361	13.50484	11.97479
78720	2.08605	2.24225	1.84455	11.54292	11.14589	10.76913	6.81657	5.04696	3.51496	9.65993	9.48781	9.19030	3.08194	2.74019	2.47127	15.30697	13.50524	11.97456
78890	2.08505	2.24067	1.84323	11.54151	11.14611	10.76833	6.82071	5.04575	3.51565	9.66102	9.48743	9.19021	3.08463	2.74512	2.47502	15.30892	13.50607	11.97647	34.83	6.2	0.00	-2.04	0.01726	0.01196	0.01513	0.01830	0.01893	0.01480	0.00544	0.01508	0.01997	0.01861	0.01290	0.01644	0.01699	0.01756	0.01372	0.00576	0.01617	0.02152
79050	2.08477	2.23983	1.84165	11.54093	11.14313	10.76786	6.82803	5.04171	3.51286	9.65922	9.48610	9.18728	3.08041	2.74259	2.47407	15.31152	13.50381	11.97619
79210	2.08630	2.24195	1.84201	11.54235	11.14381	10.76679	6.82039	5.04374	3.51220	9.65844	9.48500	9.18741	3.07907	2.73757	2.47048	15.30820	13.50189	11.96965
79380	2.08226	2.23859	1.84178	11.53924	11.14296	10.76600	6.81874	5.04557	3.51218	9.65673	9.48601	9.18738	3.07749	2.74156	2.46889	15.30928	13.50219	11.97035
79540	2.08378	2.23915	1.84098	11.53805	11.14234	10.76622	6.81607	5.04219	3.51106	9.65646	9.48440	9.18599	3.07948	2.74137	2.47109	15.30551	13.50498	11.97321
79710	2.08403	2.23822	1.84139	11.54136	11.14470	10.76605	6.82630	5.04304	3.51057	9.65755	9.48547	9.18758	3.08062	2.74078	2.47280	15.30901	13.50202	11.97275
79870	2.08229	2.23809	1.84279	11.54076	11.14393	10.76624	6.81448	5.04384	3.51370	9.65825	9.48517	9.18696	3.07920	2.74082	2.47015	15.30470	13.50456	11.97490
80040	2.08364	2.23764	1.84199	11.53872	11.14381	10.76728	6.81757	5.04245	3.50914	9.65796	9.48472	9.18684	3.08069	2.74329	2.47137	15.30775	13.50259	11.97534
80200	2.08378	2.23777	1.84296	11.54270	11.14396	10.76754	6.81275	5.04207	3.51135	9.65723	9.48715	9.19018	3.08023	2.73805	2.47184	15.30381	13.50593	11.97528
80370	2.08470	2.24165	1.84351	11.54386	11.14900	10.77180	6.82409	5.04762	3.51656	9.66214	9.49071	9.19135	3.08374	2.74176	2.47445	15.30847	13.50901	11.97871
80530	2.08576	2.23767	1.83967	11.54491	11.14672	10.76901	6.81587	5.04305	3.51050	9.65946	9.48675	9.18915	3.08088	2.73952	2.47024	15.30260	13.50584	11.97568	34.83	6.1	0.00	-2.04	0.01726	0.01196	0.01513	0.01830	0.01893	0.01480	0.00544	0.01508	0.01997	0.01861	0.01290	0.01644	0.01699	0.01756	0.01372	0.00576	0.01617	0.02152
80700	2.08123	2.23685	1.83971	11.54185	11.14430	10.76701	6.81259	5.03880	3.51169	9.65909	9.48660	9.18813	3.08015	2.73950	2.47109	15.30942	13.50487	11.97559
80860	2.08287	2.23919	1.84123	11.54196	11.14603	10.76765	6.81578	5.03820	3.50795	9.65848	9.48844	9.18945	3.07730	2.73979	2.46979	15.30484	13.50402	11.97378
81030	2.08349	2.24136	1.84378	11.54294	11.14661	10.77076	6.81793	5.04561	3.51351	9.66115	9.48862	9.19209	3.07849	2.74079	2.47006	15.31256	13.50811	11.97668
81190	2.08300	2.23713	1.84058	11.54354	11.14496	10.76695	6.81601	5.04039	3.51075	9.65778	9.48718	9.18857	3.07793	2.73818	2.47033	15.30780	13.50571	11.97532
81360	2.08150	2.23467	1.83938	11.54325	11.14702	10.76946	6.82483	5.04328	3.51260	9.66011	9.48778	9.18874	3.08175	2.74050	2.47174	15.30897	13.50816	11.97725
81530	2.08199	2.23731	1.83994	11.54458	11.14668	10.76983	6.81245	5.03796	3.51153	9.66041	9.48834	9.19089	3.08449	2.74454	2.47555	15.31040	13.51152	11.98032
81690	2.08775	2.24050	1.84294	11.54803	11.15201	10.77383	6.81231	5.04030	3.51414	9.66238	9.49286	9.19329	3.07908	2.74144	2.47159	15.30690	13.50905	11.97784
81860	2.08244	2.23998	1.84138	11.54436	11.14833	10.76810	6.81254	5.03842	3.50930	9.66041	9.49106	9.19141	3.07771	2.73675	2.46788	15.30942	13.50666	11.97461
82020	2.08252	2.23553	1.84190	11.54270	11.14712	10.77119	6.81821	5.04408	3.51010	9.66109	9.49080	9.19153	3.07804	2.73502	2.46891	15.30879	13.50786	11.97573
82190	2.07943	2.23483	1.84054	11.54250	11.14434	10.76668	6.81845	5.03903	3.50714	9.65759	9.48692	9.18809	3.07837	2.73789	2.47001	15.30717	13.50920	11.97721	34.83	6.1	0.00	-2.04	0.01726	0.01196	0.01513	0.01830	0.01893	0.01480	0.00544	0.01508	0.01997	0.01861	0.01290	0.01644	0.01699	0.01756	0.01372	0.00576	0.01617	0.02152
82350	2.08437	2.23859	1.84174	11.54478	11.14688	10.76907	6.82384	5.04535	3.51112	9.66027	9.48893	9.18890	3.07691	2.73731	2.46845	15.30995	13.50472	11.97376
82520	2.08417	2.23983	1.84227	11.54455	11.15012	10.77303	6.82145	5.04180	3.51301	9.66388	9.49260	9.19335	3.08195	2.74095	2.46944	15.30260	13.50823	11.97882
82680	2.08161	2.23655	1.83857	11.54649	11.14790	10.76902	6.81123	5.03668	3.50835	9.66217	9.49033	9.19106	3.07731	2.73653	2.46791	15.31157	13.50790	11.97680
82840	2.08070	2.23400	1.83905	11.54498	11.14678	10.76898	6.80716	5.03664	3.50754	9.66016	9.48786	9.19150	3.07798	2.73731	2.46960	15.30762	13.50765	11.97562
83010	2.08109	2.23604	1.84066	11.54490	11.14797	10.77135	6.81742	5.03977	3.50868	9.66257	9.49080	9.19171	3.07801	2.73808	2.46938	15.31327	13.50813	11.97706
83170	2.08305	2.23657	1.84070	11.54478	11.14872	10.77037	6.81760	5.03803	3.51050	9.66253	9.49255	9.19452	3.07856	2.73851	2.46900	15.31022	13.50890	11.97777
83340	2.08217	2.23602	1.84035	11.54416	11.14893	10.77143	6.82046	5.03954	3.50735	9.66132	9.49002	9.19100	3.07724	2.73924	2.47001	15.30852	13.50965	11.97929
83510	2.08311	2.23634	1.84294	11.54669	11.15066	10.77327	6.81681	5.04215	3.51057	9.66381	9.49305	9.19261	3.07647	2.73814	2.46849	15.30637	13.50932	11.97668
83670	2.08370	2.23867	1.84141	11.54678	11.15077	10.77162	6.81765	5.03819	3.50947	9.66279	9.49191	9.19361	3.07694	2.73659	2.46740	15.30780	13.50596	11.97604
83840	2.08213	2.23517	1.84104	11.54774	11.15130	10.77378	6.81403	5.03812	3.50988	9.66366	9.49440	9.19419	3.07823	2.73902	2.46926	15.30658	13.50920	11.97761	34.83	6.1	0.00	-2.04	0.01726	0.01196	0.01513	0.01830	0.01893	0.01480	0.00544	0.01508	0.01997	0.01861	0.01290	0.01644	0.01699	0.01756	0.01372	0.00576	0.01617	0.02152
84000	2.08196	2.23505	1.83980	11.54761	11.14946	10.77268	6.80901	5.04063	3.50757	9.66367	9.49208	9.19328	3.07707	2.73831	2.46953	15.30066	13.50760	11.97709
84170	2.07938	2.23496	1.83917	11.54727	11.15219	10.77428	6.81403	5.04120	3.51104	9.66485	9.49405	9.19446	3.07794	2.73804	2.46772	15.31124	13.51166	11.97997
84330	2.08104	2.23403	1.84030	11.54804	11.15185	10.77272	6.81182	5.03985	3.50786	9.66491	9.49197	9.19390	3.07610	2.73772	2.46885	15.31080	13.51418	11.98189
84500	2.08296	2.23621	1.83955	11.55116	11.15508	10.77524	6.81370	5.04091	3.50957	9.66613	9.49579	9.19629	3.07852	2.73923	2.46754	15.31107	13.51226	11.97980
84660	2.07978	2.23423	1.83929	11.55002	11.15225	10.77351	6.81393	5.03951	3.50794	9.66408	9.49283	9.19446	3.07830	2.73707	2.46887	15.30532	13.50823	11.97852
84830	2.08087	2.23393	1.83879	11.54799	11.15382	10.77745	6.81492	5.03892	3.50896	9.66661	9.49643	9.19548	3.07857	2.73959	2.46943	15.31116	13.51074	11.98073
84990	2.08060	2.23547	1.83822	11.54927	11.15119	10.77372	6.80302	5.03395	3.50540	9.66338	9.49260	9.19334	3.07732	2.74103	2.47029	15.31331	13.51463	11.98394
85160	2.08350	2.23715	1.84050	11.55212	11.15399	10.77600	6.81604	5.03931	3.50771	9.66604	9.49598	9.19536	3.07622	2.73634	2.46803	15.31277	13.51264	11.97974
85320	2.08145	2.23524	1.83910	11.54877	11.15439	10.77313	6.81970	5.03943	3.50778	9.66404	9.49225	9.19474	3.07569	2.73497	2.46625	15.30730	13.50980	11.97807
85490	2.08081	2.23627	1.84133	11.55190	11.15558	10.77530	6.81841	5.03600	3.50793	9.66408	9.49282	9.19376	3.07686	2.73576	2.46720	15.30763	13.51159	11.97870	34.88	6.2	0.00	-2.04	0.01726	0.01196	0.01513	0.01830	0.01893	0.01480	0.00544	0.01507	0.01997	0.01861	0.01290	0.01644	0.01699	0.01756	0.01372	0.00576	0.01617	0.02152
85650	2.08018	2.23585	1.83587	11.54873	11.15258	10.77231	6.81269	5.03602	3.50520	9.66124	9.49151	9.19170	3.07688	2.73667	2.46955	15.31257	13.51047	11.98053
85820	2.08133	2.23484	1.84095	11.55048	11.15373	10.77381	6.81302	5.03737	3.50485	9.66350	9.49367	9.19416	3.07581	2.73642	2.46586	15.31293	13.50826	11.97843
85980	2.08215	2.23236	1.83929	11.55076	11.15492	10.77308	6.81386	5.03878	3.50800	9.66338	9.49327	9.19393	3.07583	2.73542	2.46596	15.30701	13.50883	11.97779
86150	2.07936	2.23486	1.84041	11.55162	11.15694	10.77540	6.81939	5.04190	3.50967	9.66631	9.49667	9.19677	3.07651	2.73743	2.46794	15.31832	13.50960	11.98006
86310	2.08017	2.23366	1.83744	11.55028	11.15467	10.77180	6.80758	5.03772	3.50426	9.66362	9.49367	9.19496	3.07432	2.73625	2.46560	15.31024	13.51037	11.98047
86480	2.07893	2.23424	1.83812	11.55071	11.15591	10.77489	6.80281	5.03454	3.50795	9.66521	9.49605	9.19560	3.07792	2.73674	2.46893	15.31042	13.51381	11.98317
86650	2.08256	2.23537	1.84003	11.55249	11.15696	10.77664	6.80164	5.03550	3.50429	9.66673	9.49766	9.19616	3.07701	2.73916	2.46990	15.31832	13.51780	11.98690
86810	2.08274	2.23716	1.84159	11.55875	11.16186	10.78030	6.82235	5.03936	3.50819	9.67117	9.50164	9.20048	3.07605	2.73737	2.46853	15.31589	13.51655	11.98563
86980	2.07986	2.23571	1.83816	11.55687	11.15966	10.77883	6.80847	5.03257	3.50385	9.66838	9.49873	9.19787	3.07638	2.73356	2.46644	15.31374	13.51391	11.98139
87140	2.07785	2.23335	1.83889	11.55253	11.15869	10.77918	6.81375	5.03739	3.50901	9.66970	9.49678	9.19796	3.07638	2.73460	2.46789	15.31327	13.51525	11.98460	34.88	6.2	0.00	-2.04	0.01726	0.01196	0.01513	0.01830	0.01893	0.01480	0.00544	0.01507	0.01997	0.01861	0.01290	0.01644	0.01699	0.01756	0.01372	0.00576	0.01617	0.02152
87310	2.07928	2.23196	1.83917	11.55596	11.15754	10.77547	6.81145	5.03269	3.50143	9.66591	9.49520	9.19518	3.07536	2.73865	2.46786	15.32450	13.51587	11.98722
87470	2.08178	2.23572	1.84039	11.55802	11.15992	10.77814	6.81665	5.03823	3.50571	9.66800	9.49807	9.19863	3.07632	2.73570	2.46318	15.32190	13.51326	11.98411
87640	2.08098	2.23940	1.84125	11.55867	11.16152	10.78118	6.82303	5.03941	3.50872	9.67089	9.49854	9.20062	3.07750	2.73746	2.46932	15.31345	13.51749	11.98638
87800	2.08116	2.23452	1.83732	11.55740	11.15901	10.77861	6.80962	5.03627	3.50556	9.66798	9.49768	9.19820	3.07357	2.73406	2.46156	15.31157	13.51470	11.98518
87960	2.07637	2.22998	1.83780	11.55460	11.15901	10.77831	6.81684	5.03630	3.50409	9.66730	9.49685	9.19761	3.07091	2.73330	2.46447	15.30798	13.51316	11.98144
88130	2.08186	2.23637	1.83929	11.55715	11.16302	10.78316	6.81829	5.04040	3.50700	9.67331	9.50237	9.20194	3.07826	2.73736	2.46517	15.31525	13.52069	11.98837
88290	2.08266	2.23576	1.83795	11.55681	11.15943	10.78093	6.81422	5.03445	3.50211	9.67076	9.49713	9.19890	3.07525	2.73606	2.46933	15.31300	13.51792	11.98804
88460	2.08284	2.23615	1.83857	11.55814	11.16178	10.78189	6.81244	5.03606	3.50446	9.67064	9.49867	9.20036	3.07489	2.73430	2.46259	15.32297	13.51660	11.98712
88620	2.08020	2.23406	1.83859	11.55718	11.16126	10.78270	6.80976	5.03728	3.50643	9.67210	9.50244	9.20103	3.07248	2.73407	2.46618	15.32522	13.51979	11.98824
88780	2.07663	2.23230	1.83533	11.55709	11.16120	10.78325	6.81049	5.03277	3.50189	9.67149	9.49938	9.19977	3.06952	2.73112	2.46251	15.31140	13.51546	11.98520	34.88	5.9	0.00	-2.04	0.01726	0.01196	0.01513	0.01830	0.01893	0.01480	0.00544	0.01507	0.01997	0.01861	0.01290	0.01644	0.01699	0.01756	0.01372	0.00576	0.01617	0.02152
88950	2.07970	2.23625	1.84171	11.55919	11.16505	10.78569	6.81105	5.03657	3.50670	9.67474	9.50186	9.20447	3.07512	2.73492	2.46609	15.32118	13.52114	11.99143
89110	2.08073	2.23608	1.83739	11.56012	11.16243	10.78320	6.81414	5.03350	3.50347	9.67255	9.49981	9.20105	3.07308	2.73097	2.46224	15.31508	13.51937	11.98922
89280	2.07765	2.22956	1.83573	11.55891	11.16246	10.78269	6.80824	5.03240	3.50358	9.67221	9.49869	9.20123	3.07441	2.73278	2.46261	15.31454	13.51643	11.98540
89440	2.07528	2.22784	1.83326	11.55469	11.15841	10.77929	6.80529	5.02859	3.49980	9.66914	9.49869	9.19789	3.07124	2.73384	2.46457	15.32118	13.52207	11.99054
89610	2.07949	2.23394	1.83855	11.56052	11.16474	10.78518	6.80847	5.03312	3.50412	9.67470	9.50276	9.20240	3.07348	2.73252	2.46254	15.31930	13.52202	11.99140
89770	2.07993	2.23334	1.83981	11.56074	11.16661	10.78346	6.80969	5.03365	3.50373	9.67461	9.50317	9.20371	3.07392	2.73586	2.46467	15.31822	13.52396	11.99300
89940	2.07780	2.23472	1.83946	11.56223	11.16508	10.78621	6.81053	5.03551	3.50574	9.67449	9.49998	9.20348	3.07231	2.73369	2.46533	15.31463	13.52157	11.99155
90100	2.07683	2.23458	1.83859	11.56033	11.16448	10.78403	6.80754	5.03584	3.50699	9.67398	9.50090	9.20286	3.07271	2.73300	2.46549	15.32667	13.52134	11.98846
90270	2.07917	2.23314	1.83824	11.56059	11.16708	10.78614	6.81297	5.03963	3.50681	9.67584	9.50345	9.20485	3.07445	2.73491	2.46689	15.32424	13.52249	11.99146
90430	2.07864	2.23105	1.83557	11.55981	11.16344	10.78399	6.81184	5.03088	3.50140	9.67216	9.50061	9.20050	3.07298	2.73771	2.46692	15.32209	13.52510	11.99595	34.83	6.1	0.00	-2.04	0.01726	0.01196	0.01513	0.01830	0.01893	0.01480	0.00544	0.01508	0.01997	0.01861	0.01290	0.01644	0.01699	0.01756	0.01372	0.00575	0.01617	0.02152
90600	2.08042	2.23340	1.83754	11.56470	11.16720	10.78631	6.81427	5.03357	3.50395	9.67612	9.50370	9.20621	3.07409	2.73344	2.46433	15.32074	13.52466	11.99303
90760	2.07794	2.23128	1.83748	11.56179	11.16525	10.78523	6.81142	5.03064	3.50363	9.67601	9.50393	9.20552	3.07002	2.73119	2.46161	15.32748	13.52179	11.99150
90930	2.07745	2.23196	1.83797	11.56377	11.16868	10.78959	6.81189	5.03765	3.50688	9.67921	9.50725	9.20798	3.07367	2.73453	2.46538	15.33873	13.52650	11.99507
91090	2.07735	2.23108	1.83613	11.56372	11.16591	10.78605	6.80346	5.03484	3.50241	9.67595	9.50290	9.20458	3.07525	2.73498	2.46678	15.33549	13.52910	11.99757
91260	2.08162	2.23427	1.83911	11.56724	11.16742	10.79003	6.80753	5.03964	3.50609	9.67807	9.50628	9.20879	3.07341	2.73509	2.46357	15.32380	13.52613	11.99283
91420	2.07751	2.23068	1.83639	11.56087	11.16622	10.78771	6.80200	5.03320	3.50242	9.67652	9.50303	9.20455	3.07166	2.73040	2.46005	15.31913	13.52146	11.99152
91590	2.07667	2.22997	1.83571	11.56137	11.16574	10.78731	6.80612	5.03467	3.50372	9.67840	9.50419	9.20716	3.07306	2.73431	2.46307	15.32326	13.52515	11.99373
91750	2.07556	2.23044	1.83639	11.56300	11.16492	10.78546	6.80430	5.03115	3.50139	9.67676	9.50340	9.20526	3.07044	2.73164	2.46198	15.33306	13.52486	11.99330
91920	2.07803	2.23143	1.83558	11.56403	11.16802	10.78678	6.81207	5.03391	3.50452	9.67696	9.50624	9.20789	3.07301	2.73275	2.46406	15.33180	13.52985	11.99698
92080	2.07822	2.23642	1.83715	11.56709	11.16989	10.79156	6.81284	5.03459	3.50785	9.67944	9.50619	9.20948	3.07593	2.73410	2.46416	15.32519	13.53025	11.99570	34.83	6.2	0.00	-2.04	0.01726	0.01196	0.01513	0.01830	0.01893	0.01480	0.00544	0.01508	0.01997	0.01861	0.01290	0.01644	0.01699	0.01756	0.01372	0.00576	0.01617	0.02152
92250	2.07545	2.23387	1.83867	11.56588	11.16916	10.79162	6.80970	5.03872	3.50515	9.67981	9.50671	9.21002	3.07604	2.73255	2.46442	15.33283	13.53140	11.99652
92410	2.07720	2.23096	1.83505	11.56445	11.16718	10.78726	6.80900	5.03168	3.50138	9.67818	9.50568	9.20679	3.07268	2.73376	2.46490	15.32546	13.52940	11.99632
92570	2.07784	2.23042	1.83624	11.56544	11.16893	10.78999	6.80787	5.03347	3.49958	9.67822	9.50786	9.20773	3.06825	2.72787	2.46271	15.32501	13.52489	11.99485
92740	2.07525	2.23293	1.83618	11.56386	11.16655	10.78988	6.80965	5.03346	3.50184	9.67914	9.50605	9.20886	3.06911	2.73188	2.46250	15.32258	13.52701	11.99378
92900	2.07501	2.22876	1.83577	11.56420	11.16786	10.79101	6.79992	5.03003	3.50310	9.67707	9.50557	9.20767	3.07259	2.73273	2.46186	15.33238	13.52928	11.99635
93070	2.07480	2.22931	1.83667	11.56786	11.16858	10.78879	6.81706	5.03194	3.50182	9.67841	9.50581	9.20802	3.07158	2.73175	2.46246	15.33274	13.52836	11.99634
93230	2.07715	2.23088	1.83409	11.56722	11.17073	10.79039	6.81223	5.03455	3.50167	9.68143	9.50729	9.20965	3.07170	2.73048	2.46291	15.32734	13.52980	11.99827
93400	2.07424	2.22827	1.83630	11.56579	11.16927	10.78937	6.81008	5.02896	3.49971	9.67909	9.50666	9.20874	3.07281	2.73401	2.46336	15.33049	13.52955	11.99726
93560	2.07910	2.23232	1.83500	11.56650	11.17016	10.78862	6.80310	5.03072	3.50183	9.67929	9.50746	9.20874	3.07111	2.73211	2.46350	15.32923	13.52823	11.99510
93730	2.07880	2.23373	1.83897	11.56951	11.17185	10.79400	6.81975	5.03405	3.50440	9.68234	9.50903	9.21123	3.07451	2.73459	2.46380	15.33115	13.53483	12.00023	34.88	6.1	0.00	-2.04	0.01726	0.01196	0.01513	0.01830	0.01893	0.01480	0.00544	0.01508	0.01997	0.01861	0.01290	0.01644	0.01699	0.01756	0.01372	0.00576	0.01617	0.02152
93890	2.07916	2.22937	1.83500	11.56787	11.17075	10.79149	6.80780	5.03255	3.50267	9.68095	9.50747	9.20934	3.07003	2.73047	2.46232	15.32926	13.52787	11.99684
94060	2.07818	2.23185	1.83634	11.56740	11.16903	10.78960	6.81071	5.03140	3.50090	9.67932	9.50633	9.20784	3.07072	2.73013	2.46102	15.32791	13.53131	11.99808
94220	2.07538	2.23356	1.83466	11.56746	11.17017	10.79143	6.81000	5.03506	3.50180	9.68116	9.50678	9.20950	3.07050	2.72986	2.45926	15.32665	13.53121	11.99804
94390	2.07676	2.23293	1.83817	11.57074	11.17353	10.79523	6.81333	5.03390	3.50643	9.68314	9.50907	9.21185	3.07052	2.73133	2.46306	15.33681	13.53411	12.00166
94550	2.07587	2.23047	1.83376	11.57121	11.17271	10.79275	6.80654	5.03043	3.50103	9.68045	9.50681	9.20965	3.07166	2.73052	2.45910	15.33106	13.53209	12.00064
94720	2.07461	2.22865	1.83417	11.57002	11.17217	10.79232	6.80799	5.03222	3.50085	9.68200	9.50674	9.21027	3.07060	2.73512	2.46308	15.33340	13.53326	12.00107
94890	2.07419	2.23014	1.83241	11.57135	11.17217	10.79438	6.81727	5.03006	3.50111	9.68436	9.50792	9.21175	3.07484	2.73650	2.46618	15.34114	13.53933	12.00600
95050	2.07878	2.23146	1.83654	11.57468	11.17797	10.79796	6.80279	5.03418	3.50296	9.68708	9.51177	9.21473	3.07166	2.73438	2.46508	15.33987	13.53693	12.00402
95220	2.07689	2.23312	1.83534	11.57150	11.17446	10.79491	6.79671	5.03113	3.49935	9.68380	9.50987	9.21194	3.06672	2.72871	2.46153	15.32971	13.53316	12.00107
95380	2.07328	2.23152	1.83628	11.57183	11.17466	10.79541	6.81245	5.03115	3.50011	9.68678	9.51415	9.21619	3.06912	2.73042	2.46297	15.33880	13.53784	12.00402	34.83	6.2	0.00	-2.04	0.01726	0.01196	0.01513	0.01830	0.01893	0.01480	0.00544	0.01508	0.01997	0.01861	0.01290	0.01644	0.01699	0.01756	0.01372	0.00576	0.01617	0.02152
95550	2.07524	2.22949	1.83206	11.57274	11.17457	10.79496	6.80922	5.03224	3.50183	9.68322	9.50957	9.21213	3.07223	2.73269	2.46556	15.34168	13.54071	12.00872
95710	2.07775	2.23208	1.83562	11.57726	11.17902	10.79839	6.81109	5.03102	3.50214	9.68762	9.51203	9.21548	3.07081	2.73218	2.46155	15.33556	13.53726	12.00440
95880	2.07753	2.23063	1.83733	11.57637	11.17937	10.80170	6.82079	5.03407	3.50552	9.68941	9.51541	9.21691	3.07293	2.73297	2.46205	15.34285	13.54034	12.00749
96040	2.07729	2.22996	1.83378	11.57524	11.17795	10.79671	6.80852	5.03063	3.50008	9.68641	9.51160	9.21438	3.06640	2.72835	2.45963	15.33790	13.53649	12.00447
96200	2.07433	2.22915	1.83562	11.57358	11.17523	10.79701	6.80505	5.02992	3.49861	9.68662	9.51261	9.21478	3.06563	2.72888	2.45852	15.33331	13.53469	12.00279
96370	2.07503	2.23068	1.83754	11.57536	11.17951	10.80151	6.81461	5.03630	3.50446	9.68957	9.51462	9.21992	3.07248	2.73156	2.46304	15.34654	13.54386	12.00828
96530	2.07571	2.23085	1.83424	11.57610	11.17745	10.79688	6.81587	5.02789	3.49803	9.68723	9.51231	9.21636	3.07145	2.73048	2.46182	15.34042	13.54394	12.00878
96700	2.07662	2.22864	1.83483	11.57592	11.17905	10.79949	6.81517	5.03160	3.49936	9.68823	9.51278	9.21641	3.07174	2.72971	2.46065	15.33142	13.53841	12.00491
96860	2.07413	2.22849	1.83406	11.57586	11.17807	10.80126	6.81062	5.03081	3.50090	9.68835	9.51466	9.21721	3.07051	2.73037	2.46256	15.33349	13.53719	12.00531
97030	2.07467	2.22801	1.83336	11.57380	11.17772	10.79805	6.79764	5.02733	3.49754	9.68798	9.51357	9.21599	3.06578	2.72837	2.45849	15.33248	13.53852	12.00639	34.88	6.1	0.00	-2.04	0.01726	0.01196	0.01513	0.01830	0.01893	0.01480	0.00544	0.01508	0.01997	0.01861	0.01290	0.01644	0.01699	0.01756	0.01372	0.00576	0.01617	0.02152
97190	2.07362	2.22884	1.83440	11.57479	11.17749	10.80047	6.79942	5.03124	3.49994	9.69000	9.51714	9.21884	3.06754	2.72949	2.45782	15.33842	13.54017	12.00744
97350	2.07455	2.22726	1.83163	11.57452	11.17714	10.79863	6.80176	5.02982	3.49829	9.68797	9.51278	9.21594	3.06709	2.72553	2.46007	15.33905	13.53954	12.00825
97520	2.07576	2.22867	1.83458	11.57518	11.17894	10.79954	6.80209	5.03418	3.50045	9.68894	9.51353	9.21680	3.06834	2.73033	2.46119	15.33464	13.54237	12.00918
97690	2.07768	2.23062	1.83699	11.57604	11.17995	10.80007	6.80331	5.02875	3.50043	9.68917	9.51366	9.21635	3.07082	2.73517	2.46343	15.34373	13.54569	12.01327
97850	2.07932	2.23302	1.83798	11.58046	11.18223	10.80341	6.80396	5.03264	3.50217	9.69281	9.51601	9.22251	3.06839	2.73140	2.46425	15.34013	13.54457	12.01053
98020	2.07677	2.23238	1.83368	11.57600	11.18014	10.80181	6.81333	5.03060	3.49878	9.69223	9.51716	9.21859	3.06472	2.72580	2.46051	15.34220	13.54187	12.00822
98180	2.07380	2.22908	1.83453	11.57432	11.18130	10.80254	6.80607	5.03395	3.50217	9.69189	9.51586	9.21920	3.06875	2.73020	2.46083	15.34139	13.54312	12.00977
98350	2.07409	2.22746	1.83247	11.57738	11.17868	10.80107	6.79905	5.02888	3.49710	9.68879	9.51359	9.21663	3.06946	2.73024	2.46224	15.34166	13.54519	12.01245
98510	2.07476	2.22890	1.83455	11.57858	11.18093	10.80279	6.80991	5.03401	3.49907	9.69154	9.51667	9.21996	3.06933	2.72931	2.46016	15.33986	13.54192	12.00841
98680	2.07677	2.22887	1.83360	11.58069	11.18446	10.80612	6.80814	5.03502	3.50220	9.69582	9.51964	9.22253	3.07296	2.73116	2.46264	15.34548	13.54630	12.01305	34.83	6.1	0.00	-2.04	0.01726	0.01196	0.01513	0.01830	0.01893	0.01480	0.00544	0.01508	0.01997	0.01861	0.01290	0.01644	0.01699	0.01756	0.01372	0.00576	0.01617	0.02152
98840	2.07411	2.22850	1.83153	11.57934	11.18102	10.80179	6.80552	5.02762	3.49721	9.69194	9.51693	9.22124	3.06753	2.72804	2.45796	15.34260	13.54252	12.00891
99000	2.07371	2.22861	1.83469	11.57769	11.17939	10.80111	6.80748	5.02561	3.49600	9.69145	9.51665	9.21996	3.06358	2.72524	2.45797	15.33459	13.54247	12.00917
99170	2.07393	2.22795	1.83368	11.58094	11.18343	10.80597	6.80954	5.03101	3.50369	9.69435	9.51838	9.22177	3.07227	2.73060	2.46208	15.34161	13.54820	12.01319
99330	2.07316	2.22602	1.83008	11.57993	11.18202	10.80257	6.80219	5.03142	3.49814	9.69128	9.51597	9.21991	3.06982	2.73222	2.46186	15.33810	13.54665	12.01705
99500	2.07260	2.22978	1.83091	11.58273	11.18359	10.80578	6.79737	5.02767	3.49751	9.69335	9.51870	9.22113	3.06880	2.72809	2.45768	15.34233	13.54355	12.01164
99660	2.07498	2.22809	1.83239	11.58045	11.18353	10.80570	6.80215	5.02987	3.49882	9.69533	9.52026	9.22256	3.06887	2.72796	2.45816	15.33648	13.54605	12.01173
99830	2.07153	2.22562	1.82877	11.57978	11.18232	10.80172	6.79714	5.02459	3.49631	9.69144	9.51654	9.21912	3.06714	2.72886	2.45933	15.34675	13.54672	12.01207
99990	2.07185	2.22672	1.83075	11.58049	11.18316	10.80468	6.79560	5.02629	3.49425	9.69269	9.51846	9.22163	3.06333	2.72809	2.45847	15.34242	13.54455	12.01157
100160	2.07320	2.22642	1.83001	11.57941	11.18227	10.80283	6.79475	5.02126	3.48938	9.69211	9.51789	9.22017	3.06307	2.72555	2.45909	15.35107	13.54600	12.01293
100320	2.07353	2.22794	1.83473	11.58143	11.18399	10.80478	6.79758	5.02338	3.49567	9.69488	9.51996	9.22202	3.06571	2.72680	2.45962	15.34394	13.54890	12.01467	34.83	6.0	0.00	-2.04	0.01726	0.01196	0.01513	0.01830	0.01893	0.01480	0.00544	0.01508	0.01997	0.01861	0.01290	0.01644	0.01699	0.01756	0.01372	0.00576	0.01617	0.02152
100490	2.07465	2.22892	1.83347	11.58230	11.18595	10.80565	6.80722	5.02712	3.49760	9.69419	9.52009	9.22257	3.06460	2.72882	2.45782	15.34601	13.54695	12.01365
100650	2.07317	2.22769	1.83235	11.58072	11.18359	10.80330	6.80010	5.02308	3.49707	9.69428	9.51740	9.22241	3.06740	2.72915	2.46271	15.35151	13.55065	12.01791
