WetView ver 7.1	07-20-2019	15:19:50
AC9 Absorption and Attenuation Meter
00000311		; Serial number
2	; structure version number
Reserved
0.000000	0.000000		; Depth calibration
19200			; Baud rate
0.100000			; Path length (meters)
23			; number of temperature calibration bins
				12.61517	13.44096	14.46844	15.49904	16.50682	17.50108	18.49752	19.51783	20.49177	21.49009	22.48286	23.50673	24.54012	25.54812	26.49986	27.49321	28.50960	29.48671	30.47471	31.49432	32.50437	33.48679	34.49133	; temperature bins
a650	Blue	18.61587		0.01156	0.01096	0.01010	0.00930	0.00851	0.00774	0.00661	0.00573	0.00499	0.00402	0.00285	0.00203	0.00096	0.00000	-0.00110	-0.00152	-0.00210	-0.00247	-0.00259	-0.00317	-0.00346	-0.00380	-0.00403		; offset and temperature correction info
a676	Green	18.78942		0.00964	0.00899	0.00863	0.00813	0.00730	0.00639	0.00545	0.00448	0.00385	0.00301	0.00233	0.00165	0.00046	0.00000	-0.00106	-0.00167	-0.00251	-0.00280	-0.00316	-0.00329	-0.00377	-0.00392	-0.00441		; offset and temperature correction info
a715	Brown	18.59217		0.01171	0.01109	0.01043	0.00975	0.00878	0.00789	0.00685	0.00572	0.00469	0.00356	0.00255	0.00160	0.00061	0.00000	-0.00063	-0.00113	-0.00152	-0.00183	-0.00226	-0.00293	-0.00364	-0.00404	-0.00473		; offset and temperature correction info
c510	Red	18.18396		-0.00549	-0.00480	-0.00383	-0.00272	-0.00202	-0.00118	-0.00044	-0.00038	-0.00015	-0.00021	0.00013	0.00007	-0.00007	0.00000	-0.00007	-0.00065	-0.00045	-0.00018	0.00007	0.00039	-0.00001	-0.00002	-0.00045		; offset and temperature correction info
c532	Magenta	18.26528		-0.00721	-0.00645	-0.00581	-0.00518	-0.00465	-0.00345	-0.00281	-0.00270	-0.00182	-0.00141	-0.00108	-0.00072	-0.00022	0.00000	0.00044	0.00030	0.00031	-0.00006	-0.00052	-0.00089	-0.00142	-0.00149	-0.00154		; offset and temperature correction info
c555	Black	18.37125		-0.00430	-0.00419	-0.00381	-0.00319	-0.00286	-0.00254	-0.00205	-0.00196	-0.00138	-0.00137	-0.00067	-0.00051	-0.00030	0.00000	0.00067	0.00087	0.00057	0.00027	-0.00015	-0.00089	-0.00127	-0.00137	-0.00150		; offset and temperature correction info
a412	LtBlue	15.33566		-0.06011	-0.05567	-0.05012	-0.04441	-0.03922	-0.03412	-0.02941	-0.02503	-0.02049	-0.01588	-0.01121	-0.00784	-0.00311	0.00000	0.00273	0.00611	0.00757	0.00871	0.01066	0.01299	0.01539	0.01781	0.02175		; offset and temperature correction info
a440	LtGreen	16.05925		-0.01380	-0.01214	-0.01039	-0.00858	-0.00690	-0.00532	-0.00426	-0.00322	-0.00230	-0.00158	-0.00055	0.00006	0.00001	0.00000	0.00017	0.00016	-0.00094	-0.00222	-0.00363	-0.00486	-0.00567	-0.00651	-0.00782		; offset and temperature correction info
a488	Yellow	16.82827		0.00255	0.00293	0.00331	0.00354	0.00373	0.00378	0.00363	0.00350	0.00291	0.00225	0.00215	0.00142	0.00099	0.00000	-0.00092	-0.00169	-0.00295	-0.00396	-0.00479	-0.00542	-0.00582	-0.00604	-0.00663		; offset and temperature correction info
c650	Blue	18.49287		-0.00570	-0.00516	-0.00456	-0.00403	-0.00346	-0.00232	-0.00132	-0.00122	-0.00073	-0.00066	-0.00035	-0.00016	0.00003	0.00000	0.00044	0.00078	0.00108	0.00057	0.00040	-0.00042	-0.00033	-0.00029	-0.00034		; offset and temperature correction info
c676	Green	18.50570		0.00299	0.00293	0.00287	0.00293	0.00278	0.00294	0.00317	0.00251	0.00243	0.00215	0.00139	0.00123	0.00068	0.00000	-0.00041	-0.00106	-0.00205	-0.00268	-0.00325	-0.00413	-0.00495	-0.00610	-0.00674		; offset and temperature correction info
c715	Brown	17.88888		0.00826	0.00812	0.00773	0.00790	0.00766	0.00758	0.00753	0.00650	0.00571	0.00461	0.00359	0.00222	0.00101	0.00000	-0.00146	-0.00284	-0.00385	-0.00448	-0.00463	-0.00513	-0.00623	-0.00715	-0.00838		; offset and temperature correction info
a510	Red	17.18050		0.00353	0.00364	0.00354	0.00361	0.00381	0.00381	0.00356	0.00332	0.00277	0.00229	0.00176	0.00116	0.00036	0.00000	-0.00014	-0.00069	-0.00088	-0.00147	-0.00150	-0.00129	-0.00120	-0.00134	-0.00091		; offset and temperature correction info
a532	Magenta	17.40228		0.00550	0.00548	0.00526	0.00479	0.00464	0.00422	0.00393	0.00328	0.00253	0.00212	0.00136	0.00085	0.00039	0.00000	-0.00059	-0.00146	-0.00188	-0.00262	-0.00330	-0.00393	-0.00491	-0.00540	-0.00605		; offset and temperature correction info
a555	Black	17.72308		0.00849	0.00832	0.00800	0.00760	0.00724	0.00655	0.00580	0.00495	0.00435	0.00347	0.00252	0.00153	0.00049	0.00000	-0.00050	-0.00155	-0.00214	-0.00306	-0.00350	-0.00411	-0.00470	-0.00539	-0.00570		; offset and temperature correction info
c412	LtBlue	16.72802		-0.05949	-0.05458	-0.04744	-0.04134	-0.03547	-0.03064	-0.02511	-0.02047	-0.01574	-0.01163	-0.00761	-0.00442	-0.00204	0.00000	0.00100	0.00051	-0.00043	-0.00239	-0.00475	-0.00629	-0.00827	-0.00955	-0.01337		; offset and temperature correction info
c440	LtGreen	17.42637		-0.02723	-0.02503	-0.02216	-0.01930	-0.01691	-0.01394	-0.01125	-0.00926	-0.00732	-0.00582	-0.00401	-0.00226	-0.00093	0.00000	0.00082	0.00123	0.00133	0.00097	0.00038	-0.00003	-0.00022	-0.00023	-0.00125		; offset and temperature correction info
c488	Yellow	18.03666		-0.00640	-0.00554	-0.00465	-0.00357	-0.00276	-0.00154	-0.00067	-0.00031	-0.00014	-0.00012	0.00046	0.00032	0.00020	0.00000	0.00001	-0.00024	-0.00060	-0.00084	-0.00126	-0.00180	-0.00276	-0.00304	-0.00427		; offset and temperature correction info
0.003500	0.004000	0.015000	0.020000	0.015000	0.020000	2500.000000	2000.000000	1000.000000	; maxANoise	maxCNoise	maxADifference	maxCDifference	minACounts	minCCounts	minRCounts	maxTempSdev	maxDepthSdev
0			; auxilliary capabilities
1			; acquisition binsize
0	1.56780	1.56571	1.45504	6.20342	6.11592	5.98987	3.27370	2.66721	2.12944	5.79603	5.81038	5.68906	1.99307	1.86486	1.77033	6.96813	6.64495	6.28983	32.86	6.2	0.00	-2.04	0.01741	0.01205	0.01524	0.01833	0.01894	0.01481	0.00548	0.01521	0.02018	0.01869	0.01298	0.01653	0.01715	0.01773	0.01384	0.00572	0.01611	0.02154
170	1.56781	1.56333	1.45167	6.20169	6.11428	5.98748	3.26549	2.66173	2.12404	5.79168	5.80735	5.68489	1.98817	1.86327	1.76954	6.96346	6.64462	6.29196
330	1.56367	1.55887	1.44933	6.20281	6.11415	5.98664	3.25348	2.65859	2.12398	5.79202	5.80801	5.68519	1.98464	1.85784	1.76566	6.96310	6.64083	6.28853
490	1.56284	1.55759	1.44921	6.20175	6.11462	5.98807	3.25121	2.66330	2.12575	5.79380	5.80959	5.68682	1.98363	1.85936	1.76392	6.96090	6.64300	6.29104
660	1.56303	1.55608	1.44677	6.20179	6.11547	5.98905	3.25205	2.65812	2.12265	5.79425	5.81061	5.68763	1.98243	1.86119	1.76596	6.96247	6.64360	6.29228
820	1.56139	1.55560	1.44694	6.20301	6.11456	5.99047	3.25030	2.66135	2.12449	5.79473	5.80976	5.68880	1.98134	1.85531	1.76123	6.96000	6.64032	6.28980
990	1.56362	1.55834	1.44959	6.20424	6.11696	5.99279	3.24575	2.66560	2.12755	5.79666	5.81244	5.69093	1.98313	1.85795	1.76022	6.96204	6.64268	6.29257
1150	1.56164	1.55491	1.44620	6.20306	6.11326	5.98955	3.24614	2.65651	2.12427	5.79460	5.81104	5.68857	1.97939	1.85705	1.76064	6.96020	6.64276	6.29246
1320	1.56026	1.55406	1.44626	6.20285	6.11542	5.99200	3.24744	2.66086	2.12431	5.79707	5.81204	5.69069	1.98405	1.85819	1.76253	6.96695	6.64586	6.29440
1490	1.56235	1.55381	1.44600	6.20487	6.11575	5.99173	3.24185	2.66109	2.12609	5.79665	5.81248	5.68969	1.98252	1.85981	1.76251	6.97237	6.64836	6.29578
1650	1.56555	1.55715	1.44769	6.20559	6.11735	5.99336	3.24334	2.65988	2.12395	5.79787	5.81264	5.69127	1.98138	1.85557	1.75890	6.96593	6.64567	6.29392	32.86	6.1	0.00	-2.04	0.01741	0.01205	0.01524	0.01833	0.01894	0.01481	0.00548	0.01521	0.02018	0.01869	0.01298	0.01653	0.01715	0.01773	0.01384	0.00572	0.01611	0.02154
1820	1.56048	1.55570	1.44453	6.20197	6.11350	5.99124	3.23268	2.65694	2.12267	5.79547	5.81069	5.68791	1.97997	1.85346	1.75783	6.95953	6.64293	6.29008
1980	1.55870	1.55166	1.44305	6.19813	6.11200	5.99089	3.23843	2.65992	2.12321	5.79559	5.80943	5.68826	1.98019	1.85621	1.75933	6.96353	6.64447	6.29148
2150	1.55964	1.55077	1.44390	6.19692	6.10871	5.98692	3.23924	2.65344	2.12247	5.79257	5.80623	5.68578	1.98229	1.85940	1.76256	6.96538	6.64818	6.29541
2310	1.56137	1.55538	1.44482	6.20125	6.11227	5.99121	3.23431	2.66025	2.12313	5.79580	5.80941	5.68809	1.97995	1.85644	1.75765	6.96514	6.64417	6.29015
2480	1.55988	1.55156	1.44438	6.19699	6.10841	5.98783	3.23499	2.65884	2.12217	5.79140	5.80525	5.68327	1.97966	1.85472	1.75751	6.95761	6.63982	6.28666
2640	1.55848	1.55088	1.44427	6.19295	6.10507	5.98351	3.23382	2.65494	2.12260	5.78857	5.80239	5.68043	1.98010	1.85559	1.75688	6.95694	6.63823	6.28299
2810	1.55874	1.55049	1.44336	6.18740	6.09954	5.97744	3.23392	2.65535	2.12061	5.78409	5.79803	5.67581	1.97833	1.85639	1.75842	6.95922	6.63932	6.28384
2970	1.55970	1.55124	1.44455	6.18992	6.10111	5.97881	3.23048	2.65526	2.12313	5.78341	5.79729	5.67581	1.97868	1.85186	1.75415	6.95404	6.63318	6.27807
3140	1.55977	1.55260	1.44431	6.18847	6.10117	5.97787	3.23161	2.65855	2.12344	5.78553	5.79884	5.67730	1.98175	1.85494	1.75805	6.95820	6.63748	6.28121
3300	1.55834	1.54974	1.44039	6.18935	6.09991	5.97588	3.23361	2.65026	2.11736	5.78143	5.79678	5.67493	1.97735	1.85391	1.75864	6.95885	6.63951	6.28365	32.91	6.1	0.00	-2.04	0.01741	0.01205	0.01524	0.01833	0.01894	0.01481	0.00548	0.01520	0.02017	0.01869	0.01298	0.01653	0.01714	0.01773	0.01384	0.00572	0.01611	0.02154
3470	1.56025	1.55254	1.44145	6.19303	6.10518	5.97801	3.22767	2.65338	2.12135	5.78354	5.79861	5.67646	1.97675	1.85236	1.75672	6.95755	6.63563	6.27944
3630	1.55759	1.54980	1.44342	6.19023	6.10363	5.97606	3.22407	2.65479	2.11960	5.78351	5.79945	5.67565	1.97647	1.85354	1.75326	6.95402	6.63347	6.27831
3800	1.55720	1.55117	1.44271	6.19167	6.10456	5.97826	3.22719	2.65576	2.12099	5.78460	5.80058	5.67748	1.97723	1.85375	1.75746	6.95861	6.63561	6.28083
3960	1.55777	1.54927	1.44147	6.18966	6.10096	5.97698	3.23121	2.64933	2.11716	5.78291	5.79929	5.67621	1.97465	1.85437	1.75578	6.95575	6.63430	6.27976
4130	1.55992	1.54932	1.44530	6.18977	6.10172	5.97761	3.23738	2.65536	2.12078	5.78314	5.79876	5.67525	1.97686	1.85557	1.75722	6.95222	6.63019	6.27604
4290	1.55970	1.55011	1.44267	6.18665	6.09648	5.97219	3.23124	2.65439	2.12007	5.77823	5.79340	5.67298	1.97687	1.85809	1.75885	6.95465	6.63065	6.27586
4460	1.56033	1.55054	1.44294	6.18772	6.09909	5.97583	3.22891	2.65667	2.12088	5.78108	5.79564	5.67439	1.97830	1.85351	1.75660	6.94948	6.62933	6.27332
4620	1.55847	1.54603	1.44019	6.18516	6.09515	5.97136	3.23193	2.65073	2.11614	5.77710	5.79094	5.67010	1.97102	1.85224	1.75286	6.94262	6.62318	6.26859
4790	1.55837	1.54887	1.44175	6.18189	6.09486	5.97116	3.23585	2.65254	2.11766	5.77853	5.79207	5.67174	1.97356	1.85175	1.75295	6.94117	6.62373	6.26898
4950	1.55631	1.54626	1.43874	6.18011	6.09164	5.96699	3.22293	2.64917	2.11498	5.77471	5.78858	5.66792	1.97385	1.85217	1.75645	6.94152	6.62419	6.27203	32.86	6.1	0.00	-2.04	0.01741	0.01205	0.01524	0.01833	0.01894	0.01481	0.00548	0.01520	0.02017	0.01869	0.01298	0.01654	0.01714	0.01772	0.01384	0.00572	0.01611	0.02154
5120	1.55751	1.54706	1.44017	6.18226	6.09686	5.96968	3.23101	2.65350	2.11646	5.77929	5.79266	5.67024	1.97303	1.85068	1.75357	6.94152	6.62156	6.26873
5280	1.55545	1.54523	1.44024	6.18173	6.09636	5.96869	3.23075	2.65129	2.11577	5.77674	5.79284	5.66925	1.97138	1.84904	1.75117	6.93596	6.61912	6.26672
5450	1.55386	1.54521	1.44110	6.18224	6.09658	5.97053	3.22484	2.65209	2.11763	5.77641	5.79259	5.66778	1.97193	1.84786	1.75198	6.93862	6.61869	6.26637
5610	1.55436	1.54542	1.43856	6.17856	6.09290	5.96568	3.22507	2.64591	2.11240	5.77492	5.78882	5.66569	1.97039	1.84813	1.75407	6.93944	6.62007	6.26882
5780	1.55532	1.54689	1.44001	6.18099	6.09564	5.96882	3.22024	2.64640	2.11580	5.77762	5.79190	5.66933	1.97168	1.84858	1.74908	6.93741	6.61909	6.26685
5940	1.55513	1.54677	1.43919	6.18090	6.09624	5.96860	3.22858	2.64962	2.11562	5.77598	5.79059	5.66848	1.97162	1.84835	1.74991	6.93353	6.61625	6.26430
6110	1.55462	1.54705	1.44079	6.18028	6.09580	5.96782	3.23767	2.65118	2.11943	5.77680	5.79145	5.66869	1.97250	1.84635	1.75051	6.93071	6.61589	6.26352
6270	1.55357	1.54549	1.44029	6.17767	6.09419	5.96702	3.23409	2.64691	2.11487	5.77674	5.79001	5.66877	1.97203	1.84986	1.75178	6.93287	6.61605	6.26531
6440	1.55331	1.54641	1.43937	6.18191	6.09613	5.97004	3.22650	2.64995	2.11612	5.77749	5.79205	5.66956	1.97430	1.85062	1.75318	6.93165	6.61689	6.26630
6610	1.55402	1.54694	1.43786	6.18194	6.09488	5.96887	3.22695	2.64545	2.11324	5.77629	5.79055	5.66867	1.97115	1.84999	1.75239	6.93074	6.61599	6.26695	32.86	6.1	0.00	-2.04	0.01741	0.01205	0.01524	0.01833	0.01894	0.01481	0.00548	0.01520	0.02018	0.01869	0.01298	0.01654	0.01714	0.01772	0.01384	0.00572	0.01611	0.02154
6770	1.55496	1.54761	1.44043	6.18186	6.09504	5.96887	3.22812	2.64916	2.11442	5.77607	5.79010	5.66837	1.97091	1.84865	1.75044	6.92753	6.61222	6.26252
6930	1.55380	1.54401	1.43991	6.17978	6.09517	5.97047	3.22303	2.64525	2.11388	5.77847	5.79271	5.67068	1.96895	1.84779	1.74929	6.93516	6.61745	6.26790
7100	1.55230	1.54513	1.43669	6.18248	6.09510	5.96845	3.22248	2.64219	2.11118	5.77611	5.78893	5.66833	1.96627	1.84479	1.74622	6.92980	6.61579	6.26747
7270	1.54941	1.53980	1.43571	6.18230	6.09423	5.96732	3.21914	2.64055	2.10877	5.77487	5.78845	5.66821	1.96517	1.84651	1.74819	6.93242	6.61682	6.26725
7430	1.54929	1.54101	1.43854	6.18210	6.09510	5.96677	3.22183	2.64204	2.10980	5.77480	5.78932	5.66752	1.96634	1.84413	1.74509	6.93086	6.61498	6.26374
7600	1.55114	1.54509	1.43971	6.18312	6.09758	5.97017	3.22614	2.64870	2.11497	5.77890	5.79119	5.66959	1.96930	1.84745	1.74912	6.93289	6.61702	6.26636
7760	1.55230	1.54281	1.43722	6.18046	6.09229	5.96661	3.22160	2.64126	2.10938	5.77606	5.78761	5.66844	1.96470	1.84356	1.74477	6.92918	6.61449	6.26346
7930	1.54983	1.54199	1.43551	6.17730	6.08798	5.96325	3.21172	2.63893	2.10690	5.77309	5.78386	5.66390	1.96335	1.84387	1.74413	6.93023	6.61288	6.26316
8090	1.55093	1.54179	1.43662	6.17581	6.08777	5.96327	3.21298	2.64079	2.10828	5.77241	5.78390	5.66433	1.96422	1.84311	1.74623	6.92241	6.60810	6.25775
8260	1.55152	1.54364	1.43699	6.17442	6.08784	5.96448	3.22638	2.64200	2.10868	5.77251	5.78316	5.66371	1.96585	1.84311	1.74430	6.92463	6.60945	6.25883	32.86	6.2	0.00	-2.04	0.01741	0.01205	0.01524	0.01833	0.01894	0.01481	0.00548	0.01520	0.02018	0.01869	0.01299	0.01654	0.01714	0.01772	0.01384	0.00572	0.01611	0.02154
8420	1.55102	1.54120	1.43591	6.17123	6.08336	5.95802	3.21131	2.64010	2.10522	5.76766	5.77903	5.65919	1.96430	1.84338	1.74875	6.92271	6.61195	6.26008
8590	1.55357	1.54373	1.43732	6.17219	6.08528	5.95924	3.22350	2.64082	2.11006	5.76915	5.78073	5.66163	1.96560	1.84287	1.74388	6.92220	6.60757	6.25679
8750	1.55094	1.54131	1.43590	6.17061	6.08386	5.95803	3.22191	2.64026	2.10684	5.76685	5.77999	5.65858	1.96490	1.84231	1.74572	6.91818	6.60307	6.25312
8910	1.55029	1.53973	1.43756	6.16871	6.08242	5.95700	3.21636	2.64229	2.10772	5.76685	5.77828	5.65901	1.96422	1.84312	1.74533	6.91943	6.60347	6.25237
9080	1.54896	1.54046	1.43290	6.16469	6.07674	5.95206	3.20441	2.63697	2.10501	5.76236	5.77303	5.65427	1.96283	1.84026	1.74514	6.91837	6.60405	6.25279
9250	1.54981	1.53993	1.43452	6.16553	6.07785	5.95338	3.21264	2.63754	2.10628	5.76304	5.77464	5.65575	1.96573	1.84565	1.74802	6.92412	6.60742	6.25649
9410	1.55186	1.54173	1.43583	6.16877	6.08222	5.95726	3.22032	2.64118	2.10943	5.76788	5.77762	5.65775	1.96479	1.84387	1.74509	6.92107	6.60581	6.25442
9580	1.55175	1.54197	1.43524	6.16474	6.07968	5.95539	3.21734	2.63766	2.10577	5.76551	5.77624	5.65586	1.96442	1.84041	1.74429	6.92330	6.60374	6.25320
9740	1.54948	1.54075	1.43534	6.16408	6.08024	5.95637	3.21218	2.64028	2.10998	5.76788	5.77782	5.65841	1.96449	1.84328	1.74393	6.92506	6.60801	6.25538
9910	1.55032	1.54011	1.43413	6.16515	6.07904	5.95493	3.20951	2.63426	2.10244	5.76684	5.77683	5.65630	1.96437	1.84306	1.74588	6.92711	6.61022	6.25711	32.91	6.1	0.00	-2.04	0.01741	0.01205	0.01524	0.01833	0.01894	0.01481	0.00548	0.01520	0.02018	0.01869	0.01299	0.01654	0.01714	0.01772	0.01384	0.00572	0.01611	0.02154
10070	1.55105	1.54095	1.43546	6.16614	6.07981	5.95563	3.23016	2.63776	2.10721	5.76737	5.77673	5.65580	1.96435	1.84260	1.74466	6.92289	6.60654	6.25358
10240	1.54985	1.54106	1.43614	6.16302	6.07715	5.95477	3.21823	2.63905	2.10662	5.76531	5.77582	5.65569	1.96293	1.83946	1.74205	6.92144	6.60401	6.25198
10400	1.54929	1.54070	1.43636	6.16260	6.07881	5.95588	3.21609	2.63816	2.10664	5.76736	5.77629	5.65790	1.96263	1.83990	1.74460	6.92664	6.60557	6.25228
10570	1.54848	1.53782	1.43378	6.15964	6.07430	5.95163	3.20970	2.63179	2.10111	5.76502	5.77361	5.65498	1.96307	1.84261	1.74571	6.92648	6.60905	6.25651
10730	1.55094	1.54130	1.43501	6.16476	6.07866	5.95714	3.21651	2.63907	2.10597	5.76816	5.77727	5.65775	1.96260	1.84142	1.74188	6.92277	6.60505	6.25310
10900	1.54684	1.53941	1.43466	6.16246	6.07765	5.95458	3.20909	2.63402	2.10420	5.76612	5.77574	5.65578	1.95968	1.83623	1.74072	6.91875	6.60080	6.24911
11060	1.54749	1.53907	1.43718	6.16116	6.07583	5.95248	3.21725	2.63818	2.10722	5.76576	5.77569	5.65648	1.96375	1.83978	1.74198	6.92598	6.60357	6.25105
11230	1.54809	1.53869	1.43346	6.15982	6.07465	5.95069	3.21690	2.63225	2.10224	5.76149	5.77133	5.65244	1.96400	1.83897	1.74359	6.92351	6.60515	6.25292
11390	1.54877	1.53957	1.43536	6.16143	6.07760	5.95230	3.21508	2.63841	2.10205	5.76364	5.77382	5.65498	1.96239	1.83806	1.73987	6.92183	6.60287	6.25050
11560	1.54765	1.53919	1.43492	6.16305	6.07994	5.95412	3.21442	2.63718	2.10335	5.76688	5.77755	5.65763	1.96079	1.83967	1.74445	6.92607	6.60733	6.25408	32.86	6.0	0.00	-2.04	0.01741	0.01205	0.01524	0.01833	0.01894	0.01481	0.00548	0.01520	0.02018	0.01869	0.01299	0.01654	0.01714	0.01772	0.01384	0.00572	0.01611	0.02154
11720	1.54872	1.54080	1.43326	6.16741	6.08157	5.95667	3.20852	2.63568	2.10386	5.76885	5.77811	5.65810	1.96098	1.83601	1.73902	6.92334	6.60558	6.25182
11890	1.54670	1.53743	1.43344	6.16290	6.07888	5.95343	3.21435	2.63549	2.10451	5.76552	5.77537	5.65661	1.95963	1.83705	1.74233	6.92889	6.60838	6.25312
12050	1.54476	1.53618	1.43180	6.16337	6.07829	5.95244	3.21711	2.63511	2.09993	5.76442	5.77441	5.65449	1.95929	1.83806	1.74108	6.93437	6.61010	6.25481
12220	1.54755	1.53850	1.43316	6.16564	6.08102	5.95470	3.21445	2.63395	2.10092	5.76745	5.77737	5.65697	1.95737	1.83368	1.73931	6.93100	6.60830	6.25304
12380	1.54454	1.53467	1.43373	6.16511	6.08336	5.95636	3.21815	2.63819	2.10497	5.76874	5.78046	5.65981	1.96204	1.83872	1.74195	6.93225	6.61128	6.25531
12550	1.54568	1.53678	1.43159	6.16690	6.08125	5.95428	3.21218	2.63496	2.09943	5.76431	5.77411	5.65493	1.96186	1.83974	1.74219	6.93472	6.61193	6.25531
12710	1.54708	1.53970	1.43334	6.16594	6.08018	5.95305	3.21572	2.63410	2.10213	5.76316	5.77258	5.65323	1.95898	1.83657	1.73818	6.92525	6.60385	6.25031
12880	1.54585	1.53569	1.43095	6.16020	6.07730	5.94959	3.20768	2.63249	2.10029	5.76099	5.77183	5.65265	1.95759	1.83652	1.73843	6.92697	6.60486	6.25088
13040	1.54647	1.53598	1.43190	6.16439	6.08069	5.95326	3.21047	2.63401	2.10010	5.76395	5.77436	5.65407	1.95878	1.83451	1.73992	6.92795	6.60571	6.25220
13210	1.54329	1.53822	1.43188	6.16456	6.08076	5.95302	3.20980	2.63035	2.09912	5.76512	5.77554	5.65642	1.95906	1.83710	1.73966	6.92980	6.60739	6.25417	32.86	6.1	0.00	-2.04	0.01741	0.01205	0.01524	0.01833	0.01894	0.01481	0.00548	0.01520	0.02018	0.01869	0.01299	0.01654	0.01714	0.01772	0.01384	0.00572	0.01611	0.02154
13370	1.54524	1.53631	1.43144	6.16787	6.08485	5.95503	3.21304	2.63575	2.10230	5.76921	5.77893	5.65936	1.95887	1.83302	1.73795	6.93317	6.60901	6.25494
13540	1.54419	1.54017	1.43214	6.17174	6.09085	5.95998	3.20899	2.63425	2.10431	5.77261	5.78237	5.66381	1.96035	1.83604	1.74054	6.93782	6.61246	6.25929
13700	1.54533	1.53730	1.43042	6.17248	6.08878	5.95811	3.21356	2.63223	2.09889	5.76924	5.78164	5.66150	1.96009	1.83863	1.74210	6.93935	6.61783	6.26430
13870	1.54537	1.53899	1.43270	6.17716	6.09357	5.96313	3.21995	2.63582	2.10180	5.77414	5.78416	5.66453	1.96046	1.83393	1.74072	6.93743	6.61569	6.26005
14030	1.54233	1.53725	1.43078	6.17401	6.09116	5.96130	3.20770	2.63135	2.10103	5.77344	5.78281	5.66313	1.95803	1.83341	1.73643	6.93919	6.61556	6.26040
14200	1.54315	1.53827	1.43315	6.17437	6.09034	5.96252	3.20893	2.63374	2.10280	5.77494	5.78395	5.66457	1.95881	1.83568	1.73863	6.94268	6.62043	6.26550
14360	1.54346	1.53723	1.42975	6.17426	6.08904	5.96045	3.21032	2.62731	2.09847	5.77201	5.78163	5.66269	1.95700	1.83331	1.73595	6.94076	6.62012	6.26445
14530	1.54251	1.53489	1.43115	6.17532	6.08976	5.96052	3.20663	2.63050	2.09881	5.77325	5.78209	5.66367	1.96073	1.83775	1.74072	6.94789	6.62600	6.27247
14690	1.54591	1.54181	1.43331	6.18191	6.09663	5.96813	3.21074	2.63727	2.10596	5.77806	5.78679	5.66825	1.96213	1.83648	1.73756	6.95016	6.62606	6.27036
14860	1.54412	1.53673	1.43007	6.17907	6.09485	5.96501	3.20454	2.62913	2.09962	5.77592	5.78531	5.66546	1.95581	1.83250	1.73421	6.94491	6.62293	6.26814	32.86	6.1	0.00	-2.04	0.01741	0.01205	0.01524	0.01833	0.01894	0.01481	0.00548	0.01520	0.02018	0.01869	0.01298	0.01654	0.01714	0.01772	0.01384	0.00572	0.01611	0.02154
15020	1.54158	1.53780	1.42913	6.17786	6.09543	5.96621	3.20415	2.63129	2.10216	5.77601	5.78639	5.66800	1.95954	1.83312	1.73694	6.94816	6.62543	6.26897
15180	1.53988	1.53773	1.43124	6.17769	6.09357	5.96483	3.20959	2.62806	2.09848	5.77421	5.78360	5.66429	1.95806	1.83487	1.73871	6.94895	6.62470	6.26857
15350	1.54266	1.53781	1.42942	6.17798	6.09439	5.96474	3.21467	2.63300	2.10374	5.77393	5.78323	5.66329	1.95903	1.83493	1.73963	6.95051	6.62386	6.26675
15510	1.54224	1.53817	1.43234	6.17748	6.09335	5.96325	3.20693	2.63352	2.10424	5.77338	5.78313	5.66378	1.95996	1.83655	1.73860	6.94624	6.62362	6.26645
15680	1.54147	1.53678	1.43226	6.17521	6.09055	5.96135	3.21519	2.63245	2.10241	5.76934	5.78048	5.65980	1.96201	1.84076	1.74440	6.94816	6.62538	6.26768
15840	1.54649	1.54075	1.43184	6.17825	6.09293	5.96409	3.21587	2.63745	2.10544	5.77116	5.78256	5.66191	1.96024	1.83610	1.74025	6.94836	6.62259	6.26466
16010	1.54270	1.54139	1.43671	6.17973	6.09477	5.96621	3.21730	2.63924	2.10810	5.77425	5.78423	5.66481	1.96579	1.83893	1.74257	6.94989	6.62623	6.26765
16170	1.54453	1.53885	1.43148	6.17659	6.09029	5.96213	3.21701	2.63493	2.10217	5.76945	5.78009	5.65946	1.96169	1.83636	1.74003	6.94522	6.62138	6.26333
16340	1.54341	1.53770	1.43088	6.17438	6.08825	5.96083	3.20460	2.63327	2.10317	5.76951	5.77989	5.66031	1.95837	1.83663	1.74062	6.94503	6.62142	6.26319
16500	1.54186	1.53811	1.43202	6.17546	6.08898	5.96251	3.21347	2.63225	2.10225	5.77083	5.78070	5.66033	1.95843	1.83655	1.73857	6.94708	6.62255	6.26474	32.91	6.0	0.00	-2.04	0.01741	0.01205	0.01524	0.01833	0.01894	0.01481	0.00548	0.01520	0.02017	0.01869	0.01298	0.01654	0.01714	0.01772	0.01384	0.00572	0.01611	0.02154
16670	1.54510	1.53755	1.43219	6.17726	6.09164	5.96363	3.21885	2.63334	2.10392	5.77219	5.78114	5.66090	1.96033	1.83532	1.74000	6.94689	6.62221	6.26485
16830	1.54195	1.53667	1.43246	6.17443	6.08809	5.95997	3.21130	2.63204	2.10258	5.76755	5.77774	5.65824	1.95800	1.83735	1.74217	6.94861	6.62270	6.26498
17000	1.54414	1.53599	1.43122	6.17532	6.08878	5.96123	3.21477	2.63762	2.10483	5.76859	5.77779	5.65877	1.96114	1.84003	1.74341	6.95410	6.62726	6.26870
17160	1.54624	1.53891	1.43515	6.17646	6.08917	5.96222	3.21218	2.63647	2.10433	5.76831	5.77880	5.65776	1.96096	1.83886	1.74153	6.94998	6.62421	6.26439
17330	1.54353	1.53863	1.43373	6.17279	6.08686	5.95996	3.21571	2.63435	2.10449	5.76728	5.77681	5.65668	1.96105	1.83807	1.74027	6.94622	6.62281	6.26349
17490	1.54587	1.53616	1.43055	6.17235	6.08381	5.95532	3.20842	2.63180	2.09868	5.76268	5.77323	5.65263	1.95881	1.84061	1.74065	6.94669	6.62376	6.26439
17660	1.54668	1.53915	1.43248	6.17407	6.08675	5.95923	3.20855	2.63381	2.10186	5.76515	5.77596	5.65455	1.95810	1.83572	1.73829	6.94771	6.62117	6.26196
17820	1.54476	1.53577	1.42916	6.17087	6.08404	5.95697	3.20819	2.63422	2.09966	5.76341	5.77337	5.65336	1.95768	1.83417	1.73730	6.94701	6.61895	6.26050
17980	1.54231	1.53506	1.42903	6.17062	6.08160	5.95411	3.21052	2.63214	2.10021	5.75960	5.77070	5.64991	1.95837	1.83642	1.73967	6.94752	6.61862	6.26041
18150	1.54317	1.53562	1.43120	6.17107	6.08428	5.95547	3.20512	2.63180	2.10088	5.76123	5.77162	5.65106	1.95747	1.83548	1.74006	6.94614	6.61869	6.26020	32.86	6.1	0.00	-2.04	0.01741	0.01205	0.01524	0.01833	0.01894	0.01481	0.00548	0.01520	0.02017	0.01869	0.01298	0.01653	0.01714	0.01772	0.01384	0.00572	0.01611	0.02154
18310	1.54223	1.53548	1.43026	6.17105	6.08340	5.95565	3.20926	2.63356	2.10167	5.76343	5.77445	5.65203	1.95914	1.83472	1.73953	6.94849	6.62161	6.26326
18480	1.54246	1.53644	1.42981	6.17345	6.08580	5.95824	3.20454	2.63457	2.10067	5.76545	5.77536	5.65468	1.95750	1.83646	1.74070	6.95398	6.62524	6.26680
18640	1.54481	1.53469	1.43210	6.17626	6.08708	5.95918	3.20408	2.63561	2.10081	5.76380	5.77510	5.65528	1.95817	1.83477	1.73656	6.94390	6.62010	6.26056
18810	1.54408	1.53669	1.43116	6.17559	6.08788	5.95869	3.21305	2.63551	2.10456	5.76415	5.77537	5.65587	1.96032	1.83781	1.73913	6.94947	6.62213	6.26325
18970	1.54476	1.53703	1.43054	6.17489	6.08670	5.95600	3.20033	2.63255	2.09678	5.76278	5.77352	5.65375	1.96032	1.83776	1.74076	6.95013	6.62592	6.26679
19140	1.54563	1.53834	1.43027	6.17964	6.09069	5.95995	3.21377	2.63454	2.10445	5.76436	5.77537	5.65516	1.95913	1.83509	1.73675	6.94700	6.62342	6.26438
19300	1.54536	1.53921	1.43273	6.18081	6.09309	5.96224	3.21915	2.64095	2.10441	5.76589	5.77670	5.65562	1.96310	1.83782	1.74295	6.95033	6.62378	6.26659
19470	1.54563	1.53600	1.43057	6.17630	6.08525	5.95618	3.21740	2.63671	2.10143	5.75965	5.77046	5.65074	1.96241	1.83755	1.74157	6.94488	6.62392	6.26712
19630	1.54569	1.53748	1.43100	6.17700	6.08837	5.95890	3.20894	2.63398	2.10140	5.76186	5.77352	5.65343	1.95894	1.83400	1.73751	6.94555	6.62161	6.26448
19790	1.54330	1.53821	1.43100	6.17809	6.08888	5.95998	3.21353	2.63493	2.10443	5.76275	5.77538	5.65430	1.95945	1.83499	1.73713	6.94483	6.62331	6.26575	32.86	6.1	0.00	-2.04	0.01741	0.01205	0.01524	0.01833	0.01894	0.01481	0.00548	0.01520	0.02017	0.01869	0.01298	0.01653	0.01714	0.01772	0.01384	0.00572	0.01611	0.02154
19960	1.54329	1.53476	1.42873	6.17695	6.08771	5.95751	3.21230	2.63488	2.10154	5.76117	5.77323	5.65262	1.96236	1.83779	1.74154	6.94565	6.62334	6.26655
20120	1.54428	1.53682	1.43178	6.17927	6.08831	5.96004	3.21330	2.63552	2.10235	5.76168	5.77493	5.65432	1.96206	1.83489	1.74133	6.94652	6.62252	6.26547
20280	1.54242	1.53499	1.43076	6.17592	6.08766	5.95812	3.22192	2.63355	2.10221	5.76006	5.77511	5.65335	1.95870	1.83475	1.73808	6.94323	6.62020	6.26395
20450	1.54030	1.53592	1.42958	6.17444	6.08542	5.95575	3.21081	2.63232	2.10029	5.75759	5.77317	5.65040	1.95755	1.83339	1.73708	6.93990	6.61767	6.26027
20610	1.53910	1.53574	1.43207	6.17411	6.08740	5.95835	3.22215	2.63665	2.10606	5.75967	5.77655	5.65331	1.96112	1.83798	1.74167	6.94389	6.62159	6.26464
20780	1.54379	1.53577	1.43065	6.17509	6.08406	5.95403	3.21492	2.63618	2.10092	5.75504	5.77250	5.64948	1.96043	1.83660	1.74226	6.94299	6.61993	6.26245
20940	1.54348	1.53676	1.43377	6.17470	6.08328	5.95380	3.22287	2.63473	2.10346	5.75529	5.77040	5.64927	1.95870	1.83480	1.73881	6.93939	6.61624	6.25780
21110	1.54213	1.53747	1.43272	6.17206	6.08122	5.95224	3.21622	2.63833	2.10400	5.75358	5.77155	5.64817	1.96143	1.83730	1.74341	6.94107	6.61698	6.25865
21270	1.54449	1.53630	1.43076	6.16855	6.07827	5.94946	3.20786	2.63637	2.10006	5.74962	5.76612	5.64347	1.96051	1.83895	1.74265	6.94064	6.61560	6.25726
21440	1.54448	1.53942	1.43311	6.16744	6.07748	5.94910	3.21144	2.63645	2.10204	5.74805	5.76624	5.64234	1.95885	1.83820	1.73867	6.93180	6.61126	6.25247	32.86	5.9	0.00	-2.04	0.01741	0.01205	0.01524	0.01833	0.01894	0.01481	0.00548	0.01520	0.02017	0.01869	0.01298	0.01654	0.01714	0.01772	0.01384	0.00572	0.01611	0.02154
21600	1.54414	1.54115	1.43473	6.16628	6.07635	5.94781	3.22181	2.64101	2.10687	5.74750	5.76604	5.64247	1.96234	1.83913	1.74247	6.93371	6.61188	6.25322
21770	1.54317	1.53982	1.43312	6.16241	6.07133	5.94259	3.21170	2.63579	2.10149	5.74268	5.76051	5.63719	1.95777	1.83687	1.73889	6.93008	6.60668	6.24888
21930	1.54226	1.53806	1.43166	6.15938	6.06836	5.94162	3.21591	2.63486	2.10337	5.74136	5.76023	5.63612	1.95788	1.83582	1.73769	6.92581	6.60202	6.24615
22100	1.54588	1.54072	1.43669	6.16091	6.07049	5.94380	3.21624	2.63805	2.10647	5.74315	5.76175	5.63732	1.96274	1.84074	1.74224	6.92398	6.60662	6.24746
22260	1.54586	1.53869	1.43300	6.15681	6.06487	5.93898	3.21244	2.63777	2.10240	5.73764	5.75604	5.63312	1.96012	1.83944	1.74247	6.92409	6.60143	6.24343
22420	1.54529	1.53835	1.43430	6.15331	6.06261	5.93508	3.21173	2.63357	2.10242	5.73596	5.75483	5.63183	1.95911	1.83735	1.74043	6.91440	6.59449	6.23797
22590	1.54628	1.54013	1.43422	6.15221	6.06172	5.93574	3.20833	2.63708	2.10324	5.73606	5.75213	5.63139	1.95910	1.83876	1.74270	6.91386	6.59386	6.23656
22750	1.54474	1.53699	1.43083	6.14654	6.05615	5.93115	3.20788	2.63510	2.10189	5.72993	5.74761	5.62529	1.95705	1.83325	1.73736	6.90788	6.58592	6.22992
22910	1.54668	1.53863	1.43493	6.14645	6.05747	5.93284	3.22519	2.64011	2.10448	5.73230	5.74939	5.62726	1.96183	1.83935	1.74241	6.91179	6.59106	6.23427
23080	1.54598	1.53523	1.43142	6.14495	6.05460	5.92758	3.21578	2.63328	2.10189	5.72821	5.74438	5.62477	1.95740	1.83616	1.73690	6.90425	6.58408	6.22877	32.91	6.1	0.00	-2.04	0.01741	0.01205	0.01524	0.01833	0.01894	0.01481	0.00548	0.01520	0.02017	0.01869	0.01299	0.01654	0.01714	0.01772	0.01384	0.00572	0.01611	0.02154
23240	1.54315	1.53626	1.43129	6.14123	6.05105	5.92507	3.21224	2.63467	2.10135	5.72674	5.74326	5.62235	1.95735	1.83277	1.73711	6.90132	6.58065	6.22584
23410	1.54375	1.53517	1.43293	6.13871	6.05178	5.92763	3.22022	2.64092	2.10510	5.72865	5.74561	5.62530	1.96298	1.83751	1.74265	6.90367	6.58720	6.23211
23570	1.54444	1.53805	1.43228	6.14225	6.05153	5.92448	3.21027	2.63632	2.10183	5.72472	5.74071	5.62070	1.96176	1.83697	1.74130	6.90121	6.58393	6.22930
23730	1.54591	1.53665	1.43338	6.14209	6.05129	5.92652	3.21509	2.63630	2.10114	5.72625	5.74266	5.62186	1.95987	1.83511	1.73871	6.89980	6.58247	6.22668
23900	1.54331	1.53667	1.43143	6.14004	6.05015	5.92492	3.21036	2.63777	2.10036	5.72596	5.74321	5.62174	1.95882	1.83492	1.73787	6.89852	6.57947	6.22497
24060	1.54348	1.53628	1.43226	6.13767	6.04815	5.92061	3.21166	2.63298	2.09898	5.72066	5.73978	5.61868	1.95782	1.83558	1.73728	6.88994	6.57322	6.22098
24230	1.54639	1.53869	1.43568	6.13907	6.04903	5.92368	3.21600	2.64135	2.10364	5.72367	5.74228	5.62045	1.96343	1.83989	1.73966	6.89544	6.57965	6.22495
24390	1.54567	1.53692	1.43234	6.13562	6.04551	5.92038	3.20832	2.63494	2.10047	5.72080	5.73870	5.61609	1.95904	1.83851	1.74124	6.89310	6.57654	6.22404
24560	1.54630	1.53922	1.43168	6.13586	6.04581	5.91982	3.21425	2.63366	2.09945	5.72061	5.73865	5.61848	1.95706	1.83379	1.73441	6.89166	6.57224	6.21818
24720	1.54308	1.53885	1.43136	6.13554	6.04663	5.91983	3.21417	2.63474	2.10120	5.72118	5.73903	5.61798	1.95849	1.83595	1.74007	6.88983	6.57124	6.21846	32.86	6.1	0.00	-2.04	0.01741	0.01205	0.01524	0.01833	0.01894	0.01481	0.00548	0.01520	0.02017	0.01869	0.01299	0.01654	0.01714	0.01772	0.01384	0.00572	0.01611	0.02154
24880	1.54177	1.53612	1.43027	6.13253	6.04226	5.91593	3.21245	2.63038	2.09884	5.71723	5.73528	5.61357	1.95679	1.83614	1.73967	6.88750	6.56796	6.21539
25050	1.54226	1.53803	1.42924	6.13084	6.03941	5.91336	3.21216	2.63180	2.09896	5.71404	5.73139	5.60984	1.95692	1.83606	1.73851	6.88201	6.56431	6.21185
25210	1.54393	1.53597	1.43069	6.12793	6.03582	5.90879	3.21203	2.62962	2.09862	5.71134	5.72900	5.60723	1.95931	1.84013	1.74352	6.88173	6.56795	6.21576
25380	1.54860	1.53886	1.43222	6.13172	6.03913	5.91104	3.21482	2.63548	2.10130	5.71270	5.73087	5.60853	1.95876	1.83620	1.73771	6.87780	6.56215	6.20962
25540	1.54365	1.53795	1.43136	6.12590	6.03443	5.90764	3.21181	2.63403	2.09949	5.70848	5.72823	5.60621	1.95835	1.83620	1.73723	6.87403	6.55736	6.20460
25710	1.54417	1.53892	1.43022	6.12551	6.03390	5.90696	3.21570	2.63767	2.10278	5.70692	5.72500	5.60275	1.95884	1.83750	1.73972	6.87473	6.55550	6.20317
25870	1.54288	1.53596	1.42975	6.11996	6.02711	5.90034	3.21417	2.63581	2.10078	5.70092	5.72054	5.59790	1.95777	1.83715	1.73817	6.87080	6.55400	6.20232
26040	1.54408	1.53627	1.43047	6.11972	6.02711	5.90151	3.21803	2.63540	2.10140	5.70144	5.72081	5.59872	1.96214	1.84015	1.74200	6.87053	6.55755	6.20433
26200	1.54666	1.53783	1.43350	6.12243	6.02974	5.90212	3.22299	2.63705	2.10422	5.70291	5.72256	5.60070	1.96039	1.83592	1.73886	6.87057	6.55467	6.20293
26370	1.54181	1.53704	1.43051	6.11728	6.02353	5.89906	3.20714	2.63478	2.09866	5.69840	5.71944	5.59737	1.95755	1.83221	1.73815	6.86378	6.54920	6.19823	32.86	6.3	0.00	-2.04	0.01741	0.01204	0.01524	0.01834	0.01894	0.01481	0.00548	0.01520	0.02017	0.01869	0.01299	0.01654	0.01714	0.01772	0.01384	0.00572	0.01611	0.02154
26530	1.54293	1.53506	1.42811	6.11305	6.02012	5.89587	3.20821	2.63277	2.09797	5.69510	5.71550	5.59386	1.96253	1.83905	1.74105	6.86258	6.55095	6.20093
26700	1.54775	1.53760	1.43306	6.11568	6.02218	5.89849	3.21923	2.63734	2.10363	5.69547	5.71650	5.59470	1.96097	1.83680	1.74047	6.86596	6.54670	6.19624
26860	1.54266	1.53328	1.42878	6.10889	6.01483	5.89224	3.21080	2.62958	2.09833	5.69217	5.71244	5.59003	1.95745	1.83333	1.73740	6.85388	6.54113	6.18992
27030	1.53903	1.53261	1.42703	6.10266	6.00911	5.88709	3.20831	2.62953	2.09513	5.68681	5.70694	5.58492	1.95984	1.83629	1.74124	6.85971	6.54268	6.19253
27190	1.54525	1.53762	1.43060	6.10373	6.00944	5.88671	3.21550	2.63159	2.10001	5.68755	5.70523	5.58436	1.95912	1.83598	1.73586	6.85446	6.53693	6.18492
27350	1.54346	1.53701	1.43142	6.09787	6.00654	5.88480	3.21842	2.63634	2.10270	5.68492	5.70366	5.58125	1.96144	1.83453	1.73968	6.85109	6.53373	6.18285
27520	1.54144	1.53583	1.42844	6.09264	5.99938	5.87790	3.21378	2.62821	2.09708	5.67768	5.69643	5.57462	1.95995	1.83619	1.74045	6.84888	6.53118	6.18059
27680	1.54327	1.53576	1.43034	6.09232	5.99681	5.87633	3.21534	2.63465	2.10066	5.67628	5.69442	5.57321	1.95731	1.83278	1.73725	6.84372	6.52561	6.17389
27850	1.54134	1.53588	1.43027	6.08658	5.99345	5.87263	3.21553	2.63374	2.09894	5.67388	5.69295	5.57207	1.95837	1.83347	1.74075	6.84038	6.52544	6.17401
28010	1.54308	1.53282	1.42783	6.08427	5.99035	5.87023	3.20359	2.63114	2.09929	5.66952	5.68987	5.56760	1.95729	1.83591	1.73537	6.83676	6.52112	6.16886	32.86	5.9	0.00	-2.04	0.01741	0.01205	0.01524	0.01834	0.01894	0.01481	0.00548	0.01520	0.02017	0.01869	0.01299	0.01654	0.01714	0.01772	0.01384	0.00572	0.01611	0.02154
28180	1.54368	1.53833	1.43147	6.08297	5.99179	5.87025	3.22040	2.63567	2.10312	5.67121	5.69052	5.56935	1.96150	1.83751	1.73844	6.84005	6.52361	6.17223
28340	1.54068	1.53370	1.42977	6.08196	5.98701	5.86523	3.21356	2.63145	2.09888	5.66636	5.68584	5.56346	1.95821	1.83740	1.73872	6.83645	6.52020	6.16831
28500	1.54177	1.53550	1.42956	6.07909	5.98559	5.86376	3.20883	2.63165	2.09461	5.66485	5.68234	5.56273	1.95605	1.83256	1.73666	6.83436	6.51541	6.16348
28670	1.54014	1.53582	1.42747	6.07535	5.98448	5.86214	3.21389	2.63241	2.10183	5.66375	5.68379	5.56286	1.95686	1.83497	1.73631	6.83138	6.51576	6.16290
28830	1.53961	1.53448	1.42888	6.07381	5.98179	5.85872	3.21343	2.63359	2.09992	5.66059	5.68034	5.55804	1.95480	1.83313	1.73501	6.82669	6.51063	6.15942
29000	1.54210	1.53826	1.43168	6.07502	5.98265	5.86080	3.21515	2.63419	2.10266	5.66193	5.68100	5.55938	1.95952	1.83694	1.73919	6.83149	6.51350	6.16119
29160	1.54124	1.53377	1.42825	6.07301	5.98001	5.85679	3.20802	2.63290	2.09660	5.65823	5.67834	5.55688	1.95501	1.83316	1.73537	6.82619	6.51010	6.15764
29320	1.54139	1.53432	1.42666	6.06993	5.97756	5.85544	3.20475	2.62935	2.09594	5.65859	5.67614	5.55606	1.95596	1.83597	1.73844	6.82584	6.50866	6.15834
29490	1.54108	1.53645	1.42752	6.07035	5.97872	5.85637	3.21528	2.63153	2.09873	5.65799	5.67661	5.55524	1.95511	1.83247	1.73505	6.82093	6.50570	6.15362
29650	1.54263	1.53307	1.42890	6.06761	5.97612	5.85418	3.21777	2.63164	2.09785	5.65630	5.67451	5.55439	1.95600	1.83285	1.73682	6.82000	6.50432	6.15245	32.91	6.1	0.00	-2.04	0.01741	0.01204	0.01524	0.01834	0.01894	0.01481	0.00548	0.01520	0.02017	0.01869	0.01299	0.01654	0.01714	0.01772	0.01384	0.00572	0.01611	0.02154
29820	1.54105	1.53523	1.42882	6.06520	5.97409	5.84992	3.20866	2.63275	2.09675	5.65421	5.67152	5.55113	1.95604	1.83252	1.73650	6.81872	6.50168	6.15046
29980	1.54108	1.53443	1.43037	6.06326	5.97368	5.85017	3.20714	2.63103	2.09510	5.65562	5.67112	5.55242	1.95522	1.83348	1.73529	6.81567	6.49942	6.14869
30150	1.54325	1.53712	1.43097	6.06495	5.97511	5.85118	3.21712	2.63274	2.10087	5.65727	5.67377	5.55401	1.95832	1.83515	1.73609	6.81586	6.50023	6.15026
30310	1.53855	1.53347	1.42800	6.06336	5.97289	5.84881	3.20432	2.62690	2.09472	5.65439	5.67065	5.55095	1.95554	1.83582	1.73813	6.81744	6.50370	6.15372
30480	1.54413	1.53636	1.42963	6.06694	5.97500	5.85175	3.21262	2.63104	2.09764	5.65604	5.67420	5.55409	1.95576	1.83398	1.73555	6.81729	6.50134	6.15184
30640	1.54152	1.53214	1.42808	6.06421	5.97317	5.85119	3.20445	2.62881	2.09776	5.65646	5.67288	5.55325	1.95575	1.83134	1.73544	6.81644	6.49921	6.15003
30810	1.54142	1.53535	1.42745	6.06483	5.97481	5.85167	3.21330	2.62787	2.09635	5.65619	5.67278	5.55235	1.95335	1.83395	1.73603	6.81369	6.49977	6.14902
30970	1.54078	1.53302	1.42751	6.06167	5.97119	5.84859	3.21213	2.62627	2.09614	5.65294	5.66993	5.55018	1.95493	1.83361	1.73561	6.81489	6.49776	6.14760
31140	1.54024	1.53624	1.43167	6.06142	5.97070	5.84732	3.20297	2.63032	2.09939	5.65234	5.67059	5.54993	1.95429	1.83213	1.73550	6.80894	6.49442	6.14478
31300	1.54176	1.53516	1.43146	6.06151	5.97249	5.84989	3.21124	2.63338	2.09846	5.65404	5.67240	5.55157	1.95673	1.83496	1.73520	6.81619	6.49941	6.14878	32.86	6.1	0.00	-2.04	0.01741	0.01204	0.01524	0.01834	0.01894	0.01481	0.00548	0.01520	0.02017	0.01869	0.01299	0.01654	0.01714	0.01772	0.01384	0.00572	0.01611	0.02154
31470	1.54022	1.53208	1.42898	6.06115	5.96892	5.84779	3.21008	2.62796	2.09594	5.65080	5.66979	5.54865	1.95304	1.83147	1.73131	6.80958	6.49481	6.14465
31630	1.53805	1.53169	1.42724	6.05769	5.96659	5.84439	3.20263	2.62805	2.09513	5.64919	5.66835	5.54627	1.95268	1.82777	1.73201	6.80862	6.49087	6.14133
31800	1.54049	1.53266	1.42835	6.05909	5.96813	5.84667	3.20816	2.63155	2.09773	5.65055	5.66945	5.54842	1.95714	1.83312	1.73396	6.81124	6.49597	6.14522
31960	1.54109	1.53289	1.42824	6.05680	5.96481	5.84372	3.20677	2.62709	2.09387	5.64807	5.66674	5.54613	1.95302	1.83104	1.73383	6.81059	6.49217	6.14190
32120	1.53833	1.53219	1.42609	6.05530	5.96375	5.84162	3.20612	2.62589	2.09079	5.64621	5.66352	5.54470	1.95368	1.83337	1.73759	6.81151	6.49618	6.14521
32290	1.54195	1.53344	1.43005	6.05998	5.96712	5.84577	3.21173	2.63041	2.09637	5.64903	5.66758	5.54689	1.95547	1.83020	1.73442	6.81101	6.49270	6.14176
32450	1.54063	1.53336	1.42932	6.05695	5.96610	5.84523	3.21277	2.63062	2.09485	5.64804	5.66660	5.54645	1.95416	1.83129	1.73114	6.80943	6.49212	6.14072
32620	1.53848	1.53048	1.42433	6.05515	5.96153	5.83854	3.20415	2.62472	2.09194	5.64255	5.66040	5.54137	1.95295	1.82952	1.73293	6.80920	6.49031	6.13885
32780	1.53881	1.53190	1.42408	6.05423	5.96192	5.83856	3.20910	2.62835	2.09245	5.64330	5.66054	5.53946	1.95263	1.82756	1.72870	6.80348	6.48628	6.13587
32950	1.53865	1.53212	1.42790	6.05253	5.95973	5.83778	3.20169	2.62577	2.09261	5.64140	5.65957	5.53856	1.95227	1.82833	1.73229	6.80252	6.48543	6.13524	32.91	6.1	0.00	-2.04	0.01741	0.01204	0.01524	0.01834	0.01894	0.01481	0.00548	0.01520	0.02017	0.01869	0.01299	0.01654	0.01714	0.01772	0.01384	0.00572	0.01611	0.02154
33110	1.53919	1.52960	1.42630	6.04932	5.95676	5.83412	3.20911	2.62566	2.09475	5.63989	5.65674	5.53769	1.95009	1.82872	1.73293	6.80499	6.48587	6.13606
33280	1.53717	1.52751	1.42593	6.04919	5.95554	5.83540	3.20114	2.62413	2.09450	5.64015	5.65613	5.53648	1.95087	1.83038	1.73315	6.80492	6.48478	6.13600
33440	1.53741	1.53015	1.42561	6.04887	5.95449	5.83499	3.20862	2.62674	2.09460	5.63853	5.65626	5.53611	1.95287	1.83003	1.73535	6.80260	6.48569	6.13459
33610	1.53903	1.53168	1.42670	6.04445	5.95066	5.83022	3.19927	2.62483	2.09420	5.63587	5.65224	5.53216	1.95233	1.83091	1.73642	6.80333	6.48452	6.13444
33770	1.54020	1.53190	1.42821	6.04368	5.95142	5.83006	3.20632	2.62731	2.09558	5.63416	5.65068	5.52985	1.94936	1.83118	1.73142	6.79789	6.47867	6.12849
33940	1.53912	1.53477	1.42856	6.04248	5.95072	5.83050	3.21750	2.62853	2.09796	5.63727	5.65104	5.53190	1.95440	1.83108	1.73267	6.80314	6.48165	6.13074
34100	1.53893	1.53232	1.42642	6.03939	5.94724	5.82702	3.20419	2.62412	2.09338	5.63292	5.64719	5.52940	1.95312	1.82963	1.73260	6.79631	6.47635	6.12604
34270	1.53844	1.52963	1.42582	6.03444	5.94310	5.82418	3.20334	2.62463	2.09361	5.63105	5.64558	5.52680	1.95169	1.82921	1.73240	6.79870	6.47708	6.12675
34430	1.53738	1.53014	1.42633	6.03469	5.94433	5.82543	3.20846	2.62468	2.09203	5.63169	5.64458	5.52661	1.94887	1.82987	1.73204	6.79696	6.47683	6.12456
34600	1.53906	1.53073	1.42760	6.03381	5.94353	5.82430	3.20514	2.62717	2.09307	5.63165	5.64459	5.52648	1.95046	1.82828	1.73186	6.79646	6.47450	6.12267	32.91	6.2	0.00	-2.04	0.01741	0.01204	0.01524	0.01834	0.01894	0.01481	0.00548	0.01520	0.02017	0.01869	0.01299	0.01654	0.01714	0.01772	0.01384	0.00572	0.01611	0.02155
34760	1.53642	1.52702	1.42479	6.02959	5.93963	5.82093	3.19999	2.62158	2.09169	5.63001	5.64225	5.52547	1.95064	1.82742	1.73313	6.79665	6.47635	6.12339
34930	1.53869	1.53050	1.42539	6.03165	5.94140	5.82277	3.20504	2.62491	2.09087	5.63049	5.64156	5.52502	1.95360	1.83229	1.73775	6.79986	6.48075	6.12667
35090	1.54107	1.53416	1.42979	6.03480	5.94470	5.82557	3.20427	2.63142	2.09786	5.63346	5.64471	5.52779	1.95390	1.82948	1.73538	6.79843	6.47787	6.12482
35260	1.54030	1.53152	1.42775	6.03120	5.94067	5.82299	3.20113	2.62617	2.09456	5.63130	5.64130	5.52494	1.94975	1.82682	1.73090	6.79249	6.47466	6.12119
35420	1.53720	1.53056	1.42664	6.03045	5.94174	5.82577	3.19951	2.62781	2.09658	5.63382	5.64449	5.52887	1.95329	1.82703	1.73035	6.79762	6.47807	6.12454
35590	1.53779	1.52745	1.42402	6.03097	5.93972	5.82264	3.19352	2.62359	2.09081	5.63073	5.64257	5.52487	1.95156	1.82977	1.73393	6.79646	6.47943	6.12725
35750	1.54053	1.52995	1.42796	6.03333	5.94252	5.82484	3.20404	2.62380	2.09339	5.63207	5.64217	5.52684	1.95250	1.82990	1.73161	6.79507	6.47716	6.12433
35920	1.53705	1.53077	1.42508	6.03092	5.94137	5.82210	3.19760	2.62367	2.09226	5.63102	5.64122	5.52588	1.94958	1.82676	1.72971	6.79318	6.47551	6.12139
36080	1.53890	1.53027	1.42553	6.03038	5.94021	5.82265	3.20252	2.62709	2.09321	5.63109	5.64065	5.52538	1.95157	1.82834	1.72976	6.79006	6.47507	6.12161
36250	1.53673	1.52726	1.42392	6.02897	5.93805	5.82005	3.19693	2.62095	2.08922	5.62876	5.63907	5.52318	1.95105	1.82829	1.73649	6.79336	6.47671	6.12396	32.91	6.1	0.00	-2.04	0.01741	0.01204	0.01524	0.01834	0.01894	0.01481	0.00548	0.01520	0.02017	0.01869	0.01299	0.01654	0.01714	0.01772	0.01384	0.00572	0.01612	0.02155
36410	1.53878	1.52947	1.42642	6.02964	5.94020	5.82167	3.20859	2.62660	2.09332	5.63078	5.64103	5.52562	1.94994	1.82686	1.73133	6.79340	6.47229	6.11950
36580	1.53506	1.52561	1.42373	6.02736	5.93712	5.81919	3.19985	2.62233	2.09079	5.62753	5.63977	5.52184	1.94955	1.82678	1.73105	6.78935	6.47003	6.11702
36740	1.53489	1.52863	1.42639	6.02578	5.93658	5.81840	3.21044	2.62475	2.09184	5.62783	5.63808	5.52215	1.94900	1.82644	1.72926	6.78966	6.46963	6.11784
36910	1.53379	1.52617	1.42459	6.02438	5.93528	5.81743	3.19564	2.61935	2.09115	5.62681	5.63808	5.52071	1.94777	1.82653	1.73080	6.79387	6.47195	6.11930
37070	1.53524	1.52849	1.42749	6.02840	5.93885	5.82068	3.19396	2.62338	2.09270	5.62970	5.63907	5.52342	1.95020	1.82703	1.72994	6.79155	6.47124	6.11897
37240	1.53922	1.53097	1.42840	6.03009	5.94128	5.82331	3.20448	2.62732	2.09410	5.63082	5.64165	5.52533	1.95295	1.83043	1.73276	6.79722	6.47445	6.12195
37400	1.53795	1.52827	1.42632	6.03025	5.93944	5.82054	3.19881	2.62433	2.09128	5.62773	5.63838	5.52223	1.95046	1.82651	1.73030	6.78908	6.47005	6.11863
37570	1.53679	1.52716	1.42479	6.02644	5.93841	5.81872	3.20422	2.62191	2.09203	5.62508	5.63793	5.52083	1.94976	1.82703	1.73211	6.78862	6.46897	6.11738
37730	1.53606	1.53026	1.42534	6.02613	5.93820	5.81629	3.20512	2.62206	2.09156	5.62457	5.63624	5.51908	1.94825	1.82585	1.73089	6.78916	6.46772	6.11596
37900	1.53562	1.52835	1.42638	6.02572	5.93669	5.81550	3.19556	2.62394	2.08853	5.62228	5.63555	5.51753	1.94873	1.82780	1.73228	6.78522	6.46672	6.11406	32.91	6.0	0.00	-2.04	0.01741	0.01204	0.01523	0.01834	0.01895	0.01481	0.00548	0.01520	0.02017	0.01869	0.01299	0.01654	0.01714	0.01772	0.01384	0.00572	0.01612	0.02155
38060	1.53708	1.52808	1.42531	6.02464	5.93578	5.81522	3.20825	2.62350	2.09132	5.62321	5.63498	5.51760	1.94887	1.82629	1.73147	6.79031	6.46735	6.11495
38230	1.53513	1.52677	1.42458	6.02451	5.93621	5.81241	3.19730	2.62006	2.09034	5.62199	5.63375	5.51640	1.95049	1.82965	1.73325	6.78730	6.47040	6.11790
38390	1.53836	1.52990	1.42601	6.02709	5.93790	5.81476	3.19760	2.62327	2.09304	5.62286	5.63599	5.51886	1.94989	1.82998	1.73247	6.78630	6.46678	6.11488
38560	1.53734	1.52873	1.42548	6.02460	5.93724	5.81368	3.19242	2.62166	2.08884	5.62183	5.63408	5.51613	1.94771	1.82757	1.73090	6.78279	6.46495	6.11238
38720	1.53674	1.53090	1.42619	6.02665	5.93869	5.81537	3.19844	2.62476	2.09383	5.62359	5.63817	5.51865	1.94872	1.82878	1.73150	6.78680	6.46648	6.11430
38890	1.53692	1.52775	1.42397	6.02573	5.93736	5.81263	3.20517	2.62264	2.09063	5.62197	5.63610	5.51797	1.95211	1.83179	1.73345	6.78680	6.47113	6.12016
39050	1.54001	1.53201	1.42767	6.03119	5.94297	5.81785	3.20012	2.62499	2.09264	5.62485	5.63987	5.52046	1.94883	1.82776	1.73042	6.78753	6.46916	6.11694
39220	1.53821	1.52881	1.42567	6.02871	5.94083	5.81421	3.20433	2.62324	2.08937	5.62086	5.63800	5.51820	1.94816	1.82614	1.73310	6.78314	6.46478	6.11268
39380	1.53839	1.53045	1.42560	6.02755	5.93966	5.81474	3.20501	2.62389	2.09061	5.62216	5.63782	5.51734	1.94945	1.82849	1.73033	6.78075	6.46468	6.11174
39550	1.53608	1.53040	1.42501	6.02466	5.93761	5.81072	3.20552	2.61882	2.08993	5.61652	5.63477	5.51478	1.94874	1.82779	1.73286	6.78200	6.46419	6.11246	32.91	6.1	0.00	-2.04	0.01741	0.01204	0.01523	0.01834	0.01895	0.01481	0.00548	0.01520	0.02017	0.01869	0.01299	0.01654	0.01714	0.01772	0.01384	0.00572	0.01612	0.02155
39710	1.53788	1.52856	1.42627	6.02653	5.93955	5.81205	3.20001	2.62050	2.09050	5.61923	5.63776	5.51770	1.94690	1.82611	1.73155	6.78262	6.46307	6.11210
39880	1.53862	1.53333	1.42743	6.02960	5.94339	5.81763	3.19671	2.62511	2.09449	5.62382	5.64206	5.52049	1.95334	1.83081	1.73333	6.78497	6.46696	6.11613
40040	1.53694	1.53051	1.42680	6.03047	5.94282	5.81748	3.19525	2.62178	2.09106	5.62317	5.64040	5.51961	1.94778	1.82718	1.73002	6.78084	6.46469	6.11305
40210	1.53639	1.52854	1.42706	6.02916	5.94329	5.81755	3.20147	2.62074	2.09021	5.62522	5.64261	5.52160	1.94670	1.82891	1.73083	6.78605	6.46706	6.11509
40370	1.53757	1.52794	1.42633	6.03150	5.94387	5.81857	3.19794	2.61818	2.08763	5.62545	5.64387	5.52225	1.94743	1.82778	1.73058	6.78500	6.46679	6.11625
40540	1.53644	1.52891	1.42644	6.03348	5.94613	5.82071	3.19668	2.62225	2.08882	5.62735	5.64593	5.52447	1.94483	1.82566	1.73038	6.78605	6.46588	6.11628
40700	1.53643	1.53016	1.42576	6.03249	5.94810	5.82252	3.20289	2.62488	2.09004	5.62980	5.64769	5.52774	1.94829	1.82676	1.73206	6.78763	6.46942	6.11986
40870	1.53933	1.52832	1.42439	6.03380	5.94528	5.81982	3.20004	2.61973	2.08963	5.62578	5.64377	5.52406	1.94851	1.83127	1.73439	6.78512	6.46979	6.12032
41030	1.54075	1.53010	1.42562	6.03564	5.94596	5.82223	3.20490	2.62399	2.09289	5.62627	5.64504	5.52420	1.94847	1.82689	1.72953	6.78200	6.46524	6.11583
41200	1.53675	1.52946	1.42607	6.03061	5.94230	5.81842	3.19449	2.62118	2.08999	5.62422	5.64385	5.52268	1.94743	1.82439	1.72965	6.78078	6.46366	6.11292	32.86	6.0	0.00	-2.04	0.01740	0.01204	0.01523	0.01834	0.01895	0.01481	0.00548	0.01520	0.02017	0.01869	0.01299	0.01654	0.01714	0.01772	0.01384	0.00572	0.01612	0.02155
41360	1.53890	1.52991	1.42847	6.03131	5.94214	5.81866	3.20773	2.62489	2.09315	5.62415	5.64397	5.52434	1.94799	1.82737	1.72885	6.78151	6.46527	6.11447
41530	1.53647	1.52758	1.42446	6.02813	5.93936	5.81517	3.19828	2.62141	2.08844	5.62134	5.64097	5.52172	1.94860	1.83199	1.73511	6.78386	6.46717	6.11850
41690	1.54079	1.52866	1.42621	6.03221	5.94324	5.82091	3.19598	2.62289	2.09149	5.62543	5.64459	5.52504	1.94825	1.82815	1.72975	6.78086	6.46485	6.11565
41860	1.53895	1.52885	1.42543	6.02892	5.94103	5.81964	3.19572	2.62311	2.09199	5.62469	5.64385	5.52458	1.94833	1.82686	1.73046	6.77912	6.46370	6.11324
42020	1.53905	1.52832	1.42586	6.02951	5.94059	5.81991	3.19860	2.62220	2.09018	5.62401	5.64302	5.52408	1.94925	1.82448	1.72934	6.78201	6.46283	6.11283
42190	1.53846	1.52806	1.42442	6.02587	5.93629	5.81480	3.19786	2.61711	2.08858	5.61908	5.63883	5.51989	1.94753	1.82643	1.73138	6.77897	6.46437	6.11515
42350	1.53801	1.53167	1.42705	6.02789	5.93913	5.81719	3.19782	2.62135	2.09236	5.62223	5.64088	5.52146	1.94884	1.82674	1.73095	6.77797	6.46243	6.11245
42520	1.53706	1.52765	1.42541	6.02716	5.93895	5.81682	3.19737	2.62177	2.08996	5.62207	5.64101	5.52227	1.94958	1.82719	1.72985	6.78016	6.46429	6.11543
42680	1.53905	1.53162	1.42711	6.02952	5.94070	5.81968	3.20951	2.62484	2.09189	5.62335	5.64178	5.52221	1.94988	1.82507	1.72758	6.77916	6.46386	6.11367
42850	1.53459	1.52929	1.42610	6.02786	5.94034	5.81985	3.20490	2.62228	2.09209	5.62371	5.64155	5.52376	1.95248	1.82751	1.73076	6.78458	6.46543	6.11373	32.86	6.2	0.00	-2.04	0.01740	0.01204	0.01523	0.01834	0.01895	0.01481	0.00548	0.01520	0.02017	0.01869	0.01299	0.01654	0.01714	0.01772	0.01384	0.00572	0.01612	0.02155
43010	1.53651	1.52588	1.42383	6.02632	5.93691	5.81459	3.19752	2.61670	2.08833	5.62019	5.63705	5.51850	1.95033	1.82781	1.73177	6.78104	6.46502	6.11432
43180	1.53821	1.52992	1.42564	6.02739	5.93809	5.81707	3.19525	2.62034	2.09048	5.62172	5.63857	5.52073	1.95114	1.82538	1.72671	6.77923	6.46299	6.11204
43340	1.53441	1.52734	1.42384	6.02479	5.93619	5.81639	3.19655	2.61979	2.09234	5.62082	5.63806	5.51866	1.95009	1.82555	1.72912	6.78069	6.46072	6.10960
43500	1.53441	1.52581	1.42290	6.02266	5.93281	5.81136	3.19425	2.61804	2.08828	5.61667	5.63307	5.51565	1.95001	1.82637	1.73147	6.77665	6.46029	6.11026
43670	1.53534	1.53130	1.42623	6.02240	5.93374	5.81161	3.20412	2.62243	2.09013	5.61877	5.63520	5.51720	1.95013	1.82707	1.72890	6.77203	6.45928	6.10887
43830	1.53614	1.52840	1.42566	6.02297	5.93472	5.81272	3.19609	2.61919	2.09120	5.62104	5.63558	5.51786	1.94970	1.82591	1.72837	6.77630	6.46065	6.11030
44000	1.53609	1.52803	1.42479	6.02359	5.93418	5.81280	3.19577	2.62003	2.08911	5.62023	5.63572	5.51890	1.95008	1.82721	1.73100	6.77611	6.46249	6.11151
44160	1.53663	1.52806	1.42434	6.02493	5.93549	5.81492	3.19862	2.62126	2.09275	5.62274	5.63706	5.51982	1.95020	1.82495	1.72730	6.77618	6.46098	6.11075
44330	1.53674	1.53239	1.42639	6.02796	5.93956	5.81875	3.20108	2.62602	2.09427	5.62552	5.63934	5.52369	1.95405	1.82756	1.73065	6.77965	6.46261	6.11306
44490	1.53603	1.52702	1.42434	6.02404	5.93482	5.81299	3.19986	2.62098	2.09061	5.61994	5.63448	5.51894	1.95217	1.82888	1.73097	6.78208	6.46375	6.11369	32.86	6.1	0.00	-2.04	0.01740	0.01204	0.01523	0.01834	0.01895	0.01481	0.00548	0.01520	0.02017	0.01870	0.01299	0.01654	0.01714	0.01772	0.01384	0.00572	0.01612	0.02155
44660	1.53828	1.53098	1.42555	6.02487	5.93440	5.81229	3.20556	2.62315	2.09376	5.62077	5.63418	5.51852	1.95135	1.82504	1.73090	6.77745	6.45984	6.11004
44820	1.53428	1.52696	1.42220	6.02181	5.93228	5.81007	3.20028	2.62246	2.08966	5.61893	5.63302	5.51731	1.94990	1.82671	1.72948	6.77661	6.45952	6.10939
44990	1.53524	1.52627	1.42203	6.02040	5.93082	5.81023	3.19553	2.61573	2.08773	5.61932	5.63161	5.51727	1.95153	1.82853	1.73263	6.78204	6.46438	6.11397
45150	1.53915	1.53029	1.42654	6.02580	5.93424	5.81315	3.20038	2.62205	2.09248	5.62021	5.63413	5.51894	1.95056	1.82480	1.72889	6.77911	6.46034	6.10962
45320	1.53850	1.53147	1.42526	6.02508	5.93532	5.81542	3.19892	2.62635	2.09493	5.62243	5.63498	5.52018	1.95275	1.82731	1.73343	6.77969	6.46330	6.11233
45480	1.53587	1.52799	1.42448	6.02384	5.93300	5.81133	3.19689	2.61956	2.08869	5.61874	5.63234	5.51637	1.94996	1.82510	1.72819	6.77699	6.45876	6.10920
45640	1.53396	1.52759	1.42279	6.02101	5.93187	5.80976	3.19501	2.61788	2.09004	5.61692	5.62976	5.51498	1.94880	1.82846	1.72891	6.77618	6.46089	6.11037
45810	1.53593	1.52944	1.42815	6.02267	5.93289	5.80987	3.20550	2.62278	2.09027	5.61667	5.63003	5.51377	1.94936	1.82489	1.72690	6.77357	6.45883	6.10640
45970	1.53577	1.52882	1.42563	6.01748	5.92886	5.80828	3.19346	2.62069	2.09178	5.61458	5.62713	5.51356	1.95008	1.82615	1.72939	6.77495	6.45694	6.10443
46140	1.53436	1.52877	1.42331	6.01626	5.92626	5.80546	3.19166	2.61659	2.08789	5.61176	5.62542	5.50965	1.94618	1.82688	1.73054	6.77512	6.45632	6.10376	32.91	6.1	0.00	-2.04	0.01740	0.01204	0.01523	0.01834	0.01895	0.01481	0.00548	0.01520	0.02017	0.01870	0.01299	0.01654	0.01714	0.01772	0.01384	0.00572	0.01612	0.02155
46300	1.53532	1.52901	1.42484	6.01647	5.92671	5.80594	3.19962	2.61976	2.08901	5.61342	5.62759	5.51151	1.94487	1.82427	1.72813	6.77058	6.45645	6.10350
46470	1.53585	1.53231	1.42530	6.01810	5.92951	5.80658	3.19720	2.62145	2.08996	5.61306	5.62869	5.51272	1.94569	1.82615	1.73061	6.77324	6.45808	6.10606
46630	1.53496	1.52840	1.42495	6.01806	5.92868	5.80624	3.19953	2.61945	2.08940	5.61320	5.62833	5.51089	1.94634	1.82643	1.73115	6.77535	6.45919	6.10815
46800	1.53658	1.52884	1.42476	6.02090	5.93054	5.80784	3.19894	2.62117	2.08765	5.61329	5.62850	5.51118	1.94573	1.82446	1.73098	6.77358	6.45547	6.10422
46960	1.53570	1.52936	1.42576	6.02164	5.93170	5.80918	3.19354	2.62150	2.09050	5.61411	5.63043	5.51196	1.94821	1.82639	1.73097	6.77393	6.45729	6.10505
47130	1.53510	1.52759	1.42453	6.01820	5.92787	5.80548	3.19173	2.61851	2.08740	5.61046	5.62616	5.50807	1.94547	1.82604	1.72764	6.77020	6.45376	6.10195
47290	1.53477	1.52712	1.42327	6.01548	5.92506	5.80162	3.19720	2.61732	2.08946	5.60783	5.62436	5.50544	1.94494	1.82644	1.72907	6.76827	6.45198	6.10265
47460	1.53529	1.52940	1.42437	6.01670	5.92650	5.80518	3.20005	2.61985	2.08913	5.61010	5.62506	5.50757	1.94447	1.82546	1.72927	6.76781	6.45225	6.10068
47620	1.53360	1.53050	1.42842	6.01565	5.92629	5.80474	3.19852	2.62008	2.09045	5.61063	5.62569	5.50702	1.94661	1.82585	1.72834	6.76962	6.45242	6.10225
47790	1.53355	1.52862	1.42370	6.01423	5.92390	5.80016	3.19507	2.61444	2.08606	5.60536	5.62274	5.50316	1.94596	1.82686	1.72971	6.77116	6.45267	6.10168	32.91	6.1	0.00	-2.04	0.01740	0.01204	0.01523	0.01834	0.01895	0.01481	0.00548	0.01520	0.02017	0.01870	0.01299	0.01654	0.01714	0.01772	0.01384	0.00572	0.01612	0.02155
47950	1.53463	1.52829	1.42538	6.01356	5.92525	5.80090	3.19694	2.61445	2.08701	5.60692	5.62281	5.50373	1.94670	1.82200	1.72607	6.76477	6.44764	6.09774
48120	1.53153	1.52554	1.42066	6.01139	5.92228	5.79937	3.19290	2.61308	2.08427	5.60661	5.62136	5.50317	1.93989	1.82241	1.72508	6.76535	6.44709	6.09700
48280	1.53238	1.52492	1.42325	6.01050	5.92282	5.79992	3.18876	2.61378	2.08602	5.60743	5.62311	5.50393	1.94358	1.82155	1.72549	6.76262	6.44882	6.09791
48450	1.53149	1.52631	1.42356	6.01246	5.92327	5.80163	3.19193	2.61507	2.08675	5.60721	5.62370	5.50456	1.94645	1.82185	1.72692	6.76746	6.44870	6.09847
48610	1.53334	1.52570	1.42273	6.01267	5.92282	5.80107	3.18937	2.61437	2.08252	5.60547	5.62355	5.50275	1.94357	1.82343	1.72950	6.76866	6.45066	6.09974
48780	1.53277	1.52808	1.42430	6.01368	5.92374	5.80080	3.18772	2.61369	2.08399	5.60543	5.62271	5.50446	1.94278	1.82064	1.72489	6.76639	6.44738	6.09725
48940	1.53098	1.52753	1.42286	6.01035	5.92202	5.80121	3.18566	2.61440	2.08345	5.60589	5.62437	5.50423	1.94462	1.82033	1.72808	6.76158	6.44734	6.09788
49110	1.53190	1.52356	1.42154	6.01112	5.92067	5.79691	3.18511	2.60578	2.08007	5.60254	5.61968	5.50140	1.94332	1.82299	1.72678	6.76604	6.45088	6.09956
49270	1.53456	1.52793	1.42225	6.01429	5.92308	5.80109	3.18598	2.61157	2.08437	5.60473	5.62183	5.50411	1.94160	1.82058	1.72565	6.76296	6.44646	6.09622
49440	1.52992	1.52532	1.41982	6.01020	5.91973	5.79748	3.18834	2.60857	2.07899	5.60339	5.62018	5.50194	1.93788	1.81992	1.72304	6.76199	6.44558	6.09467	32.86	6.0	0.00	-2.04	0.01740	0.01204	0.01523	0.01834	0.01895	0.01481	0.00548	0.01520	0.02017	0.01870	0.01299	0.01654	0.01714	0.01772	0.01384	0.00572	0.01612	0.02155
49600	1.53103	1.52396	1.42275	6.01111	5.92114	5.79963	3.18233	2.61187	2.08232	5.60457	5.62166	5.50263	1.93926	1.81844	1.72220	6.76310	6.44745	6.09675
49770	1.53089	1.52399	1.42081	6.01060	5.91949	5.79702	3.18902	2.60704	2.07678	5.60138	5.61932	5.50043	1.94082	1.81997	1.72358	6.76510	6.45021	6.09882
49930	1.53198	1.52425	1.42026	6.01148	5.92139	5.79704	3.19261	2.60939	2.08023	5.60288	5.62149	5.50120	1.93929	1.82060	1.72388	6.76014	6.44460	6.09414
50100	1.53208	1.52653	1.42387	6.01222	5.92340	5.80055	3.18475	2.61432	2.08551	5.60499	5.62240	5.50359	1.94241	1.82297	1.72526	6.76506	6.44804	6.09735
50260	1.53102	1.52486	1.42081	6.01096	5.92063	5.79717	3.19099	2.60940	2.08047	5.60101	5.62019	5.49998	1.93909	1.81692	1.72150	6.76510	6.44416	6.09398
50430	1.52877	1.52372	1.41872	6.00763	5.91909	5.79462	3.17318	2.60631	2.07800	5.59911	5.61867	5.49893	1.93774	1.81830	1.71972	6.76010	6.44477	6.09385
50590	1.53001	1.52277	1.42030	6.00834	5.91718	5.79436	3.17926	2.60703	2.07899	5.59782	5.61612	5.49667	1.93735	1.81687	1.71976	6.75718	6.43915	6.08939
50760	1.52929	1.52268	1.42080	6.00646	5.91604	5.79222	3.18120	2.60704	2.07905	5.59801	5.61512	5.49637	1.93889	1.81633	1.72237	6.75791	6.44043	6.09068
50920	1.52732	1.51849	1.41680	6.00407	5.91404	5.78955	3.17864	2.59991	2.07409	5.59513	5.61359	5.49381	1.93579	1.81609	1.71966	6.76129	6.44316	6.09251
51090	1.52948	1.52269	1.41794	6.00788	5.91909	5.79425	3.18239	2.60420	2.07621	5.59934	5.61682	5.49800	1.93564	1.81530	1.71969	6.76234	6.44486	6.09537	32.91	6.1	0.00	-2.04	0.01740	0.01204	0.01523	0.01834	0.01895	0.01481	0.00548	0.01520	0.02017	0.01870	0.01299	0.01655	0.01714	0.01772	0.01383	0.00572	0.01612	0.02155
51250	1.53032	1.52158	1.42022	6.00927	5.91933	5.79487	3.18190	2.60084	2.07459	5.59838	5.61714	5.49715	1.93544	1.81730	1.72134	6.76292	6.44548	6.09633
51420	1.52901	1.52151	1.41973	6.00895	5.91916	5.79429	3.18261	2.60484	2.07744	5.59745	5.61624	5.49697	1.93488	1.81747	1.71855	6.76019	6.44235	6.09244
51580	1.52744	1.52122	1.41734	6.00680	5.91530	5.79222	3.18074	2.60306	2.07282	5.59641	5.61481	5.49456	1.93437	1.81323	1.71799	6.76004	6.44181	6.09123
51750	1.52745	1.52227	1.41947	6.00594	5.91642	5.79198	3.17932	2.60481	2.07303	5.59658	5.61456	5.49507	1.93438	1.81200	1.71875	6.76200	6.44337	6.09230
51910	1.52615	1.52006	1.41626	6.00458	5.91349	5.78906	3.16785	2.59805	2.07197	5.59386	5.61192	5.49206	1.93437	1.81576	1.71973	6.76119	6.44322	6.09312
52080	1.52883	1.52281	1.41734	6.00444	5.91324	5.79010	3.17212	2.60202	2.07206	5.59438	5.61241	5.49199	1.93245	1.81156	1.71616	6.75654	6.43809	6.08736
52240	1.52756	1.52113	1.41867	6.00077	5.90900	5.78705	3.17224	2.60081	2.07247	5.59100	5.60857	5.48920	1.93370	1.81318	1.71629	6.75281	6.43652	6.08532
52410	1.52733	1.52104	1.41895	6.00034	5.90986	5.78855	3.17438	2.60019	2.07574	5.59301	5.60875	5.49054	1.93363	1.81166	1.71707	6.75389	6.43740	6.08787
52570	1.52695	1.52146	1.41709	5.99909	5.90777	5.78505	3.17040	2.59787	2.07013	5.58982	5.60706	5.48824	1.93398	1.81293	1.71787	6.75758	6.44040	6.09020
52740	1.52593	1.51981	1.41804	6.00161	5.91016	5.78812	3.17162	2.59982	2.07249	5.59336	5.60983	5.49094	1.93226	1.81257	1.71695	6.75791	6.43757	6.08655	32.91	6.1	0.00	-2.04	0.01740	0.01204	0.01523	0.01834	0.01895	0.01482	0.00548	0.01520	0.02017	0.01870	0.01299	0.01655	0.01714	0.01772	0.01383	0.00572	0.01612	0.02155
52900	1.52618	1.51964	1.41644	6.00021	5.90975	5.78773	3.16426	2.59706	2.07188	5.59199	5.60902	5.49159	1.93165	1.81177	1.71659	6.75383	6.43479	6.08487
53070	1.52572	1.51933	1.41617	5.99912	5.90874	5.78682	3.17191	2.59777	2.07259	5.59180	5.60775	5.48988	1.93301	1.81082	1.71650	6.75387	6.43557	6.08440
53230	1.52541	1.51745	1.41603	5.99639	5.90500	5.78143	3.17020	2.59225	2.06843	5.58706	5.60385	5.48538	1.93025	1.81187	1.71767	6.75161	6.43399	6.08448
53400	1.52353	1.51894	1.41536	5.99795	5.90770	5.78351	3.17320	2.59683	2.07024	5.59023	5.60604	5.48792	1.93393	1.81420	1.71783	6.75591	6.43785	6.08752
53560	1.52787	1.52253	1.41714	6.00222	5.91265	5.78758	3.17656	2.59985	2.07173	5.59343	5.60891	5.49128	1.93196	1.80875	1.71386	6.75433	6.43809	6.08623
53730	1.52274	1.51684	1.41620	6.00023	5.90863	5.78381	3.16578	2.59335	2.06861	5.59074	5.60716	5.48839	1.92842	1.80582	1.71099	6.75203	6.43222	6.08217
53890	1.52220	1.51479	1.41226	5.99758	5.90724	5.78343	3.16684	2.59124	2.06483	5.58977	5.60527	5.48751	1.92982	1.80891	1.71318	6.75829	6.43905	6.08803
54060	1.52487	1.52017	1.41594	6.00330	5.91215	5.78630	3.15888	2.59530	2.07026	5.59317	5.61045	5.49114	1.92995	1.80551	1.71304	6.75629	6.43638	6.08475
54220	1.52147	1.51866	1.41611	6.00031	5.91176	5.78744	3.17536	2.59740	2.06883	5.59399	5.61102	5.49207	1.93080	1.80836	1.71159	6.75645	6.43712	6.08622
54390	1.52209	1.51532	1.41383	6.00177	5.91065	5.78440	3.16318	2.59018	2.06505	5.58991	5.60805	5.48886	1.92811	1.80724	1.71283	6.75732	6.43655	6.08503	32.91	6.1	0.00	-2.04	0.01740	0.01204	0.01523	0.01834	0.01895	0.01482	0.00548	0.01520	0.02017	0.01870	0.01299	0.01655	0.01714	0.01772	0.01383	0.00572	0.01612	0.02155
54550	1.52227	1.51685	1.41204	6.00238	5.91124	5.78524	3.17021	2.58910	2.06641	5.59112	5.60893	5.48971	1.92587	1.80353	1.70930	6.75405	6.43260	6.08243
54710	1.52050	1.51800	1.41317	6.00045	5.91040	5.78449	3.16473	2.59306	2.06733	5.59022	5.61035	5.49057	1.92723	1.80517	1.70898	6.75263	6.43276	6.08360
54880	1.51914	1.51423	1.41183	6.00050	5.90916	5.78215	3.16428	2.58668	2.06568	5.58722	5.60618	5.48622	1.92481	1.80658	1.70904	6.75471	6.43454	6.08348
55040	1.52011	1.51618	1.41334	6.00172	5.91140	5.78330	3.16121	2.58923	2.06585	5.58814	5.60708	5.48716	1.92593	1.80265	1.70743	6.75340	6.43058	6.08019
55210	1.52021	1.51872	1.41315	6.00197	5.91254	5.78580	3.16424	2.59348	2.06635	5.59100	5.60825	5.48958	1.92681	1.80608	1.71019	6.75555	6.43481	6.08382
55370	1.52052	1.51453	1.41143	5.99945	5.90827	5.78050	3.16263	2.58676	2.06313	5.58665	5.60406	5.48623	1.92757	1.80699	1.71156	6.75513	6.43680	6.08497
55540	1.52121	1.51427	1.41238	6.00305	5.91129	5.78357	3.16121	2.58949	2.06608	5.59031	5.60813	5.48804	1.92771	1.80279	1.71154	6.75486	6.43368	6.08197
55700	1.51779	1.51432	1.41103	5.99927	5.90931	5.78248	3.16073	2.58577	2.06473	5.58835	5.60718	5.48749	1.92387	1.80061	1.70728	6.75256	6.43238	6.08300
55870	1.51675	1.51298	1.40860	5.99928	5.90835	5.78063	3.15638	2.58229	2.06016	5.58696	5.60559	5.48610	1.92562	1.80532	1.71012	6.75782	6.43863	6.08742
56030	1.51880	1.51398	1.41227	6.00485	5.91358	5.78601	3.16671	2.58741	2.06279	5.59097	5.60860	5.48948	1.92503	1.80132	1.70752	6.75455	6.43479	6.08428	32.86	6.1	0.00	-2.04	0.01740	0.01204	0.01523	0.01834	0.01895	0.01482	0.00548	0.01520	0.02016	0.01870	0.01299	0.01655	0.01714	0.01772	0.01383	0.00572	0.01612	0.02155
56200	1.51713	1.51204	1.41225	6.00123	5.91108	5.78382	3.15285	2.58381	2.06213	5.59035	5.60875	5.48751	1.92411	1.80195	1.70784	6.75612	6.43685	6.08370
56360	1.51701	1.51319	1.41056	6.00235	5.91092	5.78301	3.15520	2.58564	2.06322	5.59041	5.60808	5.48785	1.92424	1.80145	1.70655	6.75566	6.43446	6.08163
56530	1.51769	1.51254	1.41215	5.99929	5.91035	5.78411	3.15704	2.58670	2.06407	5.59114	5.60816	5.48873	1.92397	1.80300	1.70972	6.75355	6.43401	6.08038
56690	1.51668	1.50955	1.40935	5.99809	5.90769	5.77924	3.15523	2.58087	2.06085	5.58636	5.60471	5.48454	1.92231	1.80318	1.70895	6.75497	6.43109	6.07838
56860	1.51647	1.51142	1.40999	5.99652	5.90682	5.77910	3.16029	2.58324	2.06031	5.58571	5.60455	5.48346	1.92158	1.79981	1.70586	6.74998	6.42825	6.07577
57020	1.51544	1.50793	1.41122	5.99381	5.90668	5.77909	3.16203	2.58425	2.06091	5.58716	5.60520	5.48622	1.92170	1.80010	1.70726	6.75209	6.43054	6.07697
57180	1.51517	1.50875	1.40989	5.99506	5.90487	5.77665	3.15642	2.57927	2.05706	5.58494	5.60195	5.48224	1.92136	1.80047	1.70760	6.75132	6.43217	6.07983
57350	1.51611	1.51061	1.41064	5.99707	5.90752	5.78092	3.15649	2.58415	2.06033	5.58827	5.60466	5.48497	1.91989	1.79969	1.70395	6.75094	6.43060	6.07747
57510	1.51601	1.51073	1.41149	5.99689	5.90729	5.78207	3.16420	2.58340	2.05774	5.58941	5.60514	5.48675	1.91990	1.79949	1.70507	6.75401	6.43203	6.07914
57680	1.51607	1.50918	1.40497	5.99334	5.90280	5.77822	3.15017	2.57900	2.05588	5.58486	5.60154	5.48308	1.91865	1.80057	1.70646	6.75291	6.43330	6.08111	32.91	6.1	0.00	-2.04	0.01740	0.01204	0.01523	0.01834	0.01895	0.01482	0.00548	0.01520	0.02016	0.01870	0.01299	0.01655	0.01714	0.01772	0.01383	0.00572	0.01612	0.02155
57840	1.51611	1.51002	1.40943	5.99592	5.90522	5.77993	3.14872	2.58133	2.05816	5.58716	5.60339	5.48354	1.92001	1.79678	1.70445	6.75122	6.42951	6.07633
58010	1.51647	1.51059	1.41171	5.99641	5.90773	5.78331	3.16046	2.58403	2.06114	5.59047	5.60501	5.48607	1.92078	1.80192	1.70765	6.75583	6.43425	6.08072
58170	1.51675	1.51045	1.40959	5.99483	5.90453	5.77907	3.15359	2.58176	2.05806	5.58748	5.60234	5.48389	1.91784	1.79507	1.70389	6.75080	6.42951	6.07712
58340	1.51281	1.50770	1.40776	5.99296	5.90429	5.77911	3.15697	2.58099	2.05536	5.58701	5.60241	5.48390	1.91747	1.79672	1.70346	6.75149	6.42997	6.07807
58500	1.51496	1.50756	1.41127	5.99667	5.90833	5.78422	3.15730	2.58261	2.05928	5.59250	5.60674	5.48903	1.92016	1.80083	1.70493	6.75429	6.43463	6.08305
58670	1.51697	1.50851	1.40810	5.99613	5.90594	5.78149	3.14943	2.57751	2.05527	5.58973	5.60313	5.48484	1.91979	1.79845	1.70639	6.75403	6.43464	6.08152
58830	1.51605	1.50917	1.40830	5.99544	5.90432	5.78032	3.15223	2.57685	2.05401	5.58822	5.60160	5.48522	1.91657	1.79472	1.70054	6.74734	6.42845	6.07642
58990	1.51385	1.50889	1.40781	5.99234	5.90371	5.78100	3.15014	2.57974	2.05516	5.58922	5.60318	5.48483	1.91876	1.79692	1.70217	6.75045	6.43004	6.07759
59160	1.51222	1.50694	1.40614	5.99127	5.90001	5.77809	3.14766	2.57391	2.05224	5.58656	5.59981	5.48213	1.91463	1.79482	1.70239	6.74992	6.42915	6.07749
59330	1.51369	1.50755	1.40714	5.99201	5.90168	5.77906	3.14628	2.57487	2.05337	5.58816	5.60083	5.48433	1.91805	1.79874	1.70291	6.74930	6.43053	6.07856	32.91	6.0	0.00	-2.04	0.01740	0.01204	0.01523	0.01834	0.01895	0.01482	0.00548	0.01520	0.02016	0.01870	0.01299	0.01655	0.01714	0.01772	0.01383	0.00572	0.01612	0.02155
59490	1.51596	1.51072	1.40759	5.99252	5.90321	5.78041	3.15176	2.57801	2.05456	5.58836	5.60175	5.48496	1.91683	1.79682	1.70324	6.74512	6.42627	6.07472
59650	1.51240	1.50916	1.40798	5.99019	5.90153	5.78006	3.15495	2.58085	2.05639	5.58846	5.60136	5.48447	1.91772	1.79778	1.70361	6.75038	6.42757	6.07588
59820	1.51564	1.51026	1.40751	5.98987	5.89983	5.77763	3.15215	2.58001	2.05358	5.58614	5.59935	5.48239	1.91916	1.79947	1.70595	6.75011	6.42989	6.07857
59980	1.51669	1.51172	1.40951	5.99128	5.90162	5.77919	3.14886	2.58032	2.05488	5.58868	5.60032	5.48420	1.91658	1.79744	1.70241	6.74335	6.42556	6.07381
60150	1.51440	1.50719	1.40563	5.98679	5.89671	5.77425	3.14545	2.57621	2.05182	5.58501	5.59584	5.48065	1.91475	1.79380	1.70082	6.73852	6.42229	6.07112
60310	1.51238	1.50446	1.40518	5.98344	5.89386	5.77084	3.14467	2.57186	2.04827	5.58226	5.59467	5.47773	1.91427	1.79781	1.70388	6.74105	6.42461	6.07438
60480	1.51481	1.50737	1.40474	5.98697	5.89681	5.77455	3.15705	2.57615	2.05465	5.58504	5.59620	5.48204	1.91447	1.79560	1.70127	6.73829	6.42227	6.07046
60640	1.51133	1.50503	1.40613	5.98530	5.89656	5.77581	3.14892	2.57725	2.05258	5.58575	5.59781	5.48199	1.91260	1.79424	1.70094	6.74178	6.42098	6.07067
60810	1.51147	1.50701	1.40735	5.98676	5.89673	5.77586	3.14467	2.58086	2.05496	5.58477	5.59747	5.48119	1.91451	1.79626	1.70125	6.74005	6.42237	6.07218
60970	1.51351	1.50818	1.40575	5.98338	5.89349	5.77148	3.14835	2.57280	2.05067	5.58094	5.59390	5.47736	1.91247	1.79775	1.70587	6.73824	6.42153	6.07184	32.91	6.0	0.00	-2.04	0.01740	0.01204	0.01523	0.01834	0.01895	0.01482	0.00548	0.01519	0.02016	0.01870	0.01299	0.01655	0.01714	0.01772	0.01383	0.00572	0.01612	0.02155
61140	1.51383	1.50854	1.40668	5.98455	5.89465	5.77404	3.15754	2.57719	2.05301	5.58262	5.59593	5.47834	1.91593	1.79373	1.70152	6.73678	6.41672	6.06698
61300	1.51488	1.50888	1.40949	5.98506	5.89694	5.77447	3.15399	2.58221	2.05885	5.58410	5.59695	5.48076	1.91877	1.79955	1.70257	6.73985	6.42034	6.06889
61470	1.51359	1.50607	1.40715	5.98257	5.89230	5.77008	3.15254	2.57785	2.05559	5.58049	5.59319	5.47668	1.91578	1.79619	1.70022	6.73498	6.41341	6.06312
61630	1.51303	1.50545	1.40450	5.97809	5.89035	5.76754	3.15135	2.57895	2.05286	5.57830	5.59118	5.47456	1.91483	1.79391	1.70067	6.73138	6.41142	6.06104
61800	1.51193	1.50820	1.40744	5.97755	5.88964	5.76746	3.15776	2.57800	2.05750	5.57681	5.58950	5.47425	1.91877	1.79617	1.70471	6.72824	6.41196	6.06156
61960	1.51465	1.50988	1.40734	5.97706	5.88899	5.76557	3.15206	2.58081	2.05630	5.57558	5.58924	5.47242	1.91648	1.79778	1.70374	6.73383	6.41064	6.06019
62130	1.51119	1.50831	1.40952	5.97530	5.88821	5.76539	3.15467	2.58122	2.05738	5.57555	5.58867	5.47234	1.91670	1.79825	1.70330	6.73314	6.41107	6.05971
62290	1.51370	1.50806	1.40777	5.97543	5.88572	5.76248	3.15373	2.58009	2.05530	5.57315	5.58639	5.47054	1.91853	1.79861	1.70523	6.73360	6.41251	6.06284
62460	1.51598	1.51108	1.40844	5.97865	5.88906	5.76540	3.15880	2.58360	2.05634	5.57634	5.58849	5.47275	1.91858	1.79885	1.70307	6.73713	6.41121	6.06101
62620	1.51481	1.50880	1.40777	5.97637	5.88991	5.76693	3.16044	2.58237	2.05801	5.57881	5.59019	5.47429	1.92024	1.79871	1.70576	6.73460	6.41458	6.06269	32.91	6.2	0.00	-2.04	0.01740	0.01204	0.01523	0.01834	0.01895	0.01482	0.00548	0.01519	0.02016	0.01870	0.01299	0.01655	0.01714	0.01772	0.01383	0.00572	0.01612	0.02155
62780	1.51462	1.50753	1.40614	5.97756	5.88768	5.76448	3.15586	2.57878	2.05325	5.57512	5.58756	5.47054	1.91872	1.80012	1.70501	6.73441	6.41431	6.06299
62950	1.51530	1.50819	1.40839	5.97702	5.88764	5.76530	3.14987	2.57671	2.05537	5.57435	5.58737	5.47102	1.91726	1.79735	1.70418	6.72958	6.40961	6.05855
63110	1.51463	1.50915	1.40727	5.97457	5.88638	5.76149	3.14787	2.58188	2.05410	5.57249	5.58494	5.46908	1.91600	1.79780	1.70524	6.72851	6.40827	6.05757
63280	1.51384	1.50776	1.40693	5.97250	5.88335	5.75875	3.15441	2.58228	2.05772	5.57079	5.58267	5.46641	1.91761	1.79909	1.70695	6.72790	6.40689	6.05600
63440	1.51407	1.50954	1.40630	5.97031	5.88306	5.75805	3.16018	2.58095	2.05913	5.57027	5.58227	5.46706	1.91958	1.80009	1.70470	6.73058	6.40567	6.05478
63610	1.51532	1.50966	1.40956	5.97041	5.88204	5.75790	3.15299	2.58355	2.05920	5.57148	5.58228	5.46647	1.91929	1.80098	1.70793	6.72740	6.40550	6.05532
63770	1.51419	1.50974	1.40665	5.96837	5.87891	5.75490	3.15338	2.58109	2.05620	5.56642	5.57866	5.46372	1.91855	1.80082	1.70721	6.72487	6.40532	6.05522
63940	1.51592	1.51104	1.40866	5.96815	5.87964	5.75487	3.16002	2.58079	2.05954	5.56648	5.58066	5.46316	1.91828	1.79943	1.70742	6.72456	6.40263	6.05141
64100	1.51751	1.51346	1.41121	5.96953	5.88322	5.75879	3.15112	2.58971	2.06350	5.56873	5.58243	5.46560	1.92303	1.80359	1.70856	6.72740	6.40817	6.05562
64270	1.51683	1.51066	1.40949	5.96961	5.87945	5.75604	3.16018	2.58352	2.05771	5.56802	5.58026	5.46516	1.91945	1.79914	1.70563	6.72643	6.40539	6.05273	32.91	6.1	0.00	-2.04	0.01740	0.01204	0.01523	0.01834	0.01895	0.01482	0.00548	0.01519	0.02016	0.01870	0.01299	0.01655	0.01713	0.01772	0.01383	0.00572	0.01612	0.02155
64430	1.51385	1.50844	1.40774	5.96729	5.87903	5.75547	3.15689	2.58278	2.05763	5.56702	5.58103	5.46526	1.91923	1.79835	1.70373	6.72298	6.40457	6.05241
64600	1.51338	1.50957	1.40762	5.96696	5.87869	5.75546	3.15982	2.58295	2.05842	5.56732	5.57965	5.46479	1.91983	1.79910	1.70615	6.72432	6.40684	6.05440
64760	1.51398	1.51110	1.40944	5.96777	5.87927	5.75587	3.15473	2.58352	2.05944	5.56799	5.58036	5.46464	1.91703	1.79991	1.70522	6.72739	6.40526	6.05239
64930	1.51353	1.51056	1.40719	5.96469	5.87758	5.75697	3.15902	2.58573	2.06004	5.56865	5.58011	5.46532	1.91905	1.79790	1.70493	6.72754	6.40513	6.05254
65090	1.51536	1.50878	1.40957	5.96572	5.87550	5.75242	3.15434	2.58130	2.05846	5.56459	5.57522	5.46115	1.92200	1.80073	1.70765	6.72501	6.40517	6.05333
65260	1.51688	1.51002	1.41079	5.96527	5.87590	5.75328	3.15257	2.58552	2.06102	5.56461	5.57653	5.46038	1.92102	1.79937	1.70466	6.72248	6.40181	6.04874
65420	1.51540	1.50983	1.41004	5.96087	5.87246	5.75183	3.15489	2.58451	2.06029	5.56346	5.57418	5.45901	1.92068	1.79894	1.70673	6.72199	6.40097	6.04785
65580	1.51598	1.50780	1.40753	5.95948	5.86959	5.74726	3.15589	2.58248	2.05856	5.56105	5.57112	5.45658	1.92182	1.80217	1.70829	6.72375	6.40346	6.05115
65750	1.51616	1.50950	1.40916	5.96151	5.87202	5.75103	3.15837	2.58470	2.06094	5.56236	5.57286	5.45827	1.92097	1.79725	1.70624	6.71812	6.39764	6.04578
65910	1.51486	1.51296	1.40980	5.95858	5.86997	5.74914	3.15449	2.58400	2.06032	5.56209	5.57156	5.45787	1.92149	1.79840	1.70475	6.71667	6.39796	6.04520	32.86	6.2	0.00	-2.04	0.01740	0.01204	0.01523	0.01834	0.01895	0.01482	0.00548	0.01519	0.02016	0.01870	0.01299	0.01655	0.01714	0.01772	0.01383	0.00572	0.01612	0.02155
66080	1.51426	1.50918	1.40779	5.95557	5.86754	5.74545	3.15836	2.57981	2.05713	5.55836	5.56954	5.45450	1.92223	1.79967	1.70812	6.71629	6.39788	6.04682
66240	1.51741	1.50877	1.40913	5.95685	5.86817	5.74773	3.15846	2.58533	2.05992	5.56095	5.57019	5.45684	1.92181	1.79798	1.70588	6.71541	6.39568	6.04446
66410	1.51641	1.51263	1.41133	5.95872	5.87032	5.74891	3.15727	2.58603	2.06327	5.56296	5.57232	5.45800	1.92454	1.80363	1.70568	6.71648	6.39692	6.04632
66570	1.51528	1.51046	1.40951	5.95565	5.86656	5.74491	3.15146	2.58216	2.05956	5.55871	5.56723	5.45395	1.92456	1.80472	1.71102	6.71675	6.39871	6.04776
66740	1.51912	1.51462	1.41192	5.95680	5.86846	5.74622	3.15691	2.58934	2.06269	5.56060	5.56983	5.45474	1.92138	1.80135	1.70836	6.71430	6.39515	6.04348
66900	1.51625	1.51256	1.41076	5.95413	5.86630	5.74487	3.15195	2.58567	2.06138	5.55964	5.56788	5.45470	1.92170	1.80046	1.70844	6.71331	6.39410	6.04287
67070	1.51675	1.51109	1.40843	5.95394	5.86642	5.74557	3.15881	2.58942	2.06395	5.55982	5.56772	5.45530	1.92326	1.80312	1.70815	6.71354	6.39410	6.04263
67230	1.51468	1.51076	1.41111	5.95317	5.86684	5.74468	3.15250	2.58403	2.06193	5.56092	5.56727	5.45467	1.92269	1.80253	1.70721	6.71285	6.39394	6.04197
67400	1.51612	1.51171	1.41184	5.95256	5.86603	5.74562	3.16159	2.58652	2.06197	5.56132	5.56897	5.45563	1.92625	1.80369	1.71049	6.71591	6.39685	6.04537
67560	1.51837	1.51448	1.41375	5.95586	5.86906	5.74940	3.16261	2.59092	2.06373	5.56265	5.57030	5.45745	1.92323	1.80403	1.70819	6.71564	6.39571	6.04362	32.91	6.1	0.00	-2.04	0.01740	0.01204	0.01523	0.01834	0.01895	0.01482	0.00548	0.01519	0.02016	0.01870	0.01299	0.01655	0.01714	0.01772	0.01383	0.00572	0.01612	0.02155
67730	1.51693	1.51223	1.41009	5.95357	5.86560	5.74389	3.15922	2.58500	2.06114	5.55878	5.56557	5.45429	1.92312	1.80080	1.70512	6.71220	6.39417	6.04182
67890	1.51672	1.51211	1.40878	5.95198	5.86486	5.74398	3.15193	2.58413	2.06120	5.55910	5.56589	5.45414	1.92461	1.80341	1.70650	6.71637	6.39582	6.04427
68060	1.51725	1.51401	1.41263	5.95434	5.86763	5.74696	3.15390	2.58393	2.06243	5.56049	5.56834	5.45639	1.92354	1.80002	1.70787	6.71480	6.39324	6.04254
68220	1.51617	1.51143	1.41046	5.95267	5.86779	5.74642	3.16445	2.59013	2.06373	5.56183	5.56966	5.45629	1.92335	1.80098	1.70770	6.71522	6.39415	6.04145
68380	1.51448	1.50758	1.40633	5.95136	5.86555	5.74348	3.15480	2.58218	2.05793	5.55927	5.56564	5.45354	1.92125	1.80158	1.70561	6.71649	6.39530	6.04352
68550	1.51626	1.50854	1.40818	5.95378	5.86645	5.74530	3.16028	2.58491	2.05979	5.56029	5.56733	5.45520	1.92231	1.79929	1.70821	6.71339	6.39210	6.03980
68710	1.51348	1.51009	1.40938	5.95270	5.86764	5.74655	3.15232	2.58376	2.06048	5.56176	5.56838	5.45580	1.92219	1.79994	1.70518	6.71304	6.39386	6.04150
68880	1.51499	1.51033	1.40865	5.95202	5.86718	5.74590	3.15248	2.58421	2.06033	5.56094	5.56796	5.45592	1.92229	1.80021	1.70666	6.71687	6.39567	6.04335
