WetView ver 7.1	07-17-2019	11:11:10
AC9 Absorption and Attenuation Meter
00000311		; Serial number
2	; structure version number
Reserved
0.000000	0.000000		; Depth calibration
19200			; Baud rate
0.100000			; Path length (meters)
23			; number of temperature calibration bins
				12.61517	13.44096	14.46844	15.49904	16.50682	17.50108	18.49752	19.51783	20.49177	21.49009	22.48286	23.50673	24.54012	25.54812	26.49986	27.49321	28.50960	29.48671	30.47471	31.49432	32.50437	33.48679	34.49133	; temperature bins
a650	Blue	18.61587		0.01156	0.01096	0.01010	0.00930	0.00851	0.00774	0.00661	0.00573	0.00499	0.00402	0.00285	0.00203	0.00096	0.00000	-0.00110	-0.00152	-0.00210	-0.00247	-0.00259	-0.00317	-0.00346	-0.00380	-0.00403		; offset and temperature correction info
a676	Green	18.78942		0.00964	0.00899	0.00863	0.00813	0.00730	0.00639	0.00545	0.00448	0.00385	0.00301	0.00233	0.00165	0.00046	0.00000	-0.00106	-0.00167	-0.00251	-0.00280	-0.00316	-0.00329	-0.00377	-0.00392	-0.00441		; offset and temperature correction info
a715	Brown	18.59217		0.01171	0.01109	0.01043	0.00975	0.00878	0.00789	0.00685	0.00572	0.00469	0.00356	0.00255	0.00160	0.00061	0.00000	-0.00063	-0.00113	-0.00152	-0.00183	-0.00226	-0.00293	-0.00364	-0.00404	-0.00473		; offset and temperature correction info
c510	Red	18.18396		-0.00549	-0.00480	-0.00383	-0.00272	-0.00202	-0.00118	-0.00044	-0.00038	-0.00015	-0.00021	0.00013	0.00007	-0.00007	0.00000	-0.00007	-0.00065	-0.00045	-0.00018	0.00007	0.00039	-0.00001	-0.00002	-0.00045		; offset and temperature correction info
c532	Magenta	18.26528		-0.00721	-0.00645	-0.00581	-0.00518	-0.00465	-0.00345	-0.00281	-0.00270	-0.00182	-0.00141	-0.00108	-0.00072	-0.00022	0.00000	0.00044	0.00030	0.00031	-0.00006	-0.00052	-0.00089	-0.00142	-0.00149	-0.00154		; offset and temperature correction info
c555	Black	18.37125		-0.00430	-0.00419	-0.00381	-0.00319	-0.00286	-0.00254	-0.00205	-0.00196	-0.00138	-0.00137	-0.00067	-0.00051	-0.00030	0.00000	0.00067	0.00087	0.00057	0.00027	-0.00015	-0.00089	-0.00127	-0.00137	-0.00150		; offset and temperature correction info
a412	LtBlue	15.33566		-0.06011	-0.05567	-0.05012	-0.04441	-0.03922	-0.03412	-0.02941	-0.02503	-0.02049	-0.01588	-0.01121	-0.00784	-0.00311	0.00000	0.00273	0.00611	0.00757	0.00871	0.01066	0.01299	0.01539	0.01781	0.02175		; offset and temperature correction info
a440	LtGreen	16.05925		-0.01380	-0.01214	-0.01039	-0.00858	-0.00690	-0.00532	-0.00426	-0.00322	-0.00230	-0.00158	-0.00055	0.00006	0.00001	0.00000	0.00017	0.00016	-0.00094	-0.00222	-0.00363	-0.00486	-0.00567	-0.00651	-0.00782		; offset and temperature correction info
a488	Yellow	16.82827		0.00255	0.00293	0.00331	0.00354	0.00373	0.00378	0.00363	0.00350	0.00291	0.00225	0.00215	0.00142	0.00099	0.00000	-0.00092	-0.00169	-0.00295	-0.00396	-0.00479	-0.00542	-0.00582	-0.00604	-0.00663		; offset and temperature correction info
c650	Blue	18.49287		-0.00570	-0.00516	-0.00456	-0.00403	-0.00346	-0.00232	-0.00132	-0.00122	-0.00073	-0.00066	-0.00035	-0.00016	0.00003	0.00000	0.00044	0.00078	0.00108	0.00057	0.00040	-0.00042	-0.00033	-0.00029	-0.00034		; offset and temperature correction info
c676	Green	18.50570		0.00299	0.00293	0.00287	0.00293	0.00278	0.00294	0.00317	0.00251	0.00243	0.00215	0.00139	0.00123	0.00068	0.00000	-0.00041	-0.00106	-0.00205	-0.00268	-0.00325	-0.00413	-0.00495	-0.00610	-0.00674		; offset and temperature correction info
c715	Brown	17.88888		0.00826	0.00812	0.00773	0.00790	0.00766	0.00758	0.00753	0.00650	0.00571	0.00461	0.00359	0.00222	0.00101	0.00000	-0.00146	-0.00284	-0.00385	-0.00448	-0.00463	-0.00513	-0.00623	-0.00715	-0.00838		; offset and temperature correction info
a510	Red	17.18050		0.00353	0.00364	0.00354	0.00361	0.00381	0.00381	0.00356	0.00332	0.00277	0.00229	0.00176	0.00116	0.00036	0.00000	-0.00014	-0.00069	-0.00088	-0.00147	-0.00150	-0.00129	-0.00120	-0.00134	-0.00091		; offset and temperature correction info
a532	Magenta	17.40228		0.00550	0.00548	0.00526	0.00479	0.00464	0.00422	0.00393	0.00328	0.00253	0.00212	0.00136	0.00085	0.00039	0.00000	-0.00059	-0.00146	-0.00188	-0.00262	-0.00330	-0.00393	-0.00491	-0.00540	-0.00605		; offset and temperature correction info
a555	Black	17.72308		0.00849	0.00832	0.00800	0.00760	0.00724	0.00655	0.00580	0.00495	0.00435	0.00347	0.00252	0.00153	0.00049	0.00000	-0.00050	-0.00155	-0.00214	-0.00306	-0.00350	-0.00411	-0.00470	-0.00539	-0.00570		; offset and temperature correction info
c412	LtBlue	16.72802		-0.05949	-0.05458	-0.04744	-0.04134	-0.03547	-0.03064	-0.02511	-0.02047	-0.01574	-0.01163	-0.00761	-0.00442	-0.00204	0.00000	0.00100	0.00051	-0.00043	-0.00239	-0.00475	-0.00629	-0.00827	-0.00955	-0.01337		; offset and temperature correction info
c440	LtGreen	17.42637		-0.02723	-0.02503	-0.02216	-0.01930	-0.01691	-0.01394	-0.01125	-0.00926	-0.00732	-0.00582	-0.00401	-0.00226	-0.00093	0.00000	0.00082	0.00123	0.00133	0.00097	0.00038	-0.00003	-0.00022	-0.00023	-0.00125		; offset and temperature correction info
c488	Yellow	18.03666		-0.00640	-0.00554	-0.00465	-0.00357	-0.00276	-0.00154	-0.00067	-0.00031	-0.00014	-0.00012	0.00046	0.00032	0.00020	0.00000	0.00001	-0.00024	-0.00060	-0.00084	-0.00126	-0.00180	-0.00276	-0.00304	-0.00427		; offset and temperature correction info
0.003500	0.004000	0.015000	0.020000	0.015000	0.020000	2500.000000	2000.000000	1000.000000	; maxANoise	maxCNoise	maxADifference	maxCDifference	minACounts	minCCounts	minRCounts	maxTempSdev	maxDepthSdev
0			; auxilliary capabilities
1			; acquisition binsize
0	1.66228	1.65772	1.56743	6.91993	6.90435	6.70621	4.07627	3.10225	2.31660	6.66432	6.59306	6.55190	2.12295	1.97798	1.86205	8.44693	7.64821	7.02457	35.15	6.1	0.00	-2.04	0.01725	0.01195	0.01512	0.01837	0.01897	0.01483	0.00543	0.01507	0.01995	0.01866	0.01296	0.01650	0.01697	0.01755	0.01371	0.00576	0.01621	0.02158
160	1.66685	1.66069	1.56843	6.92399	6.91092	6.70990	4.09344	3.10789	2.32099	6.66675	6.59551	6.55421	2.12213	1.97450	1.86018	8.44617	7.64702	7.02212
330	1.66262	1.65778	1.56596	6.92248	6.90550	6.70560	4.08476	3.10336	2.31621	6.66682	6.59467	6.55284	2.11908	1.97009	1.85569	8.44387	7.64542	7.02163
490	1.65963	1.65695	1.57044	6.91779	6.90756	6.70681	4.08604	3.10843	2.32095	6.66789	6.59573	6.55506	2.12201	1.97323	1.85812	8.44378	7.64751	7.02372
660	1.66254	1.65893	1.56810	6.92110	6.90527	6.70673	4.07463	3.10438	2.31664	6.66357	6.59165	6.55109	2.12196	1.97914	1.86385	8.44874	7.65372	7.03029
820	1.66381	1.65979	1.56906	6.92536	6.90859	6.71077	4.07937	3.11012	2.31986	6.66586	6.59377	6.55851	2.12218	1.97232	1.85793	8.44910	7.64890	7.02476
990	1.66426	1.65702	1.56918	6.92242	6.90930	6.70950	4.08494	3.10486	2.31874	6.66559	6.59594	6.55511	2.12046	1.97417	1.85667	8.44838	7.64798	7.02365
1150	1.66256	1.65699	1.56667	6.92277	6.91038	6.70856	4.08519	3.10566	2.31613	6.66858	6.59880	6.55735	2.12046	1.97463	1.86028	8.44802	7.64853	7.02267
1320	1.66203	1.65900	1.56895	6.92411	6.90836	6.70688	4.07987	3.10591	2.31597	6.66996	6.59711	6.55575	2.12194	1.97374	1.85835	8.44797	7.65167	7.02522
1480	1.66140	1.65962	1.56708	6.92508	6.91164	6.70956	4.07987	3.10797	2.31773	6.67106	6.59815	6.55675	2.11939	1.97076	1.85739	8.45027	7.65009	7.02335
1650	1.66225	1.65977	1.56873	6.92500	6.91160	6.71429	4.08206	3.10754	2.31974	6.67290	6.60049	6.55993	2.12137	1.97269	1.85973	8.45411	7.65090	7.02610	35.10	6.2	0.00	-2.04	0.01725	0.01195	0.01512	0.01837	0.01897	0.01483	0.00543	0.01507	0.01995	0.01866	0.01296	0.01650	0.01697	0.01755	0.01371	0.00576	0.01621	0.02158
1810	1.66179	1.65571	1.56519	6.92437	6.90925	6.71024	4.08474	3.10418	2.31642	6.66971	6.59776	6.55491	2.12251	1.97482	1.86025	8.45596	7.65364	7.02970
1980	1.66262	1.66136	1.56729	6.92763	6.91505	6.71627	4.08710	3.10519	2.31954	6.66732	6.60100	6.55974	2.12212	1.97310	1.85656	8.44987	7.65181	7.02559
2140	1.66111	1.65741	1.56567	6.92771	6.91284	6.71018	4.07654	3.10059	2.31628	6.67508	6.60077	6.55583	2.11923	1.97006	1.85525	8.45253	7.64942	7.02487
2310	1.66011	1.65883	1.56656	6.92884	6.91214	6.71334	4.07514	3.10382	2.31553	6.67353	6.60074	6.55870	2.11847	1.97359	1.85858	8.44766	7.64975	7.02690
2470	1.65936	1.65539	1.56488	6.92446	6.91018	6.70980	4.07365	3.10043	2.31394	6.67049	6.59938	6.55804	2.12039	1.96909	1.85528	8.45560	7.65278	7.02638
2640	1.65976	1.65833	1.56750	6.92670	6.90983	6.70988	4.08860	3.10718	2.31751	6.67039	6.59744	6.55864	2.12356	1.97447	1.85712	8.45271	7.65646	7.03081
2800	1.66075	1.65434	1.56582	6.92826	6.91391	6.71007	4.07957	3.10534	2.31719	6.67138	6.59942	6.55534	2.12441	1.97417	1.86166	8.45510	7.65643	7.03085
2970	1.66109	1.65990	1.56622	6.93003	6.91518	6.71361	4.07514	3.10455	2.31923	6.67230	6.59870	6.55886	2.12257	1.97285	1.85927	8.44766	7.65472	7.03030
3130	1.65985	1.65717	1.56705	6.92639	6.91853	6.71866	4.07950	3.10852	2.31945	6.67257	6.60160	6.56392	2.12466	1.97733	1.86183	8.45154	7.65600	7.03162
3300	1.66118	1.65986	1.56862	6.92997	6.91783	6.71658	4.07386	3.10520	2.31553	6.67605	6.60176	6.55924	2.12015	1.97250	1.85819	8.45105	7.65147	7.02620	35.10	6.1	0.00	-2.04	0.01725	0.01195	0.01512	0.01837	0.01897	0.01483	0.00543	0.01507	0.01995	0.01866	0.01296	0.01650	0.01697	0.01755	0.01371	0.00576	0.01621	0.02158
3460	1.66082	1.65843	1.56586	6.92538	6.91356	6.71335	4.07097	3.10190	2.31382	6.67910	6.60178	6.56271	2.11919	1.96960	1.85881	8.45777	7.65490	7.02518
3630	1.66223	1.65800	1.56740	6.92632	6.91523	6.71254	4.08160	3.10661	2.31891	6.67264	6.60246	6.56437	2.11839	1.96862	1.85381	8.45597	7.65527	7.02865
3790	1.65894	1.65852	1.56839	6.92754	6.91340	6.71215	4.08677	3.11043	2.32294	6.67102	6.60468	6.56380	2.12520	1.97428	1.85775	8.45692	7.65857	7.03154
3960	1.65803	1.65491	1.56310	6.92867	6.91169	6.71105	4.07397	3.10197	2.31684	6.67158	6.59906	6.55743	2.12474	1.97742	1.86204	8.45660	7.65934	7.03517
4120	1.66440	1.65965	1.56761	6.93057	6.91879	6.71930	4.08888	3.10588	2.31679	6.67532	6.60564	6.56375	2.12325	1.97353	1.85992	8.45800	7.65592	7.03012
4290	1.65952	1.65677	1.56421	6.92981	6.91744	6.71607	4.07817	3.10441	2.31568	6.67600	6.60357	6.56275	2.11971	1.97233	1.85726	8.45795	7.65624	7.03045
4450	1.65960	1.65877	1.56826	6.92742	6.91503	6.71749	4.08645	3.10609	2.31817	6.67545	6.60602	6.56723	2.12273	1.97198	1.85861	8.45728	7.65984	7.03140
4620	1.65979	1.65578	1.56565	6.92863	6.91608	6.71519	4.07596	3.10484	2.31539	6.67120	6.60367	6.56282	2.12238	1.97506	1.86011	8.46387	7.65839	7.03226
4780	1.66063	1.65746	1.56658	6.93070	6.91585	6.71583	4.08742	3.10571	2.31807	6.67812	6.60346	6.56235	2.12122	1.97295	1.85669	8.45615	7.65491	7.02978
4950	1.66356	1.66225	1.56855	6.93235	6.91929	6.72020	4.08627	3.10952	2.32179	6.67989	6.60720	6.56669	2.12516	1.97655	1.85981	8.46040	7.65934	7.03404	35.10	6.0	0.00	-2.04	0.01725	0.01195	0.01512	0.01837	0.01897	0.01483	0.00543	0.01507	0.01995	0.01866	0.01296	0.01650	0.01697	0.01755	0.01371	0.00576	0.01621	0.02158
5110	1.66145	1.65689	1.56693	6.93196	6.91856	6.71999	4.07521	3.10272	2.31660	6.67695	6.60678	6.56435	2.12088	1.97265	1.85895	8.45588	7.65658	7.03055
5280	1.65958	1.65675	1.56919	6.92963	6.91584	6.71717	4.08331	3.10735	2.31770	6.67667	6.60559	6.56576	2.12235	1.97355	1.85753	8.45692	7.65789	7.03279
5440	1.65980	1.65847	1.56652	6.93053	6.91832	6.71695	4.07357	3.10538	2.31588	6.67602	6.60685	6.56608	2.12070	1.97446	1.85896	8.45476	7.65944	7.03407
5610	1.66193	1.65720	1.56717	6.93102	6.91889	6.71887	4.07118	3.10558	2.31758	6.67627	6.60688	6.56589	2.12111	1.97299	1.85737	8.45923	7.65411	7.03107
5770	1.65828	1.65722	1.56747	6.92973	6.91901	6.71908	4.08481	3.10983	2.31933	6.68020	6.60997	6.56676	2.12349	1.97537	1.85814	8.45927	7.65812	7.03250
5940	1.66071	1.65563	1.56692	6.92989	6.91582	6.71732	4.07232	3.10400	2.31459	6.67723	6.60554	6.56598	2.12335	1.97528	1.86266	8.46126	7.66305	7.03694
6100	1.66193	1.65907	1.56831	6.93528	6.92149	6.72160	4.07942	3.10803	2.31817	6.68236	6.61137	6.57139	2.12255	1.97567	1.86202	8.45986	7.66054	7.03454
6270	1.66117	1.65849	1.56582	6.93211	6.92040	6.72050	4.07175	3.10307	2.31823	6.68004	6.60885	6.56717	2.12163	1.97324	1.85708	8.45959	7.65771	7.03324
6430	1.66000	1.65787	1.56529	6.93276	6.92087	6.72266	4.08477	3.10583	2.31774	6.68198	6.61214	6.57045	2.12134	1.97429	1.85886	8.46013	7.66035	7.03475
6600	1.65906	1.65595	1.56524	6.93209	6.92012	6.71864	4.07575	3.10372	2.31597	6.67901	6.60853	6.56762	2.12121	1.97366	1.85954	8.46188	7.66074	7.03644	35.10	6.0	0.00	-2.04	0.01725	0.01195	0.01512	0.01837	0.01897	0.01483	0.00543	0.01507	0.01995	0.01866	0.01296	0.01650	0.01698	0.01755	0.01371	0.00576	0.01621	0.02158
6760	1.66261	1.65929	1.56731	6.93439	6.92175	6.72151	4.07960	3.10758	2.31953	6.68240	6.61056	6.56950	2.12184	1.97220	1.85877	8.46161	7.65870	7.03526
6930	1.66348	1.66136	1.56921	6.93491	6.92391	6.72683	4.07774	3.10877	2.32043	6.68751	6.61523	6.57613	2.12408	1.97561	1.86012	8.46744	7.66179	7.03985
7090	1.66287	1.66054	1.56771	6.93760	6.92105	6.72177	4.08566	3.10426	2.31515	6.68593	6.61298	6.57119	2.12027	1.96966	1.85517	8.46224	7.65998	7.03497
7260	1.65846	1.65649	1.56551	6.93284	6.92025	6.72219	4.07607	3.10270	2.31357	6.68156	6.61097	6.56885	2.12189	1.97204	1.85987	8.46161	7.66136	7.03713
7420	1.66041	1.65809	1.56531	6.93592	6.92399	6.72397	4.07418	3.10560	2.31596	6.68085	6.61018	6.57025	2.12186	1.97117	1.85683	8.46025	7.65861	7.03516
7590	1.66026	1.65853	1.56658	6.93530	6.92265	6.72240	4.08024	3.10502	2.31630	6.68250	6.61010	6.57099	2.12025	1.97130	1.85738	8.46314	7.65953	7.03645
7750	1.65989	1.65325	1.56524	6.93220	6.91898	6.71850	4.07043	3.10158	2.31311	6.67871	6.60866	6.56794	2.11902	1.97199	1.85651	8.45944	7.66052	7.03654
7920	1.66069	1.65888	1.56603	6.93547	6.92455	6.72353	4.07867	3.10358	2.31769	6.68328	6.61306	6.57153	2.12291	1.97521	1.85850	8.46328	7.66167	7.03824
8080	1.66020	1.65778	1.56464	6.93657	6.92416	6.72304	4.07125	3.10456	2.31572	6.68337	6.61329	6.57141	2.12179	1.97333	1.86031	8.47282	7.66520	7.03988
8250	1.66165	1.65988	1.56813	6.94043	6.92776	6.72592	4.07852	3.10532	2.31678	6.68574	6.61384	6.57263	2.12203	1.97142	1.85738	8.46864	7.66426	7.03955	35.10	6.1	0.00	-2.04	0.01725	0.01195	0.01512	0.01837	0.01897	0.01483	0.00543	0.01507	0.01995	0.01866	0.01296	0.01650	0.01698	0.01755	0.01371	0.00576	0.01621	0.02158
8410	1.65823	1.66002	1.56477	6.93983	6.92573	6.72412	4.08063	3.10577	2.31589	6.68488	6.61504	6.57259	2.11928	1.97414	1.85641	8.46660	7.66286	7.03826
8580	1.66156	1.65969	1.56602	6.94066	6.92818	6.72494	4.08591	3.10849	2.32018	6.68739	6.61591	6.57455	2.12391	1.97290	1.86149	8.46534	7.66444	7.04048
8740	1.66079	1.65769	1.56571	6.93919	6.92569	6.72628	4.07678	3.10317	2.31627	6.68723	6.61578	6.57311	2.12194	1.97195	1.85721	8.46385	7.66326	7.03978
8910	1.65793	1.65643	1.56346	6.93854	6.92460	6.72431	4.07285	3.10132	2.31537	6.68606	6.61338	6.57094	2.12144	1.97408	1.85896	8.46841	7.66742	7.04508
9070	1.66053	1.65790	1.56547	6.94087	6.92789	6.72691	4.07710	3.10459	2.31731	6.68759	6.61826	6.57440	2.12182	1.97234	1.85785	8.46891	7.66649	7.04170
9240	1.65917	1.65955	1.56856	6.94122	6.92910	6.73062	4.08331	3.10566	2.31638	6.69285	6.61928	6.57750	2.12223	1.97242	1.85980	8.47112	7.66912	7.04586
9400	1.66100	1.65593	1.56475	6.94176	6.92813	6.72929	4.07303	3.10151	2.31224	6.68840	6.61695	6.57775	2.11906	1.97033	1.85784	8.47035	7.66746	7.04310
9570	1.65930	1.65553	1.56319	6.94015	6.92910	6.72893	4.07453	3.09982	2.31524	6.68783	6.61942	6.57758	2.11898	1.97135	1.85589	8.47474	7.66997	7.04381
9730	1.65824	1.65456	1.56336	6.94405	6.93097	6.73035	4.07414	3.10357	2.31536	6.68662	6.62005	6.57701	2.11840	1.97249	1.85583	8.47723	7.67040	7.04462
9900	1.65671	1.65516	1.56338	6.94454	6.93245	6.73321	4.06963	3.10368	2.31597	6.68970	6.61888	6.57661	2.12037	1.97148	1.85645	8.47185	7.67057	7.04630	35.10	6.1	0.00	-2.04	0.01725	0.01195	0.01512	0.01837	0.01897	0.01483	0.00543	0.01507	0.01995	0.01866	0.01296	0.01650	0.01698	0.01755	0.01371	0.00576	0.01621	0.02158
10060	1.65797	1.65416	1.56302	6.94007	6.92722	6.73023	4.07251	3.09863	2.31375	6.69132	6.61972	6.57865	2.11756	1.96758	1.85707	8.47393	7.67284	7.04668
10230	1.65655	1.65681	1.56671	6.94183	6.92899	6.73124	4.07662	3.10150	2.31543	6.69108	6.62151	6.58174	2.11836	1.97174	1.85514	8.47434	7.67359	7.04874
10400	1.65882	1.65524	1.56309	6.94351	6.92889	6.72955	4.06699	3.10480	2.31474	6.69079	6.62177	6.58068	2.11985	1.97190	1.85695	8.47773	7.67721	7.05198
10560	1.66087	1.65724	1.56602	6.94614	6.93114	6.73446	4.07918	3.10320	2.31802	6.69205	6.62247	6.58045	2.12006	1.97029	1.85579	8.47154	7.67422	7.04882
10730	1.65791	1.65331	1.56410	6.94412	6.93182	6.73148	4.07194	3.10082	2.31340	6.68903	6.62130	6.57800	2.11629	1.96875	1.85310	8.47429	7.67142	7.04373
10890	1.65709	1.65474	1.56471	6.94335	6.93115	6.73333	4.07494	3.10568	2.31777	6.69178	6.62233	6.58024	2.12053	1.97130	1.85712	8.47633	7.67368	7.04740
11060	1.65656	1.65243	1.56400	6.94364	6.92899	6.73022	4.07219	3.10064	2.31094	6.69080	6.62058	6.58047	2.11942	1.97206	1.85778	8.47904	7.67594	7.05083
11220	1.66194	1.65670	1.56547	6.94817	6.93354	6.73344	4.06678	3.10468	2.31575	6.69323	6.62343	6.58252	2.11886	1.97050	1.85725	8.47493	7.67297	7.04752
11390	1.65863	1.65258	1.56407	6.94574	6.93293	6.73315	4.07501	3.10226	2.31369	6.69027	6.62156	6.58088	2.11718	1.96774	1.85487	8.47181	7.67083	7.04544
11550	1.65960	1.65316	1.56441	6.94836	6.93409	6.73561	4.07415	3.10622	2.31683	6.69147	6.62343	6.58348	2.12111	1.97113	1.85425	8.47517	7.67448	7.04950	35.10	6.2	0.00	-2.04	0.01725	0.01195	0.01512	0.01837	0.01897	0.01483	0.00543	0.01507	0.01995	0.01866	0.01296	0.01650	0.01697	0.01755	0.01371	0.00576	0.01621	0.02158
11720	1.65771	1.65349	1.56474	6.94613	6.93177	6.73103	4.07041	3.10068	2.31264	6.68912	6.62231	6.57889	2.12044	1.97246	1.85867	8.47626	7.67750	7.05271
11880	1.65979	1.65448	1.56452	6.95243	6.93717	6.73534	4.07915	3.10334	2.31677	6.69323	6.62381	6.58308	2.11902	1.97029	1.85343	8.47572	7.67467	7.04971
12050	1.65658	1.65290	1.56563	6.94692	6.93469	6.73477	4.07433	3.10091	2.31311	6.69171	6.62548	6.58284	2.11545	1.96720	1.85429	8.47811	7.67241	7.04625
12210	1.65732	1.65375	1.56426	6.94844	6.93559	6.73524	4.08082	3.10174	2.31477	6.69470	6.62465	6.58292	2.11740	1.97014	1.85599	8.47649	7.67502	7.04793
12380	1.65800	1.65184	1.56222	6.94621	6.93139	6.73166	4.07248	3.09807	2.31039	6.69023	6.62241	6.58265	2.11808	1.97002	1.85475	8.47481	7.67554	7.05232
12540	1.65901	1.65622	1.56505	6.94910	6.93506	6.73508	4.08118	3.10106	2.31338	6.69396	6.62486	6.58366	2.11880	1.96821	1.85576	8.47843	7.67402	7.04831
12710	1.65812	1.65646	1.56439	6.94869	6.93596	6.73593	4.07308	3.10103	2.31477	6.69318	6.62433	6.58442	2.11854	1.96990	1.85770	8.47780	7.67654	7.05125
12870	1.65943	1.65500	1.56381	6.94988	6.93610	6.73625	4.07661	3.10042	2.31494	6.69462	6.62525	6.58341	2.11943	1.97052	1.85293	8.47775	7.67553	7.05033
13040	1.65779	1.65213	1.56535	6.94872	6.93700	6.73829	4.07255	3.10172	2.31601	6.69595	6.62667	6.58705	2.12033	1.97185	1.85612	8.48178	7.67705	7.05287
13200	1.65837	1.65345	1.56350	6.95043	6.93661	6.73644	4.06969	3.09770	2.31176	6.69349	6.62532	6.58412	2.11901	1.97256	1.85814	8.47955	7.67947	7.05481	35.10	6.1	0.00	-2.04	0.01725	0.01195	0.01512	0.01837	0.01897	0.01483	0.00543	0.01507	0.01995	0.01866	0.01296	0.01650	0.01697	0.01755	0.01371	0.00576	0.01621	0.02158
13370	1.65908	1.65416	1.56483	6.95437	6.93955	6.73728	4.06958	3.09967	2.31371	6.69767	6.62864	6.58696	2.11923	1.97035	1.85531	8.47665	7.67677	7.05155
13530	1.65565	1.65301	1.56636	6.95131	6.93873	6.74063	4.07432	3.10180	2.31399	6.70324	6.62916	6.58841	2.11946	1.97148	1.85612	8.48032	7.68086	7.05396
13690	1.65768	1.65330	1.56345	6.95328	6.93805	6.73870	4.06930	3.09531	2.31048	6.69866	6.62670	6.58579	2.11845	1.96990	1.85447	8.48240	7.67971	7.05503
13860	1.65786	1.65349	1.56168	6.95300	6.93773	6.73766	4.07479	3.09863	2.30968	6.69689	6.62704	6.58614	2.11580	1.96669	1.85265	8.48073	7.67784	7.05252
14020	1.65887	1.65251	1.56308	6.95168	6.93635	6.73769	4.07293	3.09659	2.31139	6.70115	6.62846	6.58901	2.11388	1.96810	1.85135	8.48267	7.67753	7.05409
14190	1.65628	1.65261	1.56267	6.95275	6.93829	6.73933	4.07643	3.09875	2.31115	6.70001	6.62931	6.58663	2.11625	1.96685	1.85420	8.48068	7.67956	7.05532
14350	1.65683	1.65291	1.56504	6.95577	6.93987	6.73788	4.06933	3.09735	2.31246	6.69747	6.62733	6.58817	2.11731	1.96728	1.85284	8.48589	7.67929	7.05390
14520	1.65918	1.65513	1.56245	6.95392	6.93803	6.74156	4.06680	3.10161	2.31446	6.69645	6.62648	6.58811	2.11860	1.97086	1.85532	8.48507	7.68125	7.05325
14680	1.65661	1.65322	1.56183	6.95265	6.93646	6.73692	4.06965	3.09790	2.30800	6.69442	6.62666	6.58740	2.11625	1.96783	1.85617	8.48353	7.68198	7.05719
14850	1.65750	1.65569	1.56570	6.95315	6.93855	6.74053	4.07459	3.09916	2.31197	6.69915	6.63013	6.59025	2.11513	1.96706	1.85513	8.48428	7.68243	7.05547	35.10	6.1	0.00	-2.04	0.01725	0.01195	0.01512	0.01837	0.01897	0.01483	0.00543	0.01507	0.01995	0.01866	0.01296	0.01650	0.01697	0.01755	0.01371	0.00576	0.01621	0.02158
15010	1.65708	1.65443	1.56450	6.95495	6.93923	6.74070	4.07185	3.09862	2.31140	6.69964	6.62846	6.58728	2.11621	1.96888	1.85686	8.48201	7.68046	7.05654
15180	1.65801	1.65521	1.56535	6.95454	6.94388	6.74439	4.07392	3.10070	2.31391	6.69793	6.63061	6.59167	2.11636	1.97066	1.85376	8.48468	7.68564	7.05683
15340	1.65901	1.65390	1.56235	6.95464	6.93902	6.73964	4.06989	3.09689	2.31017	6.70006	6.62921	6.58726	2.11532	1.96901	1.85337	8.48414	7.68316	7.05580
15510	1.65597	1.65481	1.56385	6.95616	6.94126	6.74158	4.06501	3.09884	2.31033	6.69973	6.62966	6.58829	2.11670	1.97131	1.85482	8.48871	7.68656	7.06001
15680	1.65886	1.65386	1.56370	6.96033	6.94349	6.74401	4.07206	3.09930	2.31323	6.70481	6.63215	6.59231	2.11989	1.97402	1.85914	8.49347	7.69238	7.06488
15840	1.66085	1.65763	1.56791	6.96329	6.94840	6.74797	4.08255	3.10429	2.31432	6.70890	6.63717	6.59403	2.11868	1.97274	1.85526	8.49315	7.68927	7.06080
16010	1.66119	1.65513	1.56324	6.96039	6.94417	6.74388	4.07053	3.09774	2.31196	6.70510	6.63003	6.59156	2.11466	1.96867	1.85351	8.48437	7.68191	7.05591
16170	1.65334	1.65243	1.56438	6.95721	6.94225	6.74412	4.08173	3.09956	2.31291	6.70411	6.63513	6.59488	2.11797	1.96825	1.85360	8.48799	7.68743	7.06057
16340	1.65689	1.65507	1.56420	6.95750	6.94251	6.74092	4.06921	3.09729	2.30925	6.70317	6.63262	6.59088	2.11902	1.97023	1.85660	8.49461	7.69018	7.06356
16500	1.65714	1.65399	1.56454	6.96081	6.94575	6.74520	4.07065	3.09943	2.31214	6.70274	6.63357	6.59329	2.11569	1.96661	1.85558	8.49371	7.68710	7.05951	35.10	6.1	0.00	-2.04	0.01725	0.01195	0.01512	0.01837	0.01897	0.01483	0.00543	0.01507	0.01995	0.01866	0.01296	0.01650	0.01697	0.01755	0.01371	0.00576	0.01621	0.02158
16670	1.65564	1.65288	1.56391	6.95789	6.94423	6.74392	4.07165	3.09827	2.31051	6.70285	6.63263	6.59210	2.11538	1.96741	1.85272	8.48696	7.68663	7.05977
16830	1.65761	1.65201	1.56561	6.95831	6.94501	6.74389	4.07339	3.09823	2.31263	6.70383	6.63347	6.59305	2.11582	1.96945	1.85452	8.48900	7.68725	7.06035
17000	1.65614	1.65341	1.56130	6.95725	6.94455	6.74335	4.06627	3.09476	2.30964	6.70090	6.63201	6.59189	2.11629	1.97103	1.85586	8.49240	7.69102	7.06332
17160	1.65946	1.65456	1.56621	6.96117	6.94707	6.74501	4.07714	3.10274	2.31150	6.70481	6.63587	6.59404	2.11511	1.96746	1.85414	8.49199	7.68917	7.06147
17330	1.65865	1.65668	1.56590	6.96150	6.94787	6.74574	4.07336	3.09972	2.31480	6.70566	6.63567	6.59476	2.11528	1.96872	1.85170	8.49054	7.68960	7.06203
17490	1.65911	1.65551	1.56413	6.96307	6.95034	6.74862	4.07521	3.10264	2.31326	6.70503	6.63893	6.59765	2.11618	1.96974	1.85447	8.49149	7.69130	7.06264
17660	1.65793	1.65279	1.56418	6.96353	6.94796	6.74574	4.07161	3.09923	2.30914	6.70292	6.63489	6.59352	2.11721	1.97037	1.85591	8.49525	7.69412	7.06594
17820	1.65951	1.65352	1.56620	6.96579	6.95207	6.74848	4.07614	3.10133	2.31266	6.70679	6.63985	6.59684	2.11681	1.96917	1.85211	8.49095	7.69157	7.06257
17990	1.65837	1.65344	1.56290	6.96416	6.94911	6.74597	4.07297	3.10217	2.31178	6.70837	6.63924	6.59574	2.11780	1.97168	1.85758	8.49784	7.69439	7.06731
18150	1.65966	1.65470	1.56571	6.96570	6.95272	6.75179	4.07664	3.10363	2.31365	6.70739	6.64109	6.59898	2.11861	1.96868	1.85539	8.49553	7.69296	7.06551	35.10	6.2	0.00	-2.04	0.01725	0.01195	0.01512	0.01837	0.01897	0.01483	0.00543	0.01507	0.01995	0.01865	0.01295	0.01650	0.01697	0.01755	0.01371	0.00576	0.01620	0.02158
18320	1.65718	1.65507	1.56551	6.96454	6.95174	6.75137	4.08096	3.10291	2.31279	6.71069	6.64254	6.60088	2.11889	1.96945	1.85610	8.49612	7.69467	7.06667
18480	1.65537	1.65305	1.56308	6.96567	6.95172	6.74949	4.06958	3.10068	2.31112	6.70568	6.63953	6.59934	2.11856	1.96938	1.85464	8.49857	7.69689	7.07087
18650	1.65861	1.65317	1.56413	6.96853	6.95419	6.75248	4.07728	3.10160	2.31517	6.70745	6.63991	6.60142	2.11942	1.96762	1.85283	8.49653	7.69422	7.07012
18810	1.65379	1.65401	1.56340	6.96830	6.95412	6.75158	4.07725	3.10172	2.31295	6.70846	6.64035	6.59919	2.11774	1.96799	1.85563	8.49726	7.69375	7.06799
18970	1.65635	1.65069	1.56237	6.96820	6.95389	6.75258	4.06413	3.09717	2.30756	6.70698	6.63885	6.59786	2.11710	1.96863	1.85459	8.49259	7.69435	7.06848
19140	1.65528	1.65269	1.56337	6.96836	6.95511	6.75327	4.06531	3.09941	2.30878	6.71223	6.64188	6.60158	2.11492	1.96726	1.85180	8.49893	7.69447	7.06873
19300	1.65783	1.65338	1.56459	6.96866	6.95393	6.75391	4.08021	3.09994	2.31281	6.71222	6.64317	6.60271	2.11804	1.96862	1.85388	8.49748	7.69624	7.07079
19470	1.65779	1.65322	1.56410	6.96708	6.95432	6.75330	4.06859	3.09734	2.31230	6.70949	6.64209	6.60198	2.11725	1.96759	1.85380	8.49635	7.69656	7.07127
19630	1.65821	1.65577	1.56484	6.96978	6.95604	6.75457	4.07261	3.10030	2.31248	6.71271	6.64387	6.60156	2.11712	1.96790	1.85213	8.49866	7.69774	7.07038
19800	1.65772	1.65314	1.56443	6.97287	6.96031	6.75973	4.08264	3.10341	2.31501	6.71489	6.64862	6.60628	2.11926	1.97139	1.85531	8.50452	7.70119	7.07488	35.15	6.1	0.00	-2.04	0.01725	0.01195	0.01512	0.01837	0.01897	0.01483	0.00543	0.01507	0.01995	0.01865	0.01295	0.01649	0.01697	0.01755	0.01371	0.00576	0.01621	0.02158
19960	1.65870	1.65496	1.56466	6.97325	6.95774	6.75607	4.07625	3.10094	2.31356	6.71424	6.64515	6.60472	2.11619	1.96781	1.85414	8.49826	7.69688	7.07288
20130	1.65676	1.65495	1.56403	6.97289	6.95791	6.75881	4.07126	3.10075	2.31279	6.71507	6.64501	6.60420	2.11501	1.96931	1.85300	8.49908	7.69914	7.07333
20290	1.65703	1.65401	1.56453	6.97195	6.95737	6.75755	4.07472	3.10148	2.31370	6.71412	6.64665	6.60606	2.11709	1.96786	1.85250	8.50126	7.69968	7.07345
20460	1.65681	1.65128	1.56424	6.97437	6.95956	6.76093	4.07154	3.10232	2.31559	6.71379	6.64739	6.60731	2.11857	1.96862	1.85668	8.49981	7.70048	7.07528
20620	1.65850	1.65474	1.56306	6.97318	6.95824	6.75803	4.07557	3.09695	2.31056	6.71382	6.64676	6.60558	2.11508	1.97073	1.85589	8.50108	7.70228	7.07699
20790	1.65875	1.65460	1.56464	6.97526	6.96050	6.75918	4.07985	3.10280	2.31367	6.71814	6.64840	6.60641	2.11671	1.96942	1.85643	8.50294	7.70423	7.07689
20960	1.65923	1.65337	1.56652	6.97539	6.95923	6.76059	4.07454	3.09957	2.31246	6.71768	6.64847	6.60812	2.11774	1.97283	1.85826	8.50325	7.70610	7.08061
21120	1.66101	1.65614	1.56667	6.97812	6.96194	6.76314	4.08117	3.10343	2.31346	6.71863	6.64992	6.60964	2.11795	1.97158	1.85374	8.50797	7.70504	7.07997
21290	1.65832	1.65436	1.56624	6.97665	6.96302	6.76323	4.07432	3.09952	2.31258	6.71819	6.65047	6.61060	2.11499	1.96741	1.85327	8.50638	7.70387	7.07686
21450	1.65657	1.65370	1.56734	6.97720	6.96350	6.76408	4.08189	3.10276	2.31661	6.71910	6.65136	6.61164	2.11850	1.97044	1.85382	8.50614	7.70625	7.07881	35.10	6.2	0.00	-2.04	0.01725	0.01195	0.01512	0.01837	0.01897	0.01483	0.00543	0.01507	0.01995	0.01865	0.01295	0.01649	0.01697	0.01755	0.01371	0.00576	0.01620	0.02158
21620	1.65736	1.65402	1.56450	6.97573	6.96063	6.76060	4.06966	3.10062	2.31254	6.71828	6.64946	6.60864	2.11861	1.97048	1.85646	8.50709	7.70985	7.08168
21780	1.66087	1.65945	1.56601	6.98040	6.96393	6.76227	4.08561	3.10292	2.31485	6.72022	6.65149	6.61060	2.11899	1.97209	1.85606	8.50437	7.70631	7.07801
21950	1.65804	1.65576	1.56436	6.97816	6.96269	6.76411	4.08525	3.10151	2.31102	6.72087	6.65153	6.61117	2.11567	1.96666	1.85319	8.50886	7.70628	7.07726
22110	1.65705	1.65398	1.56687	6.97997	6.96539	6.76651	4.08653	3.10441	2.31530	6.72159	6.65447	6.61187	2.11912	1.97154	1.85423	8.50882	7.70887	7.08206
22280	1.65591	1.65291	1.56308	6.97959	6.96376	6.76409	4.07202	3.09932	2.31083	6.71879	6.65052	6.61138	2.11977	1.97266	1.85791	8.51331	7.71491	7.08608
22440	1.65776	1.65674	1.56606	6.98422	6.96953	6.76775	4.07715	3.10506	2.31471	6.72029	6.65611	6.61516	2.12019	1.97057	1.85581	8.51513	7.71133	7.08416
22610	1.65602	1.65516	1.56506	6.98401	6.96983	6.76692	4.07672	3.10137	2.31411	6.72341	6.66077	6.61511	2.11757	1.96972	1.85644	8.51354	7.70981	7.08074
22770	1.66016	1.65397	1.56577	6.98748	6.97177	6.76624	4.07690	3.10549	2.31592	6.72198	6.65580	6.61301	2.11879	1.97052	1.85476	8.50927	7.71644	7.08358
22940	1.65843	1.65236	1.56245	6.99114	6.97678	6.76537	4.06745	3.09515	2.30777	6.73179	6.65666	6.61406	2.11777	1.97192	1.85696	8.51799	7.71767	7.08837
23100	1.65921	1.65557	1.56501	6.99183	6.97489	6.77282	4.06843	3.10186	2.31402	6.72806	6.65749	6.61666	2.11699	1.96801	1.85424	8.51822	7.71808	7.08596	35.15	6.0	0.00	-2.04	0.01725	0.01195	0.01512	0.01837	0.01897	0.01483	0.00543	0.01507	0.01995	0.01865	0.01295	0.01649	0.01697	0.01755	0.01371	0.00576	0.01620	0.02158
23270	1.65720	1.65352	1.56406	6.99325	6.97630	6.77314	4.06950	3.10417	2.31375	6.73023	6.66028	6.61957	2.11827	1.97042	1.85594	8.52063	7.72169	7.09870
23430	1.65992	1.65646	1.56506	6.99574	6.97631	6.78114	4.07688	3.10355	2.31686	6.73845	6.66579	6.62183	2.12386	1.97164	1.85904	8.52536	7.71814	7.09379
23600	1.65686	1.65290	1.56315	7.00126	6.98310	6.78215	4.08609	3.09926	2.31120	6.73428	6.67415	6.63205	2.11642	1.96779	1.85537	8.52526	7.72470	7.10146
23760	1.65459	1.65100	1.56259	6.99986	6.98041	6.78085	4.08066	3.09791	2.31169	6.74047	6.66785	6.63230	2.11657	1.97025	1.85335	8.51985	7.73706	7.11782
23930	1.65537	1.65003	1.56424	6.99582	6.98799	6.78856	4.07025	3.10174	2.31391	6.74285	6.67381	6.63661	2.11734	1.96966	1.85665	8.52745	7.73058	7.11249
24090	1.65759	1.65282	1.56362	6.99985	6.98603	6.79241	4.07799	3.10231	2.31260	6.73774	6.67649	6.63458	2.11516	1.96737	1.85210	8.52736	7.72792	7.09987
24260	1.65928	1.65437	1.56555	7.00675	6.99279	6.78933	4.07250	3.10476	2.31478	6.74750	6.68081	6.63922	2.11675	1.97025	1.85549	8.53391	7.73121	7.11097
24420	1.65662	1.65154	1.56284	7.00046	6.98930	6.79111	4.07788	3.09889	2.31053	6.73749	6.67761	6.63732	2.11822	1.97179	1.85796	8.53304	7.74021	7.11175
24590	1.65796	1.65257	1.56377	7.00828	6.99681	6.79052	4.07678	3.10575	2.31413	6.73933	6.67582	6.63338	2.11885	1.97017	1.85500	8.53031	7.73248	7.10571
24750	1.65547	1.65031	1.56293	7.00578	6.98848	6.78456	4.07498	3.09831	2.31129	6.74790	6.67515	6.63108	2.11494	1.96959	1.85208	8.53089	7.73143	7.10737	35.15	6.0	0.00	-2.04	0.01725	0.01195	0.01512	0.01837	0.01897	0.01483	0.00543	0.01507	0.01995	0.01865	0.01295	0.01649	0.01697	0.01755	0.01371	0.00576	0.01620	0.02158
24920	1.65520	1.65135	1.56328	7.00464	6.99186	6.79070	4.07741	3.10356	2.31324	6.73825	6.67933	6.63164	2.11840	1.96824	1.85301	8.53699	7.73523	7.10306
25080	1.65436	1.65103	1.55964	7.00786	6.99056	6.78489	4.06917	3.09941	2.30957	6.74424	6.67551	6.63388	2.11803	1.97231	1.85510	8.53012	7.73177	7.11028
25250	1.65815	1.65194	1.56237	7.00759	6.99258	6.79126	4.07723	3.09865	2.31234	6.74007	6.67633	6.63597	2.11587	1.96885	1.85195	8.53549	7.73671	7.10903
25410	1.65822	1.65535	1.56455	7.01195	7.00010	6.79600	4.08219	3.10530	2.31454	6.74975	6.68514	6.64123	2.11839	1.97068	1.85820	8.53517	7.73792	7.11433
25580	1.65636	1.65145	1.56410	7.00899	6.99525	6.79271	4.07927	3.10016	2.31067	6.74215	6.68037	6.63824	2.11453	1.96673	1.85427	8.53653	7.73785	7.10845
25740	1.65675	1.64985	1.56312	7.00853	6.99496	6.78908	4.07449	3.10147	2.31004	6.74313	6.68032	6.63511	2.11547	1.96926	1.85339	8.53594	7.73639	7.10893
25910	1.65806	1.65171	1.56288	7.01064	6.99337	6.79069	4.07349	3.10399	2.31467	6.74284	6.67627	6.63617	2.11908	1.96952	1.85664	8.54168	7.74082	7.11621
26070	1.65667	1.65292	1.56454	7.00810	6.99900	6.79861	4.07188	3.10145	2.31371	6.74094	6.68649	6.64167	2.11580	1.97129	1.85460	8.53813	7.73647	7.11103
26240	1.65844	1.65503	1.56486	7.01161	7.00240	6.79558	4.08066	3.10345	2.31305	6.74921	6.68890	6.64257	2.11746	1.97070	1.85451	8.53608	7.73573	7.11852
26400	1.65768	1.65148	1.56119	7.00339	7.00018	6.81153	4.08449	3.10042	2.31006	6.72604	6.69802	6.65322	2.11623	1.96733	1.85506	8.54284	7.75368	7.11378	35.10	6.1	0.00	-2.04	0.01725	0.01195	0.01512	0.01837	0.01897	0.01483	0.00543	0.01507	0.01995	0.01865	0.01295	0.01649	0.01697	0.01755	0.01371	0.00576	0.01620	0.02158
26570	1.65793	1.65339	1.56425	7.01680	6.99948	6.78890	4.08017	3.10294	2.31460	6.74901	6.68379	6.63725	2.12014	1.96832	1.85557	8.54047	7.73861	7.11082
26730	1.65610	1.65061	1.56045	7.01213	6.99824	6.79721	4.07632	3.10120	2.31264	6.74678	6.68128	6.64338	2.11829	1.97082	1.85501	8.53797	7.73689	7.11535
26890	1.65657	1.65178	1.56115	7.00857	6.99597	6.79356	4.07272	3.09966	2.30595	6.74639	6.68412	6.63997	2.11266	1.96617	1.85476	8.53870	7.73628	7.11025
27060	1.65877	1.65206	1.56274	7.01087	6.99905	6.79181	4.07568	3.10065	2.30965	6.74747	6.68348	6.63837	2.11568	1.96491	1.85130	8.53929	7.73610	7.10909
27220	1.65489	1.65280	1.56373	7.01054	6.99681	6.79184	4.07757	3.10257	2.31116	6.74389	6.68073	6.64128	2.11686	1.96810	1.85357	8.53788	7.74343	7.11396
27390	1.65615	1.65120	1.56153	7.00704	7.01265	6.79471	4.07878	3.10214	2.31229	6.74117	6.69697	6.63328	2.11710	1.97025	1.85437	8.54357	7.74992	7.10611
27550	1.65596	1.65546	1.56243	7.02037	7.00898	6.78605	4.06231	3.10066	2.30936	6.75600	6.68809	6.62935	2.11745	1.96717	1.85284	8.54207	7.73602	7.10297
27720	1.65846	1.65423	1.56500	7.02050	6.99530	6.79174	4.07985	3.10257	2.31298	6.75117	6.68092	6.64250	2.11719	1.96868	1.85509	8.53788	7.73659	7.11582
27880	1.65823	1.65369	1.56126	7.01186	6.99635	6.79697	4.07521	3.09801	2.30773	6.74217	6.68450	6.64673	2.11479	1.96999	1.85626	8.53997	7.74700	7.11919
28050	1.65919	1.65412	1.56665	7.01515	7.00479	6.79775	4.08188	3.10227	2.31105	6.74854	6.68962	6.64313	2.11626	1.96605	1.85341	8.54448	7.74477	7.11386	35.15	6.1	0.00	-2.04	0.01725	0.01195	0.01512	0.01836	0.01896	0.01483	0.00543	0.01507	0.01995	0.01865	0.01295	0.01649	0.01697	0.01755	0.01371	0.00576	0.01620	0.02158
28210	1.65682	1.65317	1.56413	7.01816	7.00227	6.79506	4.08117	3.10243	2.31040	6.75041	6.68614	6.64100	2.11564	1.96753	1.85058	8.54106	7.74097	7.11356
28380	1.65725	1.65287	1.56502	7.02044	7.00121	6.80078	4.08391	3.10179	2.31471	6.74887	6.68564	6.64571	2.11683	1.96976	1.85319	8.54197	7.74358	7.11832
28540	1.65744	1.65106	1.56128	7.01583	7.00056	6.79756	4.06580	3.09491	2.30745	6.74749	6.68521	6.64445	2.11332	1.96750	1.85308	8.54284	7.74535	7.11753
28710	1.65601	1.65378	1.56372	7.01749	7.00531	6.79997	4.07428	3.09901	2.30987	6.75008	6.68868	6.64494	2.11508	1.96756	1.85381	8.54498	7.74415	7.11795
28880	1.65670	1.65316	1.56240	7.01967	7.00242	6.79928	4.07935	3.10062	2.31065	6.75261	6.68683	6.64463	2.11586	1.96929	1.85477	8.54621	7.74770	7.12062
29040	1.65840	1.65486	1.56432	7.02036	7.00482	6.80190	4.07193	3.10411	2.31421	6.75057	6.69062	6.64791	2.11592	1.96841	1.85287	8.54717	7.74695	7.12033
29210	1.65462	1.65468	1.56436	7.02067	7.00868	6.80428	4.08163	3.10497	2.31768	6.75219	6.69291	6.65073	2.12017	1.97267	1.85663	8.54680	7.75030	7.12260
29370	1.65701	1.65300	1.56324	7.02375	7.00720	6.80308	4.06836	3.09863	2.31128	6.75291	6.69130	6.64760	2.11549	1.96659	1.85199	8.54740	7.74604	7.11825
29530	1.65537	1.65295	1.56202	7.02145	7.00294	6.80114	4.06858	3.09881	2.30775	6.75863	6.69051	6.64836	2.11594	1.96918	1.85508	8.54516	7.74669	7.12198
29700	1.65597	1.65211	1.56375	7.02019	7.00875	6.80775	4.07485	3.09905	2.31154	6.75161	6.69523	6.65195	2.11379	1.96653	1.85208	8.55061	7.75002	7.11917	35.15	6.0	0.00	-2.04	0.01725	0.01195	0.01512	0.01836	0.01897	0.01483	0.00543	0.01507	0.01995	0.01865	0.01295	0.01649	0.01697	0.01755	0.01371	0.00576	0.01620	0.02158
29860	1.65481	1.65162	1.56356	7.02649	7.00916	6.80040	4.07884	3.10045	2.31137	6.76163	6.69088	6.64487	2.11562	1.96989	1.85405	8.55740	7.74810	7.12189
30030	1.65796	1.65267	1.56199	7.02523	7.00613	6.80196	4.07524	3.09822	2.30711	6.75269	6.69272	6.65152	2.11509	1.96992	1.85642	8.55562	7.75506	7.12872
30200	1.65821	1.65418	1.56434	7.02380	7.01090	6.80910	4.07467	3.10021	2.31039	6.75684	6.69526	6.65453	2.11597	1.96852	1.85264	8.55261	7.75400	7.12590
30360	1.65491	1.65189	1.56177	7.02290	7.01160	6.80719	4.06968	3.10242	2.31072	6.75543	6.69712	6.65203	2.11703	1.96765	1.85061	8.55266	7.75353	7.12272
30530	1.65522	1.65100	1.56364	7.02805	7.01464	6.80844	4.07217	3.10286	2.31152	6.76020	6.69527	6.65036	2.11549	1.96909	1.85228	8.55589	7.75375	7.12454
30690	1.65411	1.64863	1.56281	7.02862	7.01086	6.80602	4.08045	3.09857	2.30771	6.75549	6.69342	6.65191	2.11460	1.96970	1.85566	8.55649	7.75846	7.12970
30860	1.65513	1.65239	1.56226	7.03158	7.01320	6.80717	4.07899	3.10035	2.31131	6.76251	6.69916	6.65168	2.11571	1.96715	1.85161	8.55831	7.75692	7.12394
31020	1.65590	1.65129	1.56095	7.03262	7.01765	6.80857	4.07535	3.09903	2.31272	6.76556	6.69479	6.65097	2.11218	1.96633	1.85261	8.55631	7.74982	7.12601
31190	1.65560	1.65145	1.56270	7.02905	7.01382	6.81248	4.08480	3.09784	2.31034	6.76182	6.69728	6.65766	2.11554	1.96736	1.85365	8.55922	7.75809	7.13035
31350	1.65437	1.65265	1.56121	7.02603	7.01202	6.81208	4.07264	3.09781	2.30761	6.76034	6.69768	6.65689	2.11258	1.96519	1.85141	8.56161	7.75953	7.12831	35.10	6.1	0.00	-2.04	0.01725	0.01195	0.01512	0.01836	0.01897	0.01483	0.00543	0.01507	0.01995	0.01865	0.01295	0.01649	0.01697	0.01755	0.01371	0.00576	0.01620	0.02157
31520	1.65345	1.65011	1.56240	7.03182	7.01480	6.81062	4.07178	3.09722	2.30867	6.76417	6.69806	6.65655	2.11702	1.97036	1.85766	8.56526	7.76401	7.13713
31680	1.65903	1.65389	1.56511	7.03718	7.02388	6.81385	4.08052	3.10177	2.31625	6.76731	6.70662	6.65961	2.11802	1.96814	1.85504	8.56599	7.76408	7.13629
31840	1.65644	1.64974	1.56209	7.03452	7.02029	6.81593	4.07938	3.09882	2.30924	6.76846	6.70535	6.65866	2.11381	1.96772	1.85100	8.56134	7.76402	7.13159
32010	1.65415	1.65023	1.55941	7.03849	7.02079	6.81538	4.07396	3.09826	2.31032	6.76963	6.70443	6.66282	2.11584	1.96641	1.85407	8.56435	7.76474	7.13524
32170	1.65471	1.64938	1.56113	7.03841	7.02178	6.81590	4.07467	3.09496	2.30804	6.77181	6.70727	6.66229	2.11503	1.96912	1.85390	8.56439	7.76749	7.14034
32340	1.65559	1.65227	1.56345	7.04063	7.02466	6.81893	4.08238	3.09609	2.30974	6.77163	6.70624	6.66438	2.11351	1.96335	1.84972	8.57028	7.76854	7.13802
32500	1.65639	1.65422	1.56408	7.04035	7.02438	6.82209	4.07646	3.10065	2.31264	6.77149	6.70955	6.66837	2.11650	1.96747	1.85210	8.57408	7.77134	7.14063
32670	1.65728	1.64863	1.56179	7.04085	7.02090	6.81681	4.07877	3.09904	2.30960	6.77211	6.70956	6.66623	2.11685	1.96909	1.85417	8.57741	7.77592	7.15046
32840	1.65897	1.65266	1.56332	7.03967	7.02555	6.83411	4.08031	3.09878	2.31055	6.77193	6.71140	6.67408	2.11658	1.96920	1.85648	8.57344	7.77272	7.14170
33000	1.65821	1.65304	1.56227	7.04490	7.03167	6.82502	4.07603	3.09669	2.30880	6.77975	6.71468	6.66953	2.11499	1.96421	1.85159	8.57403	7.77527	7.14192	35.15	6.0	0.00	-2.04	0.01725	0.01195	0.01512	0.01836	0.01896	0.01483	0.00543	0.01507	0.01995	0.01865	0.01295	0.01649	0.01697	0.01755	0.01371	0.00576	0.01620	0.02157
33170	1.65424	1.65328	1.56447	7.04871	7.03342	6.82353	4.08888	3.10501	2.31278	6.77684	6.71316	6.67428	2.11671	1.96868	1.85202	8.57928	7.77537	7.14837
33330	1.65403	1.65056	1.56005	7.04677	7.02646	6.82018	4.08088	3.09968	2.31020	6.77627	6.71112	6.67214	2.11696	1.97045	1.85398	8.58203	7.78216	7.15257
33500	1.65696	1.65178	1.56384	7.04917	7.03210	6.82672	4.08167	3.09919	2.30935	6.77796	6.71495	6.67048	2.11674	1.96725	1.85241	8.57901	7.77928	7.14774
33660	1.65440	1.65060	1.56031	7.04730	7.03079	6.82850	4.07460	3.09962	2.31234	6.77557	6.71222	6.67135	2.11597	1.96760	1.85398	8.57983	7.77967	7.14743
33830	1.65510	1.65121	1.56316	7.04889	7.03316	6.82719	4.08181	3.09977	2.31312	6.77935	6.71587	6.67109	2.11651	1.96879	1.85326	8.58450	7.78155	7.14921
33990	1.65484	1.64980	1.56044	7.04796	7.03047	6.82512	4.06961	3.09788	2.30800	6.77794	6.71340	6.67005	2.11439	1.96679	1.85374	8.58454	7.78214	7.14890
34160	1.65704	1.65359	1.56337	7.04992	7.03197	6.82815	4.07325	3.09968	2.30902	6.78147	6.71570	6.67463	2.11605	1.96788	1.85236	8.58450	7.78155	7.15050
34320	1.65599	1.65228	1.56346	7.05281	7.03478	6.82980	4.07478	3.09935	2.31064	6.78155	6.71583	6.67383	2.11583	1.96993	1.85472	8.58999	7.78905	7.15803
34490	1.65818	1.65209	1.56168	7.05423	7.03905	6.83407	4.08113	3.10017	2.31139	6.78184	6.71798	6.67452	2.11784	1.96849	1.85333	8.59127	7.78954	7.15602
34650	1.65588	1.65090	1.56314	7.05316	7.03750	6.83453	4.07510	3.10102	2.31174	6.78196	6.71876	6.67516	2.11421	1.96571	1.85252	8.59192	7.78551	7.15418	35.10	6.0	0.00	-2.04	0.01724	0.01195	0.01512	0.01836	0.01896	0.01483	0.00543	0.01507	0.01995	0.01865	0.01295	0.01649	0.01697	0.01755	0.01371	0.00576	0.01620	0.02158
34820	1.65646	1.65379	1.56491	7.05496	7.03746	6.83457	4.08309	3.10431	2.31311	6.78644	6.71955	6.67743	2.11607	1.96728	1.85252	8.59219	7.78976	7.15643
34980	1.65358	1.65031	1.56270	7.05724	7.03409	6.82920	4.07902	3.09988	2.30840	6.78834	6.71391	6.67397	2.11621	1.96778	1.85629	8.60025	7.79174	7.16013
35150	1.65717	1.65173	1.56384	7.05766	7.04224	6.83589	4.07392	3.10317	2.31578	6.78488	6.72098	6.67816	2.11657	1.96840	1.85240	8.59737	7.79168	7.15921
35310	1.65472	1.65057	1.56250	7.05675	7.03977	6.83535	4.08327	3.09995	2.31234	6.78380	6.71951	6.67919	2.11343	1.96618	1.85234	8.59361	7.79066	7.15830
35480	1.65615	1.65218	1.56354	7.05908	7.04372	6.84039	4.08834	3.10195	2.31326	6.78888	6.72159	6.68018	2.11692	1.96776	1.85367	8.59361	7.79283	7.16058
35640	1.65550	1.65023	1.56037	7.05572	7.04117	6.83513	4.07696	3.09698	2.30963	6.78572	6.72092	6.67856	2.11558	1.96870	1.85410	8.60227	7.79623	7.16387
35810	1.65681	1.65089	1.56352	7.06127	7.04510	6.83829	4.07920	3.10105	2.31089	6.78767	6.72518	6.68202	2.11672	1.96739	1.85472	8.59833	7.79358	7.16354
35970	1.65492	1.65052	1.56311	7.06063	7.04486	6.83927	4.06925	3.10224	2.31322	6.78694	6.72399	6.68320	2.11421	1.96601	1.85306	8.59860	7.79567	7.16283
36140	1.65598	1.65120	1.56467	7.06163	7.04683	6.84216	4.07492	3.10350	2.31478	6.79092	6.72592	6.68400	2.11747	1.97033	1.85708	8.60213	7.79758	7.16459
36310	1.65651	1.65153	1.56227	7.06233	7.04594	6.83813	4.07553	3.09852	2.30818	6.78797	6.72450	6.68317	2.11548	1.96736	1.85215	8.60053	7.79454	7.16411	35.15	6.1	0.00	-2.04	0.01724	0.01195	0.01512	0.01836	0.01896	0.01483	0.00543	0.01507	0.01995	0.01865	0.01295	0.01649	0.01697	0.01755	0.01371	0.00576	0.01620	0.02157
36470	1.65617	1.65234	1.56236	7.06175	7.04558	6.83956	4.07539	3.10218	2.31176	6.79106	6.72566	6.68264	2.11586	1.96841	1.85466	8.60144	7.79837	7.16540
36640	1.65559	1.65127	1.56213	7.06385	7.04774	6.84115	4.08192	3.10033	2.31152	6.79041	6.72655	6.68338	2.11899	1.97312	1.85858	8.60282	7.80300	7.17054
36800	1.65839	1.65361	1.56428	7.06660	7.05046	6.84559	4.08210	3.10464	2.31357	6.79369	6.72635	6.68771	2.11889	1.96931	1.85314	8.60208	7.79903	7.16888
36970	1.65555	1.65103	1.56410	7.06284	7.04650	6.84296	4.07896	3.10098	2.31218	6.79014	6.72743	6.68537	2.11288	1.96732	1.85273	8.59965	7.79739	7.16522
37130	1.65280	1.65232	1.56422	7.06230	7.04544	6.84568	4.08060	3.10178	2.31484	6.79284	6.72692	6.68579	2.11657	1.96765	1.85362	8.60149	7.79826	7.16723
37300	1.65485	1.65052	1.56083	7.06350	7.04579	6.84107	4.08060	3.09849	2.30801	6.79142	6.72485	6.68591	2.11576	1.97008	1.85549	8.60566	7.80454	7.17228
37460	1.65826	1.65302	1.56548	7.06738	7.04979	6.84550	4.07414	3.10297	2.31401	6.79479	6.73092	6.68731	2.11499	1.96623	1.85183	8.60341	7.79971	7.16854
37620	1.65508	1.65328	1.56475	7.06807	7.05098	6.84776	4.07182	3.10363	2.31302	6.79514	6.72990	6.68745	2.11968	1.96635	1.85242	8.60162	7.80085	7.16961
37790	1.65623	1.65149	1.56185	7.06518	7.04675	6.84332	4.06765	3.09612	2.30779	6.79162	6.72544	6.68556	2.11581	1.96922	1.85408	8.60245	7.80050	7.17017
37950	1.65474	1.64900	1.56214	7.06688	7.04782	6.84528	4.07946	3.09946	2.30979	6.79262	6.72587	6.68524	2.11274	1.96663	1.84936	8.59819	7.79783	7.16637	35.10	6.0	0.00	-2.04	0.01724	0.01195	0.01512	0.01836	0.01896	0.01483	0.00543	0.01507	0.01995	0.01865	0.01295	0.01649	0.01697	0.01755	0.01371	0.00576	0.01620	0.02157
38120	1.65607	1.64994	1.56255	7.06707	7.04932	6.84688	4.07803	3.09903	2.30989	6.79343	6.72992	6.68991	2.11426	1.96624	1.85098	8.60149	7.80342	7.16852
38280	1.65353	1.64965	1.55991	7.06619	7.04888	6.84237	4.06634	3.09938	2.30729	6.79436	6.72713	6.68614	2.11499	1.96697	1.85163	8.60937	7.80295	7.16913
38450	1.65536	1.65095	1.56289	7.06580	7.05270	6.84503	4.07582	3.10343	2.31217	6.79338	6.72796	6.68741	2.11465	1.96699	1.85144	8.60062	7.80112	7.16804
38610	1.65424	1.65139	1.56207	7.06678	7.05124	6.84451	4.08521	3.10385	2.31484	6.79505	6.72902	6.68578	2.11665	1.96659	1.85621	8.60983	7.80208	7.16818
38780	1.65474	1.64854	1.56213	7.06478	7.04621	6.84172	4.07903	3.10069	2.31001	6.78524	6.72227	6.68369	2.11601	1.96903	1.85599	8.60446	7.80066	7.16859
38940	1.65664	1.65221	1.56179	7.06622	7.04818	6.84253	4.08160	3.10095	2.31091	6.79298	6.72308	6.68313	2.11491	1.96845	1.84991	8.59805	7.79708	7.16814
39110	1.65621	1.65256	1.56441	7.06300	7.05017	6.84890	4.08221	3.10333	2.31266	6.78881	6.73193	6.68703	2.11943	1.97096	1.85411	8.60520	7.80581	7.16580
39270	1.65550	1.65092	1.56160	7.06849	7.04883	6.83855	4.08053	3.10098	2.30915	6.79401	6.72040	6.68052	2.11521	1.96739	1.85235	8.60272	7.79482	7.16687
39440	1.65318	1.65121	1.56124	7.05965	7.03597	6.84853	4.07472	3.09938	2.31006	6.78001	6.72319	6.68574	2.11751	1.96937	1.85614	8.60589	7.80290	7.16890
39600	1.66120	1.65686	1.56719	7.06578	7.04979	6.84520	4.08523	3.10630	2.31798	6.79033	6.72565	6.68488	2.12263	1.97297	1.85988	8.60538	7.79829	7.16373	35.15	5.9	0.00	-2.04	0.01725	0.01195	0.01512	0.01836	0.01896	0.01482	0.00544	0.01507	0.01996	0.01865	0.01295	0.01649	0.01698	0.01755	0.01372	0.00576	0.01620	0.02157
39760	1.65800	1.65507	1.56700	7.06551	7.04749	6.84306	4.08423	3.11017	2.31995	6.79343	6.72613	6.68746	2.12307	1.97288	1.85910	8.60836	7.80141	7.16977
39930	1.65773	1.65318	1.56485	7.06197	7.04345	6.84160	4.09044	3.10763	2.31474	6.78611	6.72822	6.68578	2.12125	1.97343	1.85675	8.60574	7.80349	7.16313
40090	1.65924	1.65480	1.56584	7.06923	7.05172	6.83866	4.08173	3.10294	2.31216	6.79372	6.72077	6.68600	2.11756	1.96231	1.84473	8.61689	7.80409	7.17514
40250	1.64893	1.64478	1.55844	7.05838	7.04311	6.84818	4.06947	3.08828	2.29838	6.80935	6.72832	6.70135	2.09990	1.94752	1.83270	8.62102	7.81177	7.17959
40420	1.63563	1.63428	1.54377	7.06633	7.04746	6.85396	4.05046	3.07206	2.28516	6.82018	6.73075	6.70776	2.09299	1.94953	1.83371	8.62961	7.82131	7.18471
40580	1.63905	1.63714	1.54944	7.06770	7.05759	6.86396	4.05235	3.07741	2.29347	6.82081	6.73473	6.69780	2.09724	1.94885	1.83831	8.63113	7.82290	7.18180
40750	1.63837	1.63683	1.54863	7.07265	7.06706	6.84975	4.05352	3.07820	2.29214	6.82011	6.75396	6.69510	2.09758	1.94909	1.83381	8.63665	7.83562	7.18243
40910	1.63913	1.63702	1.55056	7.07942	7.05528	6.85818	4.06021	3.08170	2.29216	6.82508	6.73183	6.70570	2.09869	1.94883	1.83650	8.63941	7.82529	7.18852
41080	1.63725	1.63531	1.54880	7.07494	7.05815	6.86302	4.04926	3.07895	2.29265	6.81731	6.73378	6.71732	2.09610	1.94919	1.83259	8.63444	7.82345	7.18766
41240	1.64116	1.63932	1.55114	7.07305	7.05121	6.85340	4.05474	3.08353	2.29543	6.82756	6.73824	6.70726	2.10172	1.95175	1.83915	8.63934	7.82525	7.18441	35.10	6.1	0.00	-2.04	0.01726	0.01195	0.01513	0.01835	0.01896	0.01482	0.00544	0.01508	0.01997	0.01865	0.01295	0.01649	0.01699	0.01756	0.01372	0.00576	0.01620	0.02157
41410	1.64152	1.63910	1.55171	7.07521	7.05929	6.86075	4.05495	3.08152	2.29572	6.82168	6.73500	6.70581	2.10019	1.95258	1.83944	8.62789	7.82032	7.18351
41570	1.64433	1.64342	1.55383	7.07945	7.06423	6.86633	4.07157	3.09065	2.30076	6.82794	6.74486	6.71302	2.10692	1.95785	1.84252	8.63281	7.82669	7.18879
41740	1.64212	1.64361	1.55100	7.07787	7.06288	6.86419	4.05474	3.08615	2.29629	6.82696	6.74077	6.70861	2.10292	1.95300	1.83943	8.63387	7.82043	7.18524
41900	1.64014	1.63752	1.54788	7.07866	7.06582	6.86416	4.05531	3.08046	2.29544	6.82241	6.73998	6.70465	2.10380	1.95358	1.83946	8.63506	7.82488	7.18612
42070	1.64081	1.63744	1.54977	7.09192	7.06047	6.86138	4.06278	3.08271	2.29575	6.83761	6.74248	6.70240	2.10063	1.95331	1.83731	8.64183	7.83119	7.18731
42230	1.64258	1.63932	1.55081	7.08686	7.06755	6.86715	4.06238	3.08343	2.29724	6.83695	6.74913	6.71439	2.10010	1.95088	1.83945	8.63428	7.82532	7.18681
42400	1.64128	1.64028	1.55150	7.08512	7.06972	6.87137	4.06441	3.08305	2.29601	6.83587	6.74848	6.71714	2.10269	1.95434	1.84092	8.63589	7.82726	7.19228
42560	1.64182	1.63621	1.54945	7.08546	7.06839	6.86912	4.05890	3.08141	2.29333	6.82869	6.74168	6.70984	2.10258	1.95406	1.83947	8.63727	7.83022	7.19210
42730	1.64186	1.63731	1.54917	7.08413	7.06963	6.86956	4.05282	3.08310	2.29483	6.83007	6.74638	6.71426	2.09977	1.95185	1.83945	8.63603	7.82839	7.19025
42890	1.64256	1.64251	1.55497	7.07917	7.06496	6.87104	4.06905	3.08656	2.30123	6.83375	6.74418	6.71515	2.10668	1.95664	1.84304	8.64039	7.82977	7.19084	35.10	6.2	0.00	-2.04	0.01726	0.01196	0.01513	0.01835	0.01895	0.01482	0.00544	0.01509	0.01998	0.01864	0.01295	0.01649	0.01700	0.01757	0.01373	0.00576	0.01619	0.02156
43060	1.64416	1.64132	1.55306	7.07886	7.06221	6.86588	4.05959	3.08623	2.29581	6.83546	6.74415	6.71040	2.10508	1.96075	1.84827	8.63804	7.83136	7.19154
43220	1.64895	1.64564	1.55381	7.08166	7.06557	6.86721	4.06141	3.08765	2.30286	6.80665	6.73661	6.72752	2.10547	1.95600	1.84237	8.61487	7.80755	7.20827
43390	1.64480	1.64019	1.55356	7.07045	7.05594	6.86637	4.06059	3.08477	2.29773	6.83575	6.74624	6.71300	2.10258	1.95508	1.84182	8.63680	7.82513	7.18804
43550	1.64528	1.64292	1.55407	7.07326	7.06012	6.86712	4.06987	3.09172	2.29997	6.82797	6.73809	6.71004	2.10530	1.95653	1.84240	8.63105	7.82003	7.18556
43720	1.64461	1.64121	1.55385	7.07082	7.05699	6.86638	4.06023	3.08628	2.29625	6.82275	6.73748	6.71245	2.10447	1.95836	1.84171	8.63096	7.82708	7.18795
43880	1.64610	1.64138	1.55380	7.07432	7.06282	6.86110	4.06265	3.08922	2.30304	6.82122	6.73622	6.70491	2.10488	1.95664	1.84176	8.62976	7.81205	7.18140
44050	1.64786	1.64422	1.55624	7.07912	7.05861	6.86112	4.07041	3.09024	2.30036	6.84632	6.73723	6.70956	2.10638	1.95765	1.84281	8.63266	7.82119	7.18909
44210	1.64534	1.64230	1.55334	7.07810	7.05834	6.87159	4.06230	3.09018	2.30206	6.81729	6.73359	6.71086	2.10836	1.96155	1.84579	8.63109	7.82465	7.19715
44380	1.64706	1.64575	1.55631	7.08077	7.06053	6.85712	4.07724	3.09068	2.30010	6.83497	6.73792	6.70682	2.10498	1.95618	1.84090	8.63579	7.82471	7.18107
44540	1.64859	1.64487	1.55311	7.07180	7.05946	6.86320	4.06868	3.08909	2.30275	6.82444	6.73257	6.69771	2.10792	1.95870	1.84416	8.62384	7.81736	7.18366	35.10	6.0	0.00	-2.04	0.01727	0.01196	0.01514	0.01835	0.01895	0.01482	0.00544	0.01509	0.01999	0.01864	0.01295	0.01648	0.01700	0.01757	0.01373	0.00576	0.01619	0.02156
44710	1.64647	1.64118	1.55170	7.07827	7.06096	6.86401	4.06943	3.09040	2.30333	6.83990	6.72620	6.70357	2.10757	1.95903	1.84546	8.62407	7.81042	7.18583
44870	1.64890	1.64328	1.55499	7.06071	7.04446	6.85817	4.07007	3.09266	2.30340	6.80691	6.73198	6.71524	2.10540	1.95490	1.84181	8.62398	7.82105	7.19292
45040	1.64423	1.64081	1.55243	7.06325	7.04872	6.85372	4.07160	3.08703	2.30268	6.80855	6.72909	6.70736	2.11172	1.96334	1.85114	8.61351	7.81504	7.19110
45200	1.65017	1.64589	1.55642	7.06623	7.05365	6.85962	4.06982	3.09308	2.30705	6.82356	6.73733	6.70520	2.11101	1.96309	1.84576	8.62150	7.82092	7.18660
45370	1.64865	1.64398	1.55526	7.06562	7.05257	6.85074	4.07156	3.09475	2.30714	6.81418	6.73415	6.69990	2.11131	1.96073	1.84589	8.61888	7.80902	7.17661
45530	1.64824	1.64477	1.55455	7.07657	7.05291	6.84821	4.07975	3.09506	2.30568	6.82434	6.73088	6.69657	2.11174	1.96427	1.84792	8.61810	7.80761	7.17066
45700	1.65053	1.64785	1.55774	7.06714	7.04471	6.84467	4.06932	3.09132	2.30254	6.81655	6.72936	6.69284	2.11133	1.96503	1.85461	8.61755	7.81822	7.15134
45860	1.65467	1.65157	1.56346	7.07374	7.06015	6.83143	4.07918	3.10506	2.31440	6.81257	6.71534	6.67169	2.12091	1.97120	1.85757	8.62122	7.79177	7.16083
46030	1.65730	1.65289	1.56457	7.05448	7.01766	6.84228	4.08712	3.10609	2.31499	6.79306	6.70242	6.68782	2.11827	1.96954	1.85492	8.59649	7.78980	7.16225
46190	1.65599	1.65077	1.56208	7.05122	7.04936	6.84589	4.07777	3.10199	2.30884	6.80514	6.73378	6.68826	2.11361	1.96577	1.85001	8.61498	7.80673	7.15847	35.15	6.2	0.00	-2.04	0.01726	0.01196	0.01513	0.01835	0.01895	0.01482	0.00544	0.01509	0.01998	0.01864	0.01295	0.01649	0.01700	0.01757	0.01373	0.00576	0.01619	0.02156
46350	1.65181	1.64485	1.55473	7.07124	7.04435	6.83355	4.06105	3.08838	2.29950	6.82146	6.73045	6.68530	2.10643	1.96007	1.84485	8.60630	7.80504	7.17596
46520	1.64438	1.64007	1.55319	7.06837	7.04267	6.84331	4.06670	3.08760	2.29711	6.82208	6.73682	6.69455	2.10373	1.95654	1.84405	8.62623	7.80707	7.16868
46690	1.64784	1.64474	1.55685	7.06415	7.03908	6.86010	4.07137	3.09113	2.30245	6.80825	6.71482	6.71412	2.10771	1.96039	1.84601	8.61268	7.80104	7.18022
46850	1.65287	1.64929	1.56155	7.04398	7.04397	6.85995	4.07069	3.09741	2.30774	6.79305	6.71775	6.69298	2.11920	1.97332	1.86031	8.59709	7.80426	7.17294
47020	1.66248	1.65443	1.56643	7.05468	7.05172	6.85115	4.08935	3.10934	2.32074	6.78376	6.72780	6.69860	2.12599	1.97813	1.86292	8.59392	7.79897	7.16155
47180	1.66517	1.65759	1.57041	7.06197	7.05938	6.83119	4.08964	3.11265	2.32141	6.80979	6.73570	6.68120	2.12899	1.97903	1.86196	8.57378	7.82026	7.16033
47350	1.66564	1.66033	1.57242	7.06781	7.03823	6.82033	4.10512	3.11575	2.32571	6.80000	6.73286	6.67032	2.12742	1.97838	1.86197	8.60584	7.79543	7.17251
47510	1.66638	1.66281	1.57154	7.04450	7.04113	6.85191	4.09381	3.12020	2.32641	6.76987	6.72552	6.68818	2.13323	1.98163	1.86183	8.58705	7.80147	7.16177
47680	1.66457	1.65608	1.56739	7.05177	7.04950	6.83785	4.09559	3.11431	2.32253	6.78905	6.72241	6.67524	2.12740	1.97956	1.86077	8.58921	7.78463	7.14069
47840	1.66119	1.65580	1.56854	7.03723	7.01174	6.81482	4.08300	3.11015	2.31667	6.76802	6.69608	6.65943	2.12337	1.97290	1.85944	8.57171	7.78341	7.12366	35.15	6.0	0.00	-2.04	0.01726	0.01195	0.01513	0.01835	0.01896	0.01482	0.00544	0.01508	0.01997	0.01865	0.01295	0.01649	0.01699	0.01756	0.01372	0.00576	0.01620	0.02157
48000	1.65938	1.65407	1.56862	7.02094	6.99227	6.80497	4.09427	3.11659	2.32247	6.73907	6.66806	6.65262	2.12490	1.97546	1.85932	8.55741	7.75282	7.13474
48170	1.66284	1.65832	1.56900	7.00075	6.98006	6.80347	4.09399	3.10959	2.31826	6.73625	6.66835	6.64025	2.12497	1.97655	1.86133	8.54956	7.75549	7.12611
48330	1.66430	1.66038	1.56955	6.99411	6.97105	6.77910	4.09702	3.11513	2.32187	6.70166	6.64602	6.60449	2.12456	1.97592	1.85984	8.53553	7.74300	7.11401
48500	1.66020	1.65628	1.56880	7.00310	6.98450	6.79895	4.09445	3.11326	2.32168	6.73456	6.67614	6.64082	2.12519	1.97307	1.86024	8.56586	7.76250	7.12828
48660	1.65977	1.65351	1.56667	7.01567	7.00197	6.80479	4.08457	3.10781	2.31803	6.73348	6.68298	6.65025	2.12361	1.97467	1.85852	8.55796	7.76041	7.12759
48830	1.66077	1.65341	1.56702	7.03144	7.01032	6.79931	4.08960	3.11122	2.31863	6.75215	6.69222	6.64973	2.12376	1.97620	1.85932	8.56197	7.76201	7.13388
48990	1.66160	1.65657	1.56667	7.02868	7.00145	6.80196	4.08500	3.10945	2.31950	6.75637	6.69187	6.64696	2.12390	1.97678	1.86298	8.56330	7.76825	7.13789
49160	1.66108	1.65579	1.56700	7.02192	7.00803	6.81455	4.08561	3.10904	2.31859	6.75350	6.69431	6.65261	2.12448	1.97802	1.86376	8.56837	7.76803	7.13662
49320	1.66189	1.65669	1.56928	7.03283	7.01504	6.81613	4.09431	3.11171	2.32151	6.75723	6.69465	6.66066	2.12315	1.97572	1.86092	8.56851	7.76874	7.13812
49490	1.65828	1.65590	1.56662	7.04031	7.02697	6.82308	4.08322	3.11227	2.31984	6.76304	6.70377	6.67082	2.12084	1.97389	1.85724	8.58130	7.77438	7.14244	35.15	6.2	0.00	-2.04	0.01725	0.01195	0.01513	0.01836	0.01896	0.01482	0.00544	0.01508	0.01997	0.01865	0.01295	0.01649	0.01699	0.01756	0.01372	0.00576	0.01620	0.02157
49650	1.65783	1.65469	1.56558	7.04810	7.02524	6.81872	4.07901	3.10455	2.31611	6.77104	6.70695	6.67237	2.12233	1.97425	1.85968	8.57892	7.78125	7.15064
49820	1.66215	1.65686	1.56760	7.05475	7.03628	6.82511	4.08693	3.11264	2.31833	6.78535	6.71844	6.67172	2.12152	1.97456	1.85661	8.58840	7.78362	7.15054
49980	1.65954	1.65321	1.56585	7.05107	7.03137	6.82743	4.08087	3.11032	2.32007	6.77597	6.71417	6.67882	2.12167	1.97269	1.85674	8.58272	7.79135	7.15393
50150	1.65961	1.65576	1.56792	7.05092	7.04301	6.83314	4.08422	3.10891	2.31653	6.78344	6.71335	6.67625	2.12068	1.97363	1.85751	8.59114	7.78539	7.15056
50310	1.65841	1.65484	1.56329	7.05347	7.03837	6.83515	4.08023	3.10202	2.31493	6.78124	6.71459	6.68209	2.12057	1.97055	1.85626	8.58895	7.78556	7.15913
50480	1.65819	1.65660	1.56716	7.05782	7.04347	6.84194	4.08889	3.11160	2.31721	6.78657	6.72402	6.68870	2.12108	1.97360	1.85723	8.59389	7.79239	7.16115
50640	1.65940	1.65471	1.56708	7.05891	7.04662	6.84109	4.08283	3.10681	2.31603	6.79249	6.72385	6.68650	2.12308	1.97515	1.86025	8.59604	7.79431	7.16351
50810	1.66194	1.65734	1.56730	7.06193	7.04635	6.84012	4.08451	3.10984	2.31826	6.79489	6.72403	6.68587	2.12075	1.97356	1.85739	8.59508	7.79204	7.15842
50970	1.65971	1.65470	1.56682	7.06031	7.04322	6.83573	4.09046	3.10628	2.31603	6.78924	6.71799	6.68401	2.11805	1.96982	1.85605	8.59243	7.78744	7.15796
51140	1.65932	1.65322	1.56520	7.06022	7.04517	6.84159	4.07896	3.10836	2.31470	6.78920	6.72197	6.68502	2.11956	1.97068	1.85546	8.59771	7.79121	7.16079	35.10	6.2	0.00	-2.04	0.01725	0.01195	0.01513	0.01836	0.01896	0.01482	0.00544	0.01508	0.01996	0.01865	0.01295	0.01649	0.01698	0.01755	0.01372	0.00576	0.01620	0.02157
51300	1.65781	1.65170	1.56329	7.05980	7.04492	6.83896	4.08306	3.10224	2.31134	6.78956	6.72366	6.68662	2.11986	1.97152	1.85723	8.59904	7.79695	7.16806
51470	1.65912	1.65388	1.56428	7.06589	7.04993	6.84892	4.08409	3.10432	2.31330	6.79321	6.73047	6.69354	2.11658	1.96765	1.85561	8.59849	7.79545	7.16820
51630	1.65840	1.65438	1.56890	7.06883	7.05744	6.85871	4.08638	3.10937	2.31471	6.80832	6.74412	6.70845	2.11810	1.96948	1.85442	8.61422	7.80919	7.17669
51800	1.65735	1.65114	1.56410	7.07519	7.06283	6.85532	4.08195	3.10220	2.31191	6.81100	6.74324	6.70461	2.11935	1.97010	1.85688	8.62129	7.81631	7.18463
51960	1.65935	1.65324	1.56386	7.07682	7.07811	6.86500	4.08388	3.10644	2.31644	6.80252	6.74717	6.70527	2.11853	1.96898	1.85202	8.61142	7.80437	7.17369
52120	1.65703	1.65188	1.56527	7.07519	7.06443	6.85571	4.07999	3.10726	2.31547	6.80761	6.73951	6.70117	2.12033	1.97018	1.85617	8.60940	7.80388	7.17277
52290	1.65436	1.65219	1.56466	7.07443	7.06134	6.85449	4.08181	3.10357	2.31131	6.80772	6.73825	6.69773	2.11681	1.96790	1.85188	8.60591	7.80152	7.17195
52450	1.65714	1.65086	1.56564	7.07595	7.05957	6.85504	4.08541	3.10438	2.31186	6.80670	6.73788	6.70214	2.11915	1.97095	1.85157	8.60788	7.80582	7.17211
52620	1.65507	1.65103	1.56159	7.07822	7.05965	6.84691	4.07521	3.09941	2.31213	6.81038	6.73329	6.69655	2.11930	1.97168	1.85665	8.61334	7.80451	7.17604
52780	1.65712	1.65264	1.56347	7.07762	7.06055	6.85391	4.08024	3.10331	2.30982	6.80926	6.73907	6.70227	2.11412	1.96730	1.85168	8.61010	7.80442	7.17422	35.15	5.9	0.00	-2.04	0.01725	0.01195	0.01512	0.01836	0.01896	0.01482	0.00544	0.01507	0.01996	0.01865	0.01295	0.01649	0.01698	0.01755	0.01372	0.00576	0.01620	0.02157
52950	1.65454	1.65497	1.56548	7.07771	7.06109	6.85877	4.08156	3.10507	2.31778	6.81009	6.74113	6.70406	2.11988	1.96986	1.85502	8.61327	7.80889	7.17809
53110	1.65445	1.65071	1.56502	7.07625	7.06159	6.85678	4.07917	3.10299	2.31417	6.80695	6.73957	6.70161	2.11540	1.96628	1.85290	8.60909	7.80400	7.17398
53280	1.65393	1.65125	1.56287	7.07343	7.05992	6.85561	4.08813	3.10345	2.31257	6.80543	6.73944	6.70436	2.11567	1.96871	1.85194	8.60914	7.80687	7.17506
53440	1.65213	1.65195	1.56354	7.07423	7.06197	6.85447	4.07999	3.10173	2.31268	6.80667	6.73747	6.70059	2.11764	1.96916	1.85431	8.61405	7.80685	7.17705
53610	1.65449	1.65060	1.56220	7.07263	7.06368	6.86015	4.08542	3.10395	2.31511	6.79057	6.73239	6.69444	2.11699	1.96817	1.85259	8.59081	7.78929	7.15355
53770	1.65242	1.64983	1.56261	7.04991	7.03938	6.83180	4.08424	3.10416	2.31333	6.78509	6.71672	6.67423	2.11700	1.96815	1.85381	8.59204	7.79132	7.14989
53940	1.65434	1.64981	1.56174	7.05673	7.04426	6.83740	4.07942	3.09908	2.30984	6.79723	6.72263	6.67833	2.11778	1.97110	1.85563	8.61634	7.80816	7.17250
54100	1.65696	1.65347	1.56295	7.07564	7.06742	6.86248	4.07518	3.10209	2.31149	6.81656	6.74425	6.69644	2.11652	1.96741	1.85379	8.61974	7.81031	7.16523
54270	1.65296	1.65189	1.56024	7.07402	7.04993	6.85103	4.08231	3.10102	2.31257	6.79202	6.72252	6.68692	2.11466	1.96585	1.85262	8.58806	7.78748	7.15485
54430	1.65340	1.65092	1.56241	7.04641	7.01996	6.82185	4.07497	3.10157	2.31235	6.76515	6.69504	6.66493	2.11567	1.96948	1.85295	8.57370	7.77461	7.14299	35.15	6.2	0.00	-2.04	0.01725	0.01195	0.01512	0.01836	0.01896	0.01482	0.00543	0.01507	0.01996	0.01865	0.01295	0.01649	0.01698	0.01755	0.01371	0.00576	0.01620	0.02157
54600	1.65235	1.64926	1.55852	7.02950	7.01125	6.81371	4.07836	3.09742	2.31028	6.75337	6.69403	6.66215	2.11724	1.96895	1.85521	8.58064	7.78202	7.14916
54760	1.65473	1.64981	1.56093	7.04274	7.02525	6.82503	4.08160	3.10075	2.31090	6.76808	6.70054	6.66309	2.11543	1.96784	1.85183	8.57498	7.77622	7.14594
54930	1.65341	1.65115	1.55870	7.03682	7.01878	6.81818	4.08360	3.10157	2.30943	6.76271	6.69809	6.65711	2.11470	1.96583	1.85049	8.57639	7.77402	7.14052
55090	1.65373	1.64988	1.56311	7.03835	7.01729	6.81881	4.08407	3.10611	2.31492	6.75776	6.69840	6.65852	2.11731	1.96814	1.85380	8.57552	7.77661	7.14013
55260	1.65229	1.65102	1.55939	7.04096	7.01674	6.81874	4.07904	3.10259	2.31101	6.76342	6.70043	6.66280	2.11536	1.96585	1.85009	8.57712	7.77692	7.14640
55420	1.65198	1.64990	1.55956	7.04144	7.02562	6.82190	4.08275	3.09853	2.31150	6.77201	6.70596	6.66128	2.11525	1.96860	1.85269	8.57886	7.77924	7.14583
55590	1.65248	1.64848	1.55923	7.04343	7.02324	6.82103	4.07501	3.10034	2.31187	6.76902	6.70224	6.66328	2.11557	1.96846	1.85350	8.57461	7.77552	7.14514
55750	1.65555	1.65231	1.56155	7.03885	7.01968	6.82169	4.08182	3.10444	2.31074	6.76840	6.70422	6.66396	2.11524	1.96705	1.85210	8.57744	7.77634	7.14358
55920	1.65278	1.64841	1.56142	7.03826	7.01813	6.81900	4.07822	3.10351	2.31303	6.77120	6.70451	6.66030	2.11643	1.96685	1.85116	8.58257	7.78034	7.14522
56080	1.65173	1.64663	1.55885	7.03787	7.01805	6.82210	4.08747	3.09724	2.30877	6.75939	6.69506	6.66685	2.11376	1.96638	1.85294	8.57926	7.77788	7.14629	35.15	6.1	0.00	-2.04	0.01725	0.01195	0.01512	0.01836	0.01896	0.01482	0.00543	0.01507	0.01995	0.01865	0.01295	0.01649	0.01698	0.01755	0.01371	0.00576	0.01620	0.02157
56250	1.65324	1.64974	1.56073	7.03907	7.01752	6.82036	4.08393	3.09884	2.31216	6.76604	6.69963	6.66229	2.11414	1.96437	1.84986	8.58009	7.77572	7.14266
56410	1.64948	1.64767	1.56199	7.03534	7.01697	6.82085	4.08747	3.10167	2.31090	6.76463	6.69960	6.66230	2.11684	1.96857	1.85105	8.57981	7.77674	7.14259
56570	1.64983	1.64726	1.55955	7.03612	7.01510	6.81621	4.07587	3.09709	2.30404	6.76486	6.69576	6.65940	2.11532	1.96770	1.85182	8.57643	7.77618	7.14380
56740	1.65130	1.64589	1.55977	7.03803	7.01524	6.81843	4.08700	3.09710	2.30836	6.76606	6.70001	6.66051	2.11317	1.96339	1.84807	8.57565	7.77118	7.13887
56900	1.65066	1.64819	1.56042	7.03495	7.01515	6.81781	4.08208	3.10178	2.30899	6.76604	6.69722	6.66081	2.11369	1.96695	1.84844	8.57446	7.77233	7.13892
57070	1.65079	1.64706	1.55964	7.03300	7.01309	6.81707	4.08104	3.09846	2.30610	6.76461	6.69835	6.66266	2.11213	1.96536	1.85268	8.57519	7.77632	7.14481
57230	1.65399	1.64957	1.55961	7.03670	7.01792	6.81961	4.07402	3.10265	2.30945	6.76508	6.69884	6.66226	2.11298	1.96548	1.84891	8.57638	7.77611	7.14216
57400	1.65297	1.64827	1.56065	7.03972	7.02250	6.82167	4.08404	3.10456	2.31052	6.76674	6.70383	6.66570	2.11507	1.96743	1.85098	8.57862	7.77854	7.14541
57560	1.65064	1.64621	1.55972	7.03816	7.01820	6.81867	4.07904	3.09740	2.30735	6.76537	6.70010	6.66082	2.11468	1.96754	1.85108	8.57981	7.77770	7.14547
57730	1.65107	1.64828	1.55971	7.04023	7.01973	6.81906	4.08215	3.10032	2.30757	6.76698	6.69918	6.66011	2.11489	1.96478	1.84934	8.57585	7.77452	7.14123	35.15	6.1	0.00	-2.04	0.01725	0.01195	0.01512	0.01836	0.01896	0.01483	0.00543	0.01507	0.01995	0.01865	0.01295	0.01649	0.01698	0.01755	0.01371	0.00576	0.01620	0.02157
57890	1.65034	1.64589	1.55784	7.03834	7.01685	6.81683	4.07990	3.09764	2.30514	6.76799	6.70022	6.66089	2.11174	1.96371	1.84954	8.57548	7.77260	7.14053
58060	1.64957	1.64563	1.55661	7.03439	7.01420	6.81586	4.07676	3.09335	2.30038	6.76615	6.69809	6.66079	2.10930	1.96510	1.85042	8.58037	7.77575	7.14507
58220	1.65203	1.64702	1.55958	7.03845	7.01903	6.82239	4.08393	3.09976	2.30891	6.77088	6.70381	6.66678	2.11157	1.96222	1.84714	8.57516	7.77435	7.14224
58390	1.64859	1.64604	1.55757	7.03777	7.01909	6.81929	4.07748	3.09852	2.30784	6.76613	6.70171	6.66284	2.11385	1.96304	1.85195	8.57672	7.77733	7.14427
58550	1.64914	1.64752	1.55943	7.04001	7.01967	6.82019	4.08226	3.10357	2.30968	6.76654	6.70305	6.66532	2.11386	1.96184	1.84826	8.58120	7.77783	7.14484
58720	1.64928	1.64645	1.56021	7.03723	7.02285	6.82276	4.08600	3.10078	2.30850	6.77066	6.70635	6.66782	2.11340	1.96346	1.85103	8.58238	7.77701	7.14310
58880	1.65065	1.64452	1.55614	7.04081	7.02045	6.82077	4.07209	3.09495	2.30349	6.76749	6.70185	6.66461	2.11369	1.96715	1.85182	8.57932	7.77861	7.14727
59050	1.65331	1.64749	1.56024	7.04278	7.02462	6.82513	4.07869	3.10077	2.30880	6.77338	6.70494	6.66404	2.11274	1.96450	1.85078	8.58069	7.77640	7.14320
59210	1.64942	1.64606	1.55981	7.03827	7.01897	6.82243	4.07983	3.09870	2.30898	6.77070	6.70310	6.66578	2.11393	1.96498	1.84908	8.57726	7.77637	7.14396
59370	1.65034	1.64537	1.55781	7.03781	7.01734	6.81822	4.07352	3.09853	2.30570	6.76622	6.69934	6.66037	2.11140	1.96328	1.84562	8.57690	7.77595	7.14146	35.15	6.1	0.00	-2.04	0.01725	0.01195	0.01512	0.01836	0.01896	0.01483	0.00543	0.01507	0.01995	0.01865	0.01295	0.01649	0.01698	0.01755	0.01371	0.00576	0.01620	0.02157
59540	1.64811	1.64259	1.55681	7.03613	7.01532	6.81662	4.08041	3.09543	2.30558	6.76349	6.69873	6.65769	2.11043	1.96443	1.84944	8.57530	7.77129	7.13930
59700	1.64713	1.64440	1.55536	7.03502	7.01271	6.81393	4.06953	3.09193	2.30309	6.76567	6.69565	6.65776	2.11194	1.96615	1.85234	8.58037	7.77529	7.14244
59870	1.65397	1.64804	1.55850	7.03726	7.01626	6.81859	4.07245	3.09998	2.30776	6.76863	6.69938	6.66125	2.11209	1.96456	1.84782	8.57626	7.77243	7.13935
60030	1.65184	1.64557	1.56140	7.03651	7.01796	6.82202	4.08405	3.10163	2.31003	6.76866	6.70191	6.66580	2.11396	1.96412	1.84897	8.57699	7.77532	7.14203
60200	1.64973	1.64508	1.55687	7.03651	7.01823	6.81774	4.07103	3.09689	2.30544	6.76956	6.70167	6.65934	2.11388	1.96633	1.85115	8.57873	7.77637	7.14312
60360	1.65081	1.64644	1.55858	7.03544	7.01925	6.81840	4.08212	3.09578	2.30586	6.76881	6.69965	6.66005	2.11184	1.96296	1.84894	8.57512	7.77232	7.13933
60520	1.65042	1.64456	1.55828	7.03481	7.01729	6.81893	4.08098	3.09812	2.30681	6.77021	6.70263	6.66479	2.11252	1.96168	1.84909	8.57717	7.77438	7.13955
60690	1.64813	1.64562	1.55685	7.03529	7.01740	6.81683	4.07538	3.09832	2.30554	6.76604	6.70198	6.66351	2.11247	1.96441	1.84950	8.57749	7.77500	7.14218
60850	1.65111	1.64415	1.55756	7.03463	7.01650	6.81853	4.07687	3.09795	2.30673	6.76868	6.70292	6.66381	2.11129	1.96372	1.84766	8.57407	7.77271	7.13937
61020	1.65104	1.64723	1.55985	7.03674	7.02023	6.82121	4.07297	3.09853	2.31072	6.76997	6.70369	6.66596	2.11375	1.96582	1.85018	8.57817	7.77552	7.14084	35.15	6.1	0.00	-2.04	0.01724	0.01195	0.01512	0.01836	0.01896	0.01483	0.00543	0.01507	0.01995	0.01865	0.01295	0.01649	0.01697	0.01755	0.01371	0.00576	0.01620	0.02157
61180	1.64786	1.64478	1.55709	7.03689	7.01779	6.81693	4.07768	3.09501	2.30768	6.76915	6.69992	6.66132	2.11190	1.96406	1.85201	8.57776	7.77472	7.14110
61350	1.65026	1.64645	1.56028	7.03755	7.01933	6.81880	4.07633	3.09841	2.30771	6.76967	6.70299	6.66269	2.11387	1.96567	1.85103	8.57762	7.77566	7.14152
61520	1.64943	1.64575	1.55842	7.03666	7.01787	6.82036	4.07797	3.09730	2.30830	6.76629	6.70087	6.66608	2.11434	1.96674	1.85273	8.58224	7.77974	7.14447
61680	1.65309	1.64736	1.55931	7.03683	7.02293	6.82217	4.08157	3.09838	2.31072	6.77117	6.70474	6.66579	2.11208	1.96695	1.84829	8.57863	7.77675	7.14324
61850	1.65174	1.64677	1.55802	7.03682	7.01800	6.82000	4.07707	3.09843	2.30719	6.77039	6.70323	6.66133	2.11109	1.96324	1.85037	8.57634	7.77342	7.13908
62010	1.64833	1.64541	1.55824	7.03387	7.01795	6.82080	4.07857	3.09851	2.30714	6.77056	6.70098	6.66638	2.11253	1.96463	1.84914	8.57621	7.77056	7.13962
62180	1.65064	1.64545	1.55720	7.03252	7.01447	6.81850	4.07276	3.09549	2.30527	6.76577	6.69854	6.66206	2.11383	1.96719	1.85277	8.57438	7.77382	7.14118
62340	1.65221	1.64710	1.56043	7.03654	7.01732	6.81707	4.07458	3.09790	2.31165	6.76640	6.69697	6.66173	2.11373	1.96538	1.84659	8.57630	7.76920	7.14012
62510	1.64825	1.64677	1.55932	7.03293	7.01305	6.81728	4.07996	3.09970	2.30919	6.76737	6.69827	6.66489	2.11112	1.96365	1.84996	8.57104	7.76916	7.13888
62670	1.65079	1.64864	1.55945	7.03102	7.01509	6.81856	4.07798	3.09647	2.31020	6.76601	6.70016	6.66355	2.11533	1.96810	1.84929	8.57415	7.76826	7.13635	35.15	6.1	0.00	-2.04	0.01724	0.01195	0.01512	0.01836	0.01896	0.01483	0.00543	0.01506	0.01995	0.01865	0.01295	0.01649	0.01697	0.01755	0.01371	0.00576	0.01620	0.02157
62840	1.65005	1.64775	1.55916	7.03153	7.01251	6.81240	4.07616	3.09498	2.30647	6.76426	6.69590	6.65964	2.11327	1.96427	1.84917	8.56794	7.76816	7.13707
63000	1.64958	1.64488	1.55757	7.02800	7.01163	6.81414	4.07245	3.09586	2.30786	6.76125	6.69319	6.65683	2.11318	1.96467	1.84968	8.57411	7.76914	7.13567
63170	1.65027	1.64665	1.55711	7.03079	7.01286	6.81285	4.08926	3.09781	2.30798	6.76317	6.69498	6.65841	2.11140	1.96257	1.84810	8.57369	7.76653	7.13490
63330	1.65169	1.64997	1.56052	7.03344	7.01645	6.81754	4.08465	3.10292	2.31209	6.76615	6.70101	6.66286	2.11469	1.96573	1.85120	8.57621	7.77059	7.13914
63500	1.65146	1.64794	1.55724	7.03100	7.01565	6.81725	4.08519	3.09658	2.30797	6.76238	6.69864	6.65980	2.11501	1.96477	1.84909	8.57127	7.76846	7.13569
63660	1.64995	1.64643	1.55996	7.03217	7.01441	6.81476	4.07905	3.09508	2.30760	6.76337	6.69857	6.65827	2.11186	1.96543	1.84600	8.57557	7.76927	7.13604
63830	1.64852	1.64577	1.55894	7.03305	7.01419	6.81617	4.08901	3.09774	2.30710	6.76482	6.69638	6.65952	2.11443	1.96625	1.85111	8.57214	7.77019	7.13876
63990	1.65039	1.64751	1.56087	7.03370	7.01613	6.81920	4.08712	3.10135	2.30995	6.76636	6.69855	6.66167	2.11437	1.96395	1.84771	8.57232	7.76916	7.13796
64160	1.64899	1.64347	1.55932	7.03236	7.01528	6.81776	4.07934	3.10213	2.31194	6.76704	6.70108	6.66352	2.11655	1.96481	1.84709	8.57735	7.77246	7.13992
64320	1.64908	1.64483	1.55674	7.03227	7.01450	6.81490	4.08156	3.09658	2.30555	6.76540	6.69999	6.65945	2.11316	1.96623	1.85083	8.57445	7.77287	7.13953	35.15	6.1	0.00	-2.04	0.01724	0.01195	0.01512	0.01836	0.01896	0.01483	0.00543	0.01507	0.01995	0.01865	0.01295	0.01649	0.01697	0.01755	0.01371	0.00576	0.01620	0.02157
64490	1.64928	1.64489	1.55818	7.03511	7.01664	6.81950	4.08438	3.09656	2.30746	6.76556	6.70263	6.66294	2.11312	1.96269	1.84778	8.57084	7.77026	7.13674
64650	1.64826	1.64477	1.55676	7.03088	7.01412	6.81522	4.07606	3.09830	2.30687	6.76571	6.69979	6.65915	2.11160	1.96317	1.84860	8.57126	7.76743	7.13445
64810	1.64752	1.64505	1.55420	7.03021	7.00970	6.80999	4.07710	3.09465	2.30416	6.76198	6.69590	6.65670	2.10927	1.96337	1.84657	8.56678	7.76832	7.13336
64980	1.64856	1.64391	1.55623	7.02845	7.01009	6.80977	4.07478	3.09717	2.30756	6.76204	6.69425	6.65805	2.10883	1.96251	1.84389	8.57217	7.76485	7.13254
65140	1.64726	1.64229	1.55537	7.02631	7.00855	6.80893	4.07592	3.09209	2.30210	6.75918	6.69377	6.65659	2.11102	1.96551	1.85065	8.57258	7.77276	7.13853
65310	1.64955	1.64615	1.55742	7.03226	7.01682	6.81280	4.07831	3.09664	2.30925	6.76451	6.69662	6.65628	2.11283	1.96394	1.84845	8.57281	7.76720	7.13429
65470	1.64911	1.64506	1.55676	7.03158	7.01368	6.81130	4.08234	3.09770	2.30621	6.76259	6.69498	6.65613	2.10874	1.96252	1.84860	8.57057	7.76582	7.13264
65640	1.65036	1.64625	1.55959	7.02989	7.01291	6.81513	4.07824	3.09794	2.30825	6.76382	6.69878	6.65760	2.11364	1.96545	1.84966	8.57194	7.76772	7.13438
65800	1.64710	1.64606	1.55584	7.02783	7.01143	6.81271	4.07610	3.09685	2.30636	6.75991	6.69298	6.65675	2.11159	1.96535	1.85037	8.57057	7.77000	7.13696
65970	1.65002	1.64497	1.55800	7.03188	7.01460	6.81389	4.07993	3.09664	2.30523	6.76459	6.69668	6.65749	2.11135	1.96490	1.84944	8.56915	7.76749	7.13489	35.15	6.1	0.00	-2.04	0.01724	0.01194	0.01512	0.01836	0.01896	0.01483	0.00543	0.01507	0.01995	0.01865	0.01295	0.01649	0.01697	0.01755	0.01371	0.00576	0.01620	0.02157
66130	1.64789	1.64368	1.55737	7.02921	7.01193	6.81232	4.08018	3.09663	2.30497	6.76140	6.69661	6.65859	2.11054	1.96186	1.84483	8.56774	7.76581	7.13241
66300	1.64673	1.64628	1.55719	7.02903	7.01392	6.81359	4.07897	3.10029	2.30744	6.76145	6.69673	6.66076	2.11007	1.96394	1.84932	8.57121	7.76851	7.13544
66460	1.64552	1.64530	1.55597	7.02827	7.01170	6.81120	4.07925	3.09543	2.30296	6.75872	6.69503	6.65827	2.10816	1.96115	1.84881	8.57377	7.76761	7.13454
66630	1.64811	1.64505	1.55668	7.03137	7.01412	6.81438	4.07697	3.09687	2.30708	6.76472	6.69773	6.66066	2.11067	1.96441	1.84859	8.57203	7.76995	7.13681
66800	1.64721	1.64545	1.55472	7.03319	7.01431	6.81489	4.07918	3.09743	2.30776	6.76249	6.69560	6.65968	2.11191	1.96375	1.84940	8.56966	7.77270	7.13947
66960	1.64975	1.64565	1.55871	7.03448	7.01924	6.81719	4.08589	3.09971	2.30858	6.76721	6.69976	6.66142	2.11171	1.96328	1.84830	8.57432	7.76906	7.13612
67130	1.64790	1.64598	1.55525	7.03404	7.01598	6.81581	4.07665	3.09747	2.30787	6.76457	6.69784	6.65947	2.11161	1.96440	1.84598	8.56979	7.76823	7.13549
67290	1.64759	1.64424	1.55707	7.03217	7.01827	6.81502	4.07497	3.09753	2.30713	6.76548	6.69958	6.65994	2.11244	1.96348	1.84792	8.57153	7.76746	7.13466
67460	1.64742	1.64411	1.55786	7.02932	7.01355	6.81382	4.07269	3.09374	2.30272	6.76290	6.69819	6.65973	2.11146	1.96588	1.85147	8.57299	7.77253	7.14021
67620	1.65080	1.64425	1.55822	7.03351	7.01914	6.81587	4.07894	3.09852	2.30978	6.76419	6.69890	6.66134	2.11114	1.96238	1.84582	8.57192	7.77138	7.13697	35.15	6.1	0.00	-2.04	0.01724	0.01194	0.01512	0.01836	0.01896	0.01483	0.00543	0.01507	0.01995	0.01865	0.01295	0.01649	0.01697	0.01755	0.01371	0.00576	0.01620	0.02157
67790	1.64696	1.64379	1.55738	7.03354	7.01583	6.81161	4.09072	3.09416	2.30622	6.76568	6.69981	6.65804	2.10851	1.95967	1.84378	8.57078	7.76672	7.13443
67950	1.64735	1.64557	1.55761	7.03426	7.01603	6.81625	4.08319	3.09934	2.30852	6.76619	6.70048	6.66116	2.11281	1.96378	1.84791	8.57585	7.76966	7.13669
68120	1.64559	1.64141	1.55535	7.03263	7.01668	6.81558	4.07541	3.09243	2.30319	6.76209	6.69682	6.65815	2.10889	1.96337	1.84660	8.57265	7.76734	7.13541
68280	1.64673	1.64272	1.55672	7.03146	7.01726	6.81466	4.07748	3.09638	2.30273	6.76391	6.69845	6.65972	2.10932	1.96124	1.84715	8.56772	7.76738	7.13472
68450	1.64561	1.64320	1.55605	7.03180	7.01779	6.81630	4.07020	3.09349	2.30474	6.76311	6.69939	6.66109	2.10863	1.96141	1.84488	8.56690	7.76730	7.13437
68610	1.64810	1.64454	1.55902	7.03334	7.01855	6.81497	4.07833	3.09734	2.30678	6.76678	6.70176	6.66283	2.10929	1.96063	1.84484	8.56827	7.76765	7.13636
68780	1.64696	1.64240	1.55310	7.03130	7.01352	6.81097	4.07659	3.09164	2.30180	6.76470	6.69688	6.65460	2.10965	1.96291	1.84872	8.57416	7.77095	7.13771
68940	1.64825	1.64582	1.55816	7.03401	7.01492	6.81553	4.07955	3.09383	2.30734	6.76398	6.69789	6.65687	2.11026	1.96440	1.84499	8.57311	7.77171	7.13583
69110	1.64642	1.64317	1.55443	7.03322	7.01760	6.81453	4.08729	3.09529	2.30453	6.76345	6.69986	6.66268	2.10879	1.96311	1.84845	8.57516	7.77183	7.13933
69270	1.64903	1.64372	1.55599	7.03426	7.01822	6.81678	4.07422	3.09798	2.30585	6.76606	6.70109	6.66180	2.10842	1.96391	1.84565	8.57118	7.76975	7.13695	35.10	6.2	0.00	-2.04	0.01724	0.01194	0.01512	0.01836	0.01896	0.01483	0.00543	0.01507	0.01995	0.01865	0.01295	0.01649	0.01697	0.01755	0.01371	0.00576	0.01620	0.02157
69440	1.64475	1.64433	1.55773	7.03523	7.01727	6.81581	4.07982	3.09713	2.30666	6.76937	6.70020	6.66074	2.11146	1.96249	1.84596	8.57419	7.76985	7.14015
69600	1.64671	1.64347	1.55415	7.03341	7.01771	6.81587	4.07073	3.09399	2.30381	6.76140	6.70102	6.65991	2.11056	1.96238	1.84813	8.57277	7.77237	7.13846
69770	1.64844	1.64295	1.55500	7.03643	7.02013	6.81702	4.08011	3.09449	2.30393	6.76810	6.70076	6.66133	2.10802	1.96282	1.84470	8.57309	7.76776	7.13638
69930	1.64447	1.64224	1.55445	7.03240	7.01849	6.81847	4.08189	3.09298	2.30342	6.76730	6.70202	6.66300	2.11021	1.96123	1.84431	8.57296	7.76856	7.13655
70090	1.64470	1.64254	1.55201	7.03445	7.01540	6.81355	4.06617	3.09403	2.29922	6.76099	6.69675	6.65733	2.10942	1.96086	1.84216	8.57488	7.76721	7.13480
70260	1.64529	1.63869	1.55378	7.03449	7.01657	6.81328	4.07244	3.09261	2.30194	6.76123	6.69733	6.66152	2.10744	1.95999	1.84413	8.57245	7.77022	7.13616
70420	1.64296	1.64212	1.55184	7.03149	7.01461	6.81174	4.06962	3.09169	2.30170	6.76288	6.69871	6.65720	2.10900	1.96246	1.84731	8.57725	7.77224	7.13885
70590	1.64627	1.64259	1.55608	7.03704	7.01912	6.81633	4.08064	3.09248	2.30548	6.76671	6.70189	6.66108	2.11010	1.96048	1.84525	8.57319	7.77130	7.13693
70750	1.64647	1.64338	1.55451	7.03543	7.01955	6.81509	4.08075	3.09446	2.30277	6.76505	6.70038	6.65966	2.10964	1.96198	1.84547	8.57332	7.76909	7.13626
70920	1.64650	1.64305	1.55373	7.03594	7.01735	6.81704	4.08378	3.09414	2.30652	6.76701	6.70152	6.66065	2.11013	1.96060	1.84356	8.57360	7.77104	7.13872	35.15	6.1	0.00	-2.04	0.01724	0.01194	0.01512	0.01836	0.01896	0.01483	0.00543	0.01506	0.01995	0.01865	0.01295	0.01649	0.01697	0.01755	0.01371	0.00576	0.01620	0.02157
71080	1.64456	1.64065	1.55668	7.03504	7.01783	6.81632	4.07650	3.09310	2.30244	6.76422	6.69912	6.66025	2.10730	1.96102	1.84455	8.57501	7.77254	7.13956
71250	1.64676	1.64429	1.55631	7.03940	7.02136	6.81920	4.07971	3.09617	2.30699	6.76917	6.70250	6.66289	2.10777	1.96058	1.84477	8.57519	7.77254	7.13825
71410	1.64857	1.64655	1.55737	7.04057	7.02518	6.82162	4.08814	3.10006	2.30638	6.77219	6.70599	6.66508	2.11208	1.96208	1.84312	8.57899	7.77607	7.14189
71580	1.64724	1.64196	1.55411	7.04062	7.02441	6.82062	4.07283	3.09263	2.30504	6.76803	6.70390	6.66231	2.10954	1.96170	1.84163	8.57670	7.77282	7.13877
71740	1.64541	1.64153	1.55425	7.03773	7.02239	6.81872	4.07308	3.09644	2.30275	6.76851	6.70251	6.66041	2.10901	1.96102	1.84439	8.57524	7.77154	7.13741
71910	1.64642	1.64121	1.55529	7.03760	7.01942	6.81591	4.07554	3.09527	2.30316	6.76907	6.70450	6.66399	2.10766	1.96085	1.84695	8.58027	7.77518	7.14097
72070	1.64790	1.64293	1.55609	7.03690	7.02158	6.81845	4.08278	3.09640	2.30411	6.76959	6.70483	6.66480	2.10959	1.95962	1.84133	8.57812	7.77371	7.13917
72240	1.64468	1.64211	1.55555	7.03769	7.02349	6.81935	4.08121	3.09801	2.30569	6.76924	6.70425	6.66345	2.11049	1.96282	1.84363	8.57926	7.77401	7.14009
72400	1.64627	1.64184	1.55488	7.03770	7.02189	6.81733	4.06952	3.09238	2.30075	6.76781	6.70176	6.66038	2.11048	1.96298	1.84815	8.57579	7.77642	7.14268
72570	1.64892	1.64320	1.55605	7.04181	7.02430	6.82121	4.07555	3.09557	2.30363	6.77031	6.70488	6.66008	2.11127	1.96137	1.84469	8.57948	7.77414	7.13830	35.10	5.9	0.00	-2.04	0.01724	0.01194	0.01512	0.01836	0.01896	0.01483	0.00543	0.01506	0.01995	0.01865	0.01295	0.01649	0.01697	0.01755	0.01371	0.00576	0.01620	0.02157
72730	1.64375	1.64025	1.55542	7.04011	7.02389	6.82017	4.07919	3.09723	2.30558	6.76944	6.70264	6.66305	2.11095	1.96306	1.84688	8.57628	7.77255	7.13972
72900	1.64807	1.64193	1.55531	7.03743	7.02105	6.81724	4.07883	3.09247	2.30161	6.76827	6.70043	6.66054	2.11169	1.96397	1.84585	8.57505	7.77392	7.14069
73060	1.64707	1.64173	1.55557	7.04048	7.02137	6.81687	4.08087	3.09462	2.30280	6.76728	6.69960	6.66116	2.10671	1.95966	1.84357	8.57125	7.76961	7.13775
73220	1.64484	1.63994	1.55610	7.03963	7.02350	6.82264	4.07866	3.09546	2.30439	6.76949	6.70593	6.66325	2.11171	1.96127	1.84445	8.57550	7.77263	7.13976
73390	1.64730	1.64206	1.55356	7.03929	7.02281	6.81945	4.07630	3.08957	2.29992	6.76805	6.70265	6.66236	2.10807	1.95913	1.84618	8.57048	7.77190	7.14116
73550	1.64696	1.64042	1.55377	7.03704	7.02075	6.82040	4.07905	3.09180	2.30476	6.77113	6.70478	6.66508	2.10640	1.95819	1.84100	8.57290	7.77221	7.13834
73720	1.64594	1.64023	1.55453	7.03852	7.02208	6.82020	4.08026	3.09661	2.30472	6.77255	6.70467	6.66610	2.10929	1.95927	1.84255	8.57596	7.77581	7.14209
73880	1.64517	1.64136	1.55478	7.03742	7.02467	6.82228	4.06882	3.09007	2.30082	6.76574	6.70351	6.66293	2.10707	1.96145	1.84434	8.57610	7.77655	7.14209
74050	1.64744	1.64086	1.55341	7.04150	7.02370	6.82096	4.06921	3.09690	2.30330	6.76796	6.70180	6.66356	2.10916	1.96294	1.84571	8.57610	7.77234	7.14031
74210	1.64577	1.64083	1.55533	7.04456	7.02669	6.82534	4.08197	3.09540	2.30657	6.76959	6.70481	6.66536	2.11170	1.96315	1.84678	8.57744	7.77532	7.14319	35.15	6.1	0.00	-2.04	0.01724	0.01194	0.01512	0.01836	0.01896	0.01483	0.00543	0.01506	0.01995	0.01865	0.01295	0.01649	0.01697	0.01755	0.01371	0.00576	0.01620	0.02157
74380	1.64706	1.64172	1.55495	7.04168	7.02452	6.81993	4.07844	3.09481	2.30389	6.76859	6.70332	6.66179	2.10691	1.96105	1.84295	8.57347	7.77419	7.14089
74540	1.64408	1.63939	1.55385	7.03881	7.02380	6.82016	4.07209	3.09583	2.30310	6.76992	6.70308	6.66455	2.10807	1.96175	1.84658	8.57411	7.77430	7.14161
74710	1.64675	1.64122	1.55566	7.04153	7.02374	6.82417	4.07605	3.09296	2.30139	6.77150	6.70595	6.66495	2.10952	1.96279	1.84675	8.57795	7.77850	7.14409
74870	1.64570	1.64158	1.55623	7.04262	7.02643	6.82386	4.07501	3.09575	2.30288	6.77325	6.70581	6.66677	2.10898	1.95721	1.84533	8.58083	7.77843	7.14469
75040	1.64523	1.64123	1.55736	7.04208	7.02537	6.82496	4.07359	3.09665	2.30222	6.77678	6.70728	6.66849	2.10683	1.96049	1.84307	8.58321	7.77905	7.14390
75200	1.64570	1.64329	1.55553	7.04376	7.02473	6.82273	4.07462	3.09015	2.29830	6.77054	6.70358	6.66590	2.10604	1.95821	1.84192	8.58700	7.78052	7.14646
75370	1.64776	1.64104	1.55408	7.04428	7.02672	6.82421	4.08072	3.09426	2.30264	6.77014	6.70547	6.66760	2.10551	1.95868	1.84191	8.58604	7.77760	7.14302
75530	1.64469	1.63899	1.55513	7.04208	7.02737	6.82487	4.08026	3.09269	2.30410	6.77236	6.70687	6.66597	2.10940	1.96060	1.84615	8.58430	7.77948	7.14502
75700	1.64538	1.64133	1.55277	7.04223	7.02337	6.82144	4.07847	3.08936	2.30013	6.76617	6.70060	6.66477	2.10811	1.96123	1.84401	8.58343	7.78062	7.14673
75860	1.64574	1.64200	1.55556	7.04673	7.02582	6.82030	4.06990	3.09159	2.30073	6.77367	6.70472	6.66355	2.10631	1.95763	1.84225	8.57924	7.77517	7.14137	35.15	6.0	0.00	-2.04	0.01724	0.01194	0.01512	0.01836	0.01896	0.01483	0.00543	0.01506	0.01995	0.01865	0.01295	0.01649	0.01697	0.01755	0.01371	0.00576	0.01620	0.02157
76020	1.64672	1.64412	1.55763	7.04561	7.02677	6.82193	4.07910	3.09819	2.30447	6.77325	6.70380	6.66703	2.10771	1.95920	1.84338	8.58445	7.78007	7.14720
76190	1.64655	1.64052	1.55430	7.04116	7.02218	6.82033	4.07585	3.09390	2.30099	6.76762	6.70093	6.66172	2.10743	1.95978	1.84449	8.58958	7.78264	7.14612
76350	1.64804	1.64242	1.55544	7.04481	7.02566	6.81988	4.07860	3.09306	2.30137	6.76957	6.70425	6.66330	2.10754	1.95665	1.84138	8.58386	7.77892	7.14225
76520	1.64482	1.63950	1.55397	7.04276	7.02629	6.82168	4.08031	3.09370	2.30070	6.77197	6.70609	6.66385	2.10757	1.95851	1.84262	8.58203	7.77965	7.14361
76680	1.64474	1.63929	1.55258	7.04123	7.02387	6.82170	4.07264	3.08685	2.29773	6.76923	6.70240	6.66141	2.10553	1.95940	1.84069	8.58272	7.77849	7.14446
76850	1.64520	1.64028	1.55364	7.04052	7.02572	6.82154	4.07924	3.09352	2.30200	6.76877	6.70236	6.66254	2.10514	1.95747	1.84139	8.58308	7.77804	7.14255
77010	1.64411	1.63949	1.55630	7.04298	7.02824	6.81987	4.07910	3.09473	2.30392	6.77042	6.70478	6.66349	2.10793	1.95740	1.84211	8.58336	7.77916	7.14417
77180	1.64242	1.63805	1.55303	7.04195	7.02476	6.81992	4.08010	3.09214	2.30042	6.76957	6.70234	6.66351	2.10545	1.95879	1.84362	8.58322	7.77993	7.14682
77340	1.64747	1.63997	1.55478	7.04461	7.02825	6.82303	4.07261	3.09271	2.30134	6.77059	6.70417	6.66303	2.10481	1.95697	1.84235	8.57947	7.77682	7.14327
77510	1.64618	1.64201	1.55592	7.04399	7.02901	6.82512	4.06983	3.09470	2.30057	6.77381	6.70636	6.66457	2.10838	1.96030	1.84418	8.58428	7.77997	7.14534	35.10	6.1	0.00	-2.04	0.01724	0.01194	0.01512	0.01836	0.01896	0.01483	0.00543	0.01506	0.01995	0.01865	0.01295	0.01649	0.01697	0.01755	0.01371	0.00576	0.01620	0.02157
77670	1.64504	1.64136	1.55438	7.04422	7.02638	6.82118	4.07314	3.09070	2.30028	6.77168	6.70296	6.66288	2.10492	1.95604	1.84031	8.58204	7.77726	7.14198
77840	1.64409	1.63913	1.55407	7.04181	7.02611	6.82283	4.07482	3.09463	2.30446	6.77210	6.70512	6.66296	2.10642	1.95781	1.84223	8.58332	7.77800	7.14466
78000	1.64506	1.63890	1.55475	7.04440	7.02507	6.82137	4.07988	3.09241	2.30071	6.76917	6.70262	6.66224	2.10564	1.95930	1.84180	8.58085	7.77952	7.14598
78170	1.64472	1.63963	1.55424	7.04354	7.02687	6.82160	4.07222	3.09131	2.29928	6.76982	6.70341	6.66378	2.10288	1.95643	1.84310	8.57925	7.77690	7.14413
78330	1.64221	1.64142	1.55554	7.04155	7.02749	6.82442	4.07482	3.09522	2.30217	6.77081	6.70543	6.66612	2.10558	1.95954	1.84281	8.58643	7.78208	7.14664
78500	1.64422	1.63826	1.55209	7.04233	7.02873	6.82269	4.07325	3.08891	2.29750	6.77159	6.70159	6.66272	2.10709	1.96224	1.84590	8.58465	7.78496	7.15176
78660	1.64728	1.64130	1.55595	7.04795	7.03229	6.82886	4.07924	3.09487	2.30385	6.77469	6.70997	6.66958	2.10646	1.95875	1.84290	8.58868	7.78259	7.15079
78830	1.64297	1.63932	1.55207	7.04866	7.03306	6.82916	4.07132	3.09252	2.30247	6.77585	6.71124	6.67382	2.10478	1.95570	1.84201	8.58890	7.78677	7.14663
78990	1.64504	1.64101	1.55420	7.04772	7.04406	6.83449	4.07860	3.09420	2.30020	6.78133	6.71541	6.66320	2.10684	1.95593	1.84387	8.59861	7.78120	7.14109
79160	1.64500	1.63755	1.55212	7.05512	7.01965	6.82355	4.07646	3.08896	2.29803	6.77397	6.69992	6.67613	2.10758	1.95990	1.84504	8.57846	7.78604	7.16041	35.15	6.1	0.00	-2.04	0.01724	0.01194	0.01512	0.01836	0.01896	0.01483	0.00543	0.01506	0.01995	0.01865	0.01295	0.01649	0.01697	0.01755	0.01371	0.00576	0.01620	0.02157
79320	1.64588	1.63936	1.55416	7.05114	7.03920	6.82836	4.07696	3.09099	2.29924	6.77857	6.71786	6.66581	2.10517	1.95892	1.83963	8.58020	7.78028	7.14896
79490	1.64469	1.64018	1.55381	7.05199	7.02991	6.82027	4.07418	3.09345	2.29977	6.78528	6.71141	6.66953	2.10366	1.95657	1.84110	8.58738	7.77348	7.14245
79650	1.64250	1.64343	1.55593	7.05721	7.01224	6.81333	4.07279	3.09565	2.30475	6.77296	6.67695	6.67335	2.10512	1.95839	1.84238	8.56562	7.76033	7.16183
79820	1.64192	1.63947	1.55122	7.01477	7.01705	6.83960	4.07161	3.09132	2.29937	6.73612	6.70078	6.67160	2.10896	1.96089	1.84327	8.57202	7.79050	7.15469
79980	1.64451	1.64208	1.55628	7.04228	7.04446	6.82374	4.08074	3.09369	2.30305	6.77059	6.71093	6.65535	2.10642	1.95962	1.84376	8.58985	7.78312	7.14075
80150	1.64328	1.64037	1.55675	7.05048	7.02845	6.81238	4.07882	3.09220	2.29965	6.77678	6.71931	6.66363	2.10735	1.95925	1.84519	8.58235	7.78966	7.14676
80310	1.64707	1.64328	1.55509	7.03788	7.03788	6.82262	4.07539	3.09221	2.30267	6.76477	6.70061	6.65153	2.10651	1.95710	1.84332	8.57334	7.76959	7.13497
80480	1.64403	1.64060	1.55288	7.03516	7.01663	6.81427	4.07450	3.09179	2.29891	6.76051	6.69548	6.65265	2.10398	1.95538	1.83857	8.57321	7.77093	7.13584
80640	1.64394	1.64008	1.55487	7.03646	7.01845	6.81660	4.06676	3.09534	2.30232	6.75482	6.69437	6.65938	2.10574	1.95779	1.84122	8.57928	7.77590	7.14110
80810	1.64202	1.63962	1.55302	7.03650	7.01827	6.81523	4.07092	3.09154	2.29844	6.75899	6.69378	6.65247	2.10852	1.96062	1.84451	8.57998	7.77928	7.14279	35.15	6.1	0.00	-2.04	0.01724	0.01194	0.01512	0.01836	0.01896	0.01483	0.00543	0.01506	0.01995	0.01865	0.01295	0.01649	0.01697	0.01755	0.01371	0.00576	0.01620	0.02157
80970	1.64390	1.63916	1.55331	7.04508	7.02565	6.81736	4.07378	3.09140	2.30118	6.76741	6.69973	6.65458	2.10585	1.95848	1.84198	8.57870	7.77629	7.14123
81140	1.64414	1.64342	1.55605	7.04560	7.02561	6.82190	4.07310	3.09325	2.29943	6.77136	6.70372	6.66135	2.10632	1.95881	1.84082	8.58387	7.78031	7.14447
81300	1.64498	1.64090	1.55203	7.04237	7.02240	6.82047	4.07445	3.09016	2.29766	6.77117	6.70042	6.66108	2.10559	1.95793	1.84032	8.58693	7.78207	7.14952
81470	1.64470	1.64199	1.55388	7.04444	7.02656	6.82293	4.06928	3.09252	2.30016	6.76556	6.70173	6.66313	2.10551	1.95534	1.83956	8.58112	7.77982	7.14532
81630	1.64285	1.64073	1.55308	7.04309	7.02735	6.82325	4.08105	3.09148	2.30215	6.77112	6.70360	6.66101	2.10712	1.95793	1.84139	8.58314	7.78077	7.14763
81800	1.64328	1.63713	1.55000	7.04316	7.02568	6.82030	4.06636	3.08899	2.29891	6.76622	6.69984	6.65929	2.10663	1.95811	1.84119	8.58446	7.78174	7.14788
81960	1.64258	1.63875	1.55140	7.04236	7.02419	6.82265	4.06369	3.09096	2.29840	6.76598	6.69987	6.65934	2.10505	1.95727	1.83968	8.57911	7.77694	7.14245
82120	1.64122	1.64007	1.55211	7.04310	7.02575	6.82150	4.06864	3.09318	2.29993	6.77219	6.69987	6.66054	2.10421	1.95743	1.84116	8.58606	7.77636	7.14189
82290	1.64215	1.64064	1.55191	7.04108	7.02186	6.82055	4.06714	3.08735	2.29609	6.76958	6.70005	6.65942	2.10618	1.95752	1.84256	8.58437	7.77928	7.14490
82460	1.64279	1.64210	1.55309	7.04263	7.02462	6.82191	4.07921	3.09111	2.29946	6.76971	6.70137	6.66085	2.10577	1.95332	1.83798	8.57972	7.77743	7.14235	35.15	5.9	0.00	-2.04	0.01724	0.01194	0.01512	0.01836	0.01896	0.01482	0.00543	0.01506	0.01995	0.01865	0.01295	0.01649	0.01697	0.01755	0.01371	0.00576	0.01620	0.02157
82620	1.64410	1.64199	1.55532	7.04234	7.02652	6.82277	4.06904	3.09418	2.30349	6.76921	6.70263	6.66447	2.10797	1.95893	1.84237	8.58232	7.77812	7.14564
82780	1.64292	1.63782	1.55211	7.04170	7.02295	6.82123	4.06259	3.09234	2.29856	6.76275	6.69745	6.66142	2.10418	1.95632	1.84228	8.57921	7.77731	7.14247
82950	1.64029	1.63556	1.55005	7.03849	7.01906	6.81760	4.07525	3.09024	2.29929	6.76271	6.69839	6.66035	2.10525	1.95765	1.83999	8.58072	7.77919	7.14546
83120	1.64009	1.63900	1.55390	7.03851	7.02111	6.82063	4.07439	3.08777	2.29789	6.76840	6.69979	6.66044	2.10299	1.95790	1.84459	8.58150	7.77975	7.14532
83280	1.64282	1.64100	1.55417	7.04429	7.02507	6.81958	4.07764	3.09545	2.30105	6.76946	6.70115	6.66264	2.10545	1.95635	1.84064	8.58424	7.77892	7.14372
83450	1.64212	1.64080	1.55218	7.04104	7.02330	6.82272	4.07090	3.08948	2.29803	6.76813	6.70006	6.66283	2.10395	1.95566	1.83924	8.58008	7.77869	7.14412
83610	1.64159	1.63909	1.55308	7.03907	7.02410	6.82256	4.07268	3.09071	2.30007	6.76932	6.70050	6.66114	2.10382	1.95726	1.84254	8.58054	7.77762	7.14196
83780	1.64144	1.63739	1.55196	7.03766	7.01879	6.81562	4.06819	3.08752	2.29650	6.76483	6.69411	6.65624	2.10504	1.95693	1.84266	8.58182	7.77909	7.14406
83940	1.64260	1.63900	1.55340	7.04063	7.02308	6.81887	4.06608	3.09052	2.29826	6.76549	6.69776	6.66015	2.10541	1.95647	1.83933	8.58090	7.77832	7.14124
84110	1.64193	1.63945	1.55059	7.03879	7.02053	6.81716	4.06232	3.08768	2.29891	6.76964	6.69794	6.66032	2.10346	1.95788	1.84297	8.58183	7.77615	7.14062	35.15	6.0	0.00	-2.04	0.01724	0.01194	0.01512	0.01836	0.01896	0.01482	0.00543	0.01506	0.01995	0.01865	0.01295	0.01649	0.01697	0.01754	0.01371	0.00576	0.01620	0.02157
84270	1.64452	1.64253	1.55406	7.03809	7.02281	6.81888	4.07857	3.09270	2.30252	6.76702	6.69788	6.66014	2.10460	1.95562	1.84162	8.58370	7.77778	7.14255
84440	1.64098	1.63677	1.55031	7.03789	7.01922	6.81582	4.07308	3.08968	2.29922	6.76154	6.69459	6.65763	2.10548	1.95746	1.84221	8.58393	7.78169	7.14632
84600	1.64385	1.63848	1.55213	7.04232	7.02305	6.81662	4.07989	3.09249	2.30360	6.76282	6.69470	6.65745	2.10548	1.95754	1.83991	8.57954	7.77826	7.14151
84770	1.64149	1.63978	1.55183	7.03825	7.02265	6.81691	4.07401	3.09153	2.30045	6.76222	6.69730	6.65562	2.10507	1.95550	1.83951	8.57840	7.77606	7.13945
84930	1.64238	1.64032	1.55530	7.04102	7.02593	6.81973	4.07194	3.09377	2.30178	6.76759	6.69754	6.65880	2.10391	1.95648	1.84121	8.58105	7.77572	7.13956
85100	1.64237	1.63922	1.55206	7.03970	7.02000	6.81642	4.06748	3.08783	2.29412	6.76476	6.69378	6.65497	2.10407	1.95717	1.84130	8.58403	7.77837	7.14279
85260	1.64539	1.64122	1.55310	7.04248	7.02251	6.81747	4.07055	3.09059	2.30073	6.76210	6.69562	6.66115	2.10294	1.95269	1.83938	8.58499	7.77714	7.14302
85430	1.64070	1.63935	1.55132	7.03586	7.01940	6.81926	4.07904	3.09079	2.29907	6.75722	6.69534	6.65483	2.10407	1.95534	1.84057	8.58247	7.77784	7.14244
85590	1.64289	1.63787	1.55198	7.04176	7.02561	6.81716	4.07772	3.09413	2.30099	6.76129	6.69833	6.65418	2.10661	1.95654	1.84039	8.57931	7.77440	7.13860
85760	1.64057	1.63788	1.55195	7.03899	7.02261	6.81521	4.07747	3.08770	2.30013	6.76728	6.69924	6.65530	2.10397	1.95599	1.84237	8.58463	7.77665	7.13867	35.10	6.1	0.00	-2.04	0.01724	0.01194	0.01512	0.01836	0.01896	0.01482	0.00543	0.01506	0.01995	0.01865	0.01295	0.01649	0.01697	0.01754	0.01371	0.00576	0.01620	0.02157
85920	1.64247	1.63761	1.55053	7.03691	7.01989	6.81436	4.07045	3.08535	2.29481	6.76207	6.69282	6.65124	2.10048	1.95572	1.83728	8.58129	7.77550	7.13742
86090	1.64014	1.63798	1.55131	7.03818	7.01934	6.81361	4.06820	3.09063	2.29854	6.75942	6.69258	6.65355	2.10093	1.95280	1.83770	8.57791	7.77179	7.13558
86250	1.63743	1.63781	1.55138	7.03652	7.02041	6.81361	4.07865	3.09427	2.30081	6.76161	6.69486	6.65620	2.10734	1.95602	1.84070	8.58235	7.77410	7.13979
86420	1.64175	1.63803	1.54962	7.03636	7.02078	6.81421	4.07451	3.08757	2.29725	6.75776	6.69077	6.65404	2.10562	1.95767	1.84272	8.58450	7.77750	7.14195
86580	1.64268	1.63700	1.55189	7.04214	7.02236	6.81556	4.07476	3.09317	2.29971	6.76131	6.69520	6.65660	2.10209	1.95475	1.83837	8.57924	7.77620	7.14045
86750	1.63918	1.63560	1.55178	7.03741	7.02163	6.81509	4.07419	3.08764	2.29922	6.75862	6.69475	6.65263	2.10331	1.95478	1.83855	8.57878	7.77416	7.14009
86910	1.63911	1.63762	1.55136	7.03827	7.02177	6.81564	4.07006	3.09083	2.29881	6.76020	6.69379	6.65167	2.10282	1.95691	1.84237	8.58317	7.77448	7.13904
87080	1.63954	1.63440	1.54954	7.03882	7.02086	6.81293	4.07205	3.08809	2.29766	6.76382	6.69317	6.65030	2.10457	1.95765	1.84397	8.58166	7.77628	7.14040
87240	1.64327	1.64014	1.55252	7.03876	7.02090	6.81618	4.07804	3.09006	2.29905	6.76423	6.69553	6.65686	2.10140	1.95407	1.84088	8.57956	7.77252	7.13767
87410	1.64258	1.64077	1.55500	7.04119	7.02358	6.81681	4.08003	3.09412	2.29957	6.76499	6.69755	6.65652	2.10617	1.95742	1.84137	8.58591	7.77897	7.14284	35.15	6.0	0.00	-2.04	0.01724	0.01194	0.01512	0.01836	0.01896	0.01482	0.00543	0.01506	0.01995	0.01865	0.01295	0.01649	0.01697	0.01754	0.01371	0.00576	0.01620	0.02157
87570	1.63901	1.63759	1.55295	7.04022	7.02121	6.81405	4.06958	3.09091	2.29931	6.75754	6.69247	6.65288	2.10486	1.95438	1.84014	8.57722	7.77445	7.13801
87740	1.63679	1.63557	1.54811	7.03482	7.01914	6.81129	4.06509	3.08811	2.29478	6.75972	6.69181	6.64817	2.10328	1.95532	1.84028	8.57859	7.77466	7.13711
87900	1.64201	1.63762	1.55196	7.03853	7.02011	6.81275	4.07667	3.08763	2.29638	6.76212	6.69173	6.65151	2.10158	1.95451	1.83865	8.57736	7.77054	7.13353
88070	1.64032	1.63783	1.55290	7.03976	7.02042	6.81496	4.08053	3.08815	2.29875	6.76132	6.69367	6.65101	2.10565	1.95457	1.83897	8.58084	7.77299	7.13767
88230	1.64018	1.63569	1.54900	7.03721	7.01586	6.80986	4.07246	3.08535	2.29388	6.76051	6.69011	6.65065	2.10286	1.95378	1.84053	8.57727	7.77110	7.13777
88400	1.64061	1.63839	1.55300	7.03693	7.02116	6.81528	4.06872	3.09111	2.29935	6.76161	6.69381	6.65445	2.10311	1.95411	1.84087	8.58097	7.77485	7.13912
88560	1.63999	1.63705	1.55302	7.03764	7.02040	6.81501	4.07396	3.08920	2.29903	6.76246	6.69426	6.65537	2.10577	1.95694	1.83967	8.58193	7.77610	7.14072
88730	1.64290	1.64026	1.55360	7.04248	7.02258	6.81697	4.06986	3.09231	2.29972	6.76451	6.69457	6.65529	2.10414	1.95693	1.83952	8.58367	7.77596	7.13988
88890	1.63975	1.63800	1.55081	7.04046	7.02131	6.81592	4.07657	3.08799	2.29579	6.76128	6.69220	6.65391	2.10074	1.95453	1.83942	8.57832	7.77194	7.13822
89060	1.64194	1.63849	1.55177	7.03928	7.02089	6.81765	4.06847	3.09071	2.29945	6.76277	6.69556	6.65513	2.10248	1.95456	1.84022	8.58144	7.77486	7.14135	35.10	6.2	0.00	-2.04	0.01724	0.01194	0.01512	0.01836	0.01896	0.01482	0.00543	0.01506	0.01995	0.01865	0.01295	0.01649	0.01697	0.01754	0.01371	0.00576	0.01620	0.02157
89220	1.64056	1.63491	1.54823	7.03810	7.01835	6.81263	4.07011	3.08798	2.29672	6.75750	6.69017	6.65303	2.10474	1.95650	1.84206	8.58515	7.77839	7.14298
89390	1.64410	1.63813	1.55219	7.03879	7.02253	6.81510	4.07935	3.08968	2.29996	6.76071	6.69386	6.65470	2.10371	1.95779	1.83997	8.57806	7.77451	7.13946
89550	1.64104	1.63785	1.55052	7.03713	7.02102	6.81310	4.06997	3.08906	2.29701	6.76171	6.69306	6.64886	2.10130	1.95261	1.83874	8.57943	7.77217	7.13431
89720	1.64063	1.63813	1.55113	7.03774	7.02030	6.81331	4.07246	3.09004	2.29848	6.76386	6.69354	6.65314	2.10211	1.95406	1.84090	8.57605	7.77390	7.13899
89880	1.64009	1.63399	1.54946	7.03484	7.01756	6.81070	4.07867	3.08690	2.29452	6.75790	6.69165	6.65221	2.10261	1.95734	1.84169	8.58373	7.77884	7.14134
90050	1.64306	1.63816	1.55179	7.03976	7.02131	6.81581	4.07325	3.08876	2.29773	6.76055	6.69341	6.65169	2.10319	1.95372	1.84155	8.58167	7.77322	7.13889
90210	1.63894	1.63626	1.55001	7.03439	7.01961	6.81356	4.07029	3.08784	2.29758	6.75801	6.69049	6.65111	2.09948	1.95299	1.83653	8.57765	7.77113	7.13568
90380	1.63932	1.63761	1.55176	7.03778	7.02136	6.81366	4.07824	3.08866	2.30014	6.76274	6.69710	6.65462	2.10261	1.95306	1.83872	8.58437	7.77833	7.13957
90540	1.63870	1.63417	1.55029	7.03647	7.01957	6.81256	4.06662	3.08703	2.29561	6.75962	6.69070	6.65141	2.10001	1.94991	1.83949	8.57893	7.77529	7.13871
90710	1.63926	1.63638	1.54865	7.03794	7.02168	6.81495	4.07290	3.08970	2.29699	6.75962	6.69231	6.65292	2.10332	1.95744	1.83938	8.58553	7.78009	7.14463	35.21	5.9	0.00	-2.04	0.01724	0.01194	0.01512	0.01836	0.01896	0.01482	0.00543	0.01506	0.01995	0.01865	0.01295	0.01649	0.01697	0.01754	0.01371	0.00576	0.01620	0.02157
90870	1.64090	1.63816	1.55080	7.04178	7.02625	6.81743	4.07726	3.09260	2.29886	6.76314	6.69668	6.65485	2.10310	1.95179	1.83772	8.58540	7.77733	7.13984
91040	1.63954	1.63416	1.54859	7.03998	7.02019	6.81389	4.07512	3.08863	2.29608	6.75983	6.69179	6.65137	2.10119	1.95265	1.83659	8.58073	7.77305	7.13788
91200	1.63655	1.63445	1.54753	7.03686	7.01746	6.81258	4.06243	3.08566	2.29341	6.75600	6.69045	6.65291	2.10141	1.95400	1.83884	8.58663	7.77963	7.14503
91370	1.64057	1.63571	1.55197	7.04035	7.02261	6.81796	4.07283	3.09007	2.29894	6.76236	6.69437	6.65581	2.10269	1.95431	1.83823	8.58434	7.77631	7.14038
91530	1.63911	1.63454	1.54884	7.03995	7.02204	6.81423	4.06029	3.08791	2.29483	6.76065	6.69341	6.65323	2.10103	1.95224	1.83716	8.58402	7.77359	7.13919
91700	1.63793	1.63326	1.54683	7.03639	7.01734	6.81377	4.05986	3.08233	2.29341	6.76025	6.69025	6.65171	2.10069	1.95492	1.84077	8.58791	7.78019	7.14482
91860	1.64235	1.63748	1.54948	7.04160	7.02368	6.81821	4.06335	3.08823	2.29877	6.76247	6.69385	6.65253	2.10284	1.95457	1.83681	8.58700	7.77814	7.14148
92030	1.63826	1.63559	1.54795	7.03787	7.01790	6.81195	4.07515	3.09012	2.29571	6.75723	6.69068	6.64980	2.10144	1.95090	1.83604	8.57570	7.77513	7.14018
92190	1.63982	1.63553	1.54733	7.03408	7.01806	6.81490	4.06439	3.08801	2.29646	6.75621	6.69051	6.64836	2.10272	1.95376	1.83867	8.57639	7.77636	7.13903
92360	1.63877	1.63609	1.54775	7.03544	7.01985	6.81053	4.06378	3.08788	2.29453	6.75887	6.68821	6.64807	2.10140	1.95397	1.84008	8.58439	7.77599	7.14010	35.15	6.1	0.00	-2.04	0.01724	0.01194	0.01512	0.01836	0.01896	0.01482	0.00543	0.01506	0.01995	0.01865	0.01295	0.01649	0.01697	0.01754	0.01371	0.00576	0.01620	0.02157
92520	1.63972	1.63681	1.55119	7.03618	7.01787	6.80929	4.06680	3.08708	2.29652	6.76544	6.69021	6.64776	2.10039	1.95110	1.83882	8.58439	7.77193	7.13113
92690	1.64227	1.64105	1.55324	7.03936	7.01749	6.80868	4.08128	3.09392	2.30470	6.75774	6.68436	6.65057	2.10679	1.95351	1.83327	8.56830	7.80534	7.13680
92850	1.64065	1.63614	1.54880	7.06896	7.06088	6.79595	4.06794	3.08756	2.29766	6.75884	6.72745	6.62601	2.10109	1.95386	1.83896	8.58815	7.77753	7.12245
93020	1.64018	1.63771	1.55190	7.04132	7.01969	6.79180	4.07422	3.08973	2.29814	6.75727	6.68141	6.63407	2.10304	1.95628	1.84114	8.57904	7.76768	7.13173
93180	1.64300	1.63856	1.55332	7.02986	7.00628	6.80328	4.07543	3.09047	2.29602	6.75038	6.67880	6.64024	2.10308	1.95346	1.83925	8.57433	7.76464	7.13061
93350	1.63951	1.63727	1.55103	7.02977	7.00920	6.80886	4.07276	3.08900	2.29788	6.74954	6.68385	6.64535	2.10210	1.95342	1.83851	8.58009	7.77142	7.13700
