WetView ver 7.1	07-19-2019	19:19:16
AC9 Absorption and Attenuation Meter
00000311		; Serial number
2	; structure version number
Reserved
0.000000	0.000000		; Depth calibration
19200			; Baud rate
0.100000			; Path length (meters)
23			; number of temperature calibration bins
				12.61517	13.44096	14.46844	15.49904	16.50682	17.50108	18.49752	19.51783	20.49177	21.49009	22.48286	23.50673	24.54012	25.54812	26.49986	27.49321	28.50960	29.48671	30.47471	31.49432	32.50437	33.48679	34.49133	; temperature bins
a650	Blue	18.61587		0.01156	0.01096	0.01010	0.00930	0.00851	0.00774	0.00661	0.00573	0.00499	0.00402	0.00285	0.00203	0.00096	0.00000	-0.00110	-0.00152	-0.00210	-0.00247	-0.00259	-0.00317	-0.00346	-0.00380	-0.00403		; offset and temperature correction info
a676	Green	18.78942		0.00964	0.00899	0.00863	0.00813	0.00730	0.00639	0.00545	0.00448	0.00385	0.00301	0.00233	0.00165	0.00046	0.00000	-0.00106	-0.00167	-0.00251	-0.00280	-0.00316	-0.00329	-0.00377	-0.00392	-0.00441		; offset and temperature correction info
a715	Brown	18.59217		0.01171	0.01109	0.01043	0.00975	0.00878	0.00789	0.00685	0.00572	0.00469	0.00356	0.00255	0.00160	0.00061	0.00000	-0.00063	-0.00113	-0.00152	-0.00183	-0.00226	-0.00293	-0.00364	-0.00404	-0.00473		; offset and temperature correction info
c510	Red	18.18396		-0.00549	-0.00480	-0.00383	-0.00272	-0.00202	-0.00118	-0.00044	-0.00038	-0.00015	-0.00021	0.00013	0.00007	-0.00007	0.00000	-0.00007	-0.00065	-0.00045	-0.00018	0.00007	0.00039	-0.00001	-0.00002	-0.00045		; offset and temperature correction info
c532	Magenta	18.26528		-0.00721	-0.00645	-0.00581	-0.00518	-0.00465	-0.00345	-0.00281	-0.00270	-0.00182	-0.00141	-0.00108	-0.00072	-0.00022	0.00000	0.00044	0.00030	0.00031	-0.00006	-0.00052	-0.00089	-0.00142	-0.00149	-0.00154		; offset and temperature correction info
c555	Black	18.37125		-0.00430	-0.00419	-0.00381	-0.00319	-0.00286	-0.00254	-0.00205	-0.00196	-0.00138	-0.00137	-0.00067	-0.00051	-0.00030	0.00000	0.00067	0.00087	0.00057	0.00027	-0.00015	-0.00089	-0.00127	-0.00137	-0.00150		; offset and temperature correction info
a412	LtBlue	15.33566		-0.06011	-0.05567	-0.05012	-0.04441	-0.03922	-0.03412	-0.02941	-0.02503	-0.02049	-0.01588	-0.01121	-0.00784	-0.00311	0.00000	0.00273	0.00611	0.00757	0.00871	0.01066	0.01299	0.01539	0.01781	0.02175		; offset and temperature correction info
a440	LtGreen	16.05925		-0.01380	-0.01214	-0.01039	-0.00858	-0.00690	-0.00532	-0.00426	-0.00322	-0.00230	-0.00158	-0.00055	0.00006	0.00001	0.00000	0.00017	0.00016	-0.00094	-0.00222	-0.00363	-0.00486	-0.00567	-0.00651	-0.00782		; offset and temperature correction info
a488	Yellow	16.82827		0.00255	0.00293	0.00331	0.00354	0.00373	0.00378	0.00363	0.00350	0.00291	0.00225	0.00215	0.00142	0.00099	0.00000	-0.00092	-0.00169	-0.00295	-0.00396	-0.00479	-0.00542	-0.00582	-0.00604	-0.00663		; offset and temperature correction info
c650	Blue	18.49287		-0.00570	-0.00516	-0.00456	-0.00403	-0.00346	-0.00232	-0.00132	-0.00122	-0.00073	-0.00066	-0.00035	-0.00016	0.00003	0.00000	0.00044	0.00078	0.00108	0.00057	0.00040	-0.00042	-0.00033	-0.00029	-0.00034		; offset and temperature correction info
c676	Green	18.50570		0.00299	0.00293	0.00287	0.00293	0.00278	0.00294	0.00317	0.00251	0.00243	0.00215	0.00139	0.00123	0.00068	0.00000	-0.00041	-0.00106	-0.00205	-0.00268	-0.00325	-0.00413	-0.00495	-0.00610	-0.00674		; offset and temperature correction info
c715	Brown	17.88888		0.00826	0.00812	0.00773	0.00790	0.00766	0.00758	0.00753	0.00650	0.00571	0.00461	0.00359	0.00222	0.00101	0.00000	-0.00146	-0.00284	-0.00385	-0.00448	-0.00463	-0.00513	-0.00623	-0.00715	-0.00838		; offset and temperature correction info
a510	Red	17.18050		0.00353	0.00364	0.00354	0.00361	0.00381	0.00381	0.00356	0.00332	0.00277	0.00229	0.00176	0.00116	0.00036	0.00000	-0.00014	-0.00069	-0.00088	-0.00147	-0.00150	-0.00129	-0.00120	-0.00134	-0.00091		; offset and temperature correction info
a532	Magenta	17.40228		0.00550	0.00548	0.00526	0.00479	0.00464	0.00422	0.00393	0.00328	0.00253	0.00212	0.00136	0.00085	0.00039	0.00000	-0.00059	-0.00146	-0.00188	-0.00262	-0.00330	-0.00393	-0.00491	-0.00540	-0.00605		; offset and temperature correction info
a555	Black	17.72308		0.00849	0.00832	0.00800	0.00760	0.00724	0.00655	0.00580	0.00495	0.00435	0.00347	0.00252	0.00153	0.00049	0.00000	-0.00050	-0.00155	-0.00214	-0.00306	-0.00350	-0.00411	-0.00470	-0.00539	-0.00570		; offset and temperature correction info
c412	LtBlue	16.72802		-0.05949	-0.05458	-0.04744	-0.04134	-0.03547	-0.03064	-0.02511	-0.02047	-0.01574	-0.01163	-0.00761	-0.00442	-0.00204	0.00000	0.00100	0.00051	-0.00043	-0.00239	-0.00475	-0.00629	-0.00827	-0.00955	-0.01337		; offset and temperature correction info
c440	LtGreen	17.42637		-0.02723	-0.02503	-0.02216	-0.01930	-0.01691	-0.01394	-0.01125	-0.00926	-0.00732	-0.00582	-0.00401	-0.00226	-0.00093	0.00000	0.00082	0.00123	0.00133	0.00097	0.00038	-0.00003	-0.00022	-0.00023	-0.00125		; offset and temperature correction info
c488	Yellow	18.03666		-0.00640	-0.00554	-0.00465	-0.00357	-0.00276	-0.00154	-0.00067	-0.00031	-0.00014	-0.00012	0.00046	0.00032	0.00020	0.00000	0.00001	-0.00024	-0.00060	-0.00084	-0.00126	-0.00180	-0.00276	-0.00304	-0.00427		; offset and temperature correction info
0.003500	0.004000	0.015000	0.020000	0.015000	0.020000	2500.000000	2000.000000	1000.000000	; maxANoise	maxCNoise	maxADifference	maxCDifference	minACounts	minCCounts	minRCounts	maxTempSdev	maxDepthSdev
0			; auxilliary capabilities
1			; acquisition binsize
0	1.30683	1.28344	1.15451	2.29928	2.07055	1.88847	5.22249	3.49601	2.24000	1.51166	1.52647	1.41702	1.88197	1.64338	1.58629	5.25078	3.72853	2.55694	32.58	5.8	0.00	-2.04	0.01740	0.01205	0.01524	0.01863	0.01917	0.01499	0.00548	0.01518	0.02015	0.01901	0.01334	0.01698	0.01713	0.01770	0.01382	0.00577	0.01628	0.02183
170	1.30167	1.31882	1.19111	2.27169	2.05092	1.87380	5.27146	3.54560	2.33638	1.50594	1.50788	1.40027	1.95626	1.73327	1.65528	5.22662	3.70550	2.53578
320	1.40773	1.35587	1.25612	2.24919	2.03482	1.86482	5.35670	3.58999	2.28190	1.49788	1.50705	1.40261	1.99407	1.68028	1.58576	5.23591	3.72307	2.55917
480	1.35640	1.29147	1.27172	2.28849	2.06449	1.88820	5.21433	3.85753	2.29841	1.51557	1.53601	1.42688	2.01013	1.80614	1.61359	5.26768	3.74752	2.57436
640	1.38644	1.37452	1.30576	2.28778	2.05956	1.88014	5.33097	3.61297	2.42345	1.50687	1.51612	1.40762	2.00660	1.77890	1.73238	5.24354	3.72596	2.55683
800	1.41815	1.42852	1.31027	2.27348	2.05237	1.87785	5.36808	3.65986	2.38690	1.50806	1.51523	1.40854	2.01847	1.76044	1.68899	5.23984	3.71705	2.54789
960	1.41665	1.37297	1.29923	2.26322	2.04370	1.86983	5.35344	3.67827	2.41188	1.50376	1.50584	1.39919	2.02549	1.80636	1.74059	5.22096	3.70045	2.53094
1120	1.48147	1.39300	1.33511	2.24345	2.03033	1.85901	5.40544	3.70308	2.40645	1.49728	1.50016	1.39533	2.03489	1.79614	1.73938	5.21459	3.69636	2.52839
1280	1.43986	1.36553	1.32460	2.24454	2.02958	1.85885	5.37721	3.67794	2.38495	1.49510	1.50072	1.39656	2.01646	1.78705	1.71730	5.21851	3.69942	2.53219
1440	1.41739	1.35989	1.31090	2.25028	2.03318	1.86001	5.36936	3.66089	2.37077	1.49502	1.50311	1.39808	2.00751	1.78100	1.72082	5.21995	3.70378	2.53781
1610	1.40707	1.35389	1.31601	2.25759	2.03991	1.86725	5.36186	3.67084	2.37749	1.50052	1.50787	1.40227	2.01611	1.79429	1.72978	5.23040	3.71388	2.54560	32.58	6.1	0.00	-2.04	0.01739	0.01205	0.01524	0.01863	0.01917	0.01499	0.00547	0.01518	0.02015	0.01901	0.01334	0.01698	0.01712	0.01770	0.01382	0.00577	0.01628	0.02183
1770	1.42424	1.36465	1.31989	2.26321	2.04463	1.86985	5.37945	3.67742	2.38656	1.50396	1.51198	1.40616	2.01679	1.79300	1.73127	5.22864	3.71072	2.54395
1930	1.41934	1.36244	1.31860	2.26134	2.04398	1.86843	5.37602	3.67661	2.38246	1.50284	1.51192	1.40508	2.01662	1.79710	1.73195	5.23151	3.71342	2.54657
2100	1.42259	1.36196	1.32185	2.26574	2.04797	1.87274	5.36966	3.68231	2.38871	1.50651	1.51487	1.40899	2.01772	1.80082	1.73687	5.23325	3.71582	2.54867
2260	1.42613	1.36719	1.32168	2.26799	2.04890	1.87405	5.38731	3.68090	2.38692	1.50712	1.51559	1.41015	2.02017	1.80026	1.73701	5.23469	3.71792	2.55090
2430	1.42317	1.36854	1.32252	2.27184	2.05225	1.87619	5.38702	3.68169	2.38793	1.50902	1.51844	1.41225	2.02020	1.79729	1.73443	5.23256	3.71624	2.54975
2590	1.41965	1.36406	1.32691	2.27040	2.05227	1.87708	5.37804	3.68099	2.39166	1.51067	1.52097	1.41509	2.02175	1.79905	1.73458	5.23652	3.71841	2.55229
2760	1.42050	1.36528	1.32258	2.27265	2.05219	1.87597	5.37856	3.67875	2.38386	1.50943	1.52066	1.41406	2.01955	1.79908	1.73596	5.23760	3.72305	2.55627
2920	1.42432	1.36653	1.32288	2.27854	2.05650	1.88074	5.38396	3.67837	2.38781	1.51281	1.52419	1.41769	2.02166	1.79377	1.73361	5.23826	3.72144	2.55532
3090	1.42248	1.36403	1.32472	2.27910	2.05947	1.88275	5.37719	3.68076	2.38796	1.51549	1.52668	1.41908	2.02333	1.79892	1.73365	5.24431	3.72549	2.55745
3250	1.42269	1.36306	1.32477	2.27893	2.05735	1.88151	5.38298	3.67956	2.38704	1.51293	1.52255	1.41705	2.02038	1.79584	1.73215	5.24065	3.72332	2.55651	32.64	6.2	0.00	-2.04	0.01739	0.01205	0.01524	0.01863	0.01917	0.01499	0.00547	0.01518	0.02014	0.01901	0.01334	0.01698	0.01712	0.01769	0.01382	0.00577	0.01629	0.02183
3410	1.41891	1.36245	1.32284	2.27790	2.05569	1.87929	5.37649	3.67695	2.38347	1.51197	1.52250	1.41622	2.01845	1.79358	1.73285	5.23633	3.72056	2.55494
3580	1.41986	1.36283	1.32132	2.27672	2.05461	1.87842	5.38213	3.67747	2.38288	1.51172	1.52194	1.41624	2.01913	1.79717	1.73493	5.24258	3.72515	2.55880
3740	1.42193	1.36460	1.32313	2.28040	2.05908	1.88280	5.38802	3.67939	2.38801	1.51482	1.52527	1.41931	2.01987	1.79768	1.73628	5.24274	3.72374	2.55850
3910	1.42326	1.36615	1.32475	2.28027	2.05942	1.88335	5.37452	3.67994	2.38539	1.51597	1.52615	1.42080	2.02054	1.80027	1.73557	5.24310	3.72634	2.55983
4070	1.42334	1.36830	1.32804	2.28233	2.06108	1.88446	5.38588	3.68168	2.39023	1.51775	1.52780	1.42199	2.02103	1.79721	1.73343	5.24376	3.72414	2.55829
4240	1.42573	1.36959	1.33021	2.28622	2.06508	1.88860	5.38238	3.68860	2.39685	1.52105	1.53203	1.42610	2.02369	1.80340	1.74099	5.24654	3.72983	2.56419
4400	1.42328	1.36994	1.32434	2.28610	2.06390	1.88604	5.38266	3.68014	2.38774	1.51840	1.52996	1.42447	2.02204	1.79794	1.73437	5.24500	3.72633	2.56047
4560	1.42599	1.36643	1.32582	2.28380	2.06232	1.88681	5.37843	3.68364	2.38822	1.51900	1.53141	1.42518	2.02097	1.79884	1.73517	5.24199	3.72686	2.56095
4730	1.42610	1.36999	1.32829	2.28818	2.06764	1.89098	5.38584	3.68663	2.39346	1.52348	1.53468	1.42841	2.02521	1.80022	1.73656	5.24789	3.73245	2.56596
4890	1.42221	1.36638	1.32607	2.28700	2.06460	1.88850	5.39197	3.67788	2.38952	1.52070	1.53164	1.42610	2.02096	1.79884	1.73386	5.24635	3.73171	2.56546	32.58	6.1	0.00	-2.04	0.01739	0.01205	0.01524	0.01863	0.01917	0.01499	0.00547	0.01518	0.02014	0.01901	0.01334	0.01698	0.01712	0.01769	0.01382	0.00577	0.01629	0.02183
5060	1.42236	1.36710	1.32650	2.28701	2.06535	1.88896	5.38297	3.68067	2.38524	1.52209	1.53240	1.42627	2.02272	1.79978	1.73552	5.24894	3.73088	2.56506
5220	1.42375	1.36555	1.32748	2.28744	2.06594	1.89029	5.38854	3.68029	2.38805	1.52274	1.53393	1.42764	2.02155	1.80052	1.73830	5.24655	3.73222	2.56556
5380	1.42091	1.36577	1.32612	2.28791	2.06575	1.88972	5.37838	3.68160	2.38844	1.52291	1.53374	1.42826	2.02362	1.80014	1.73946	5.24999	3.73463	2.56956
5550	1.42475	1.37014	1.32771	2.29199	2.06959	1.89382	5.38886	3.68809	2.38875	1.52614	1.53700	1.43054	2.02158	1.80146	1.73655	5.24911	3.73340	2.56693
5710	1.42421	1.36783	1.32562	2.28853	2.06807	1.89255	5.38579	3.68404	2.38849	1.52558	1.53597	1.43053	2.02237	1.80074	1.73815	5.24812	3.73322	2.56764
5880	1.42540	1.36712	1.32638	2.29003	2.06809	1.89240	5.38640	3.68153	2.39037	1.52520	1.53652	1.43132	2.02190	1.80086	1.73781	5.24868	3.73476	2.56938
6040	1.42399	1.36900	1.32754	2.29084	2.07000	1.89405	5.38434	3.68374	2.39185	1.52703	1.53742	1.43247	2.02180	1.80067	1.73559	5.25038	3.73393	2.56901
6210	1.42499	1.37039	1.32923	2.29197	2.07070	1.89489	5.39398	3.68382	2.39360	1.52838	1.53878	1.43381	2.02379	1.80312	1.74074	5.25124	3.73635	2.57057
6370	1.42481	1.36968	1.32905	2.29179	2.06966	1.89386	5.38713	3.68368	2.39099	1.52774	1.53871	1.43291	2.02388	1.80292	1.74066	5.25146	3.73789	2.57188
6540	1.42522	1.36625	1.32782	2.29318	2.07170	1.89539	5.38071	3.68391	2.39103	1.52929	1.53957	1.43459	2.02452	1.80045	1.73820	5.25371	3.73575	2.56892	32.58	6.0	0.00	-2.04	0.01739	0.01205	0.01524	0.01863	0.01917	0.01499	0.00547	0.01518	0.02014	0.01901	0.01334	0.01698	0.01712	0.01769	0.01382	0.00577	0.01629	0.02183
6700	1.42579	1.37255	1.32979	2.29536	2.07444	1.89847	5.38063	3.68754	2.39516	1.53174	1.54347	1.43725	2.02428	1.80352	1.73988	5.25505	3.73927	2.57265
6870	1.42687	1.36723	1.32805	2.29381	2.07237	1.89604	5.38370	3.68190	2.38992	1.52986	1.53992	1.43454	2.02537	1.80441	1.74307	5.25879	3.74197	2.57601
7030	1.42934	1.37215	1.33285	2.29671	2.07527	1.89902	5.39160	3.68539	2.39329	1.53243	1.54345	1.43831	2.02343	1.80269	1.73922	5.25387	3.73872	2.57207
7200	1.42994	1.37140	1.33147	2.29703	2.07727	1.90064	5.38583	3.69187	2.39595	1.53447	1.54593	1.43978	2.02690	1.80318	1.73981	5.25574	3.74207	2.57528
7360	1.42878	1.36976	1.32998	2.29630	2.07513	1.89850	5.38442	3.68390	2.39085	1.53227	1.54301	1.43833	2.02533	1.80491	1.74213	5.25968	3.74353	2.57650
7520	1.42973	1.37242	1.33138	2.29788	2.07677	1.90048	5.38769	3.68777	2.39400	1.53384	1.54498	1.43972	2.02501	1.80141	1.73926	5.25545	3.74026	2.57381
7690	1.42852	1.37246	1.33177	2.29822	2.07811	1.90228	5.39096	3.69160	2.39558	1.53654	1.54728	1.44255	2.02614	1.80378	1.74205	5.25814	3.74349	2.57688
7850	1.42869	1.36888	1.32902	2.29720	2.07616	1.89979	5.39459	3.68545	2.39007	1.53406	1.54612	1.43970	2.02563	1.80340	1.74219	5.26027	3.74244	2.57656
8020	1.42919	1.37064	1.33147	2.29815	2.07670	1.90189	5.39197	3.68603	2.39344	1.53631	1.54715	1.44243	2.02575	1.80605	1.73865	5.25968	3.74322	2.57641
8180	1.42885	1.37213	1.33117	2.29883	2.07823	1.90193	5.38377	3.68750	2.39423	1.53762	1.54857	1.44239	2.02678	1.80445	1.74237	5.26001	3.74428	2.57731	32.58	6.1	0.00	-2.04	0.01739	0.01205	0.01524	0.01863	0.01917	0.01499	0.00547	0.01518	0.02014	0.01901	0.01334	0.01698	0.01712	0.01769	0.01382	0.00577	0.01629	0.02183
8350	1.42773	1.37147	1.32968	2.29836	2.07786	1.90234	5.38559	3.68746	2.39369	1.53713	1.54741	1.44278	2.02890	1.80734	1.74541	5.26172	3.74862	2.58230
8510	1.43189	1.37445	1.33389	2.30351	2.08244	1.90670	5.39241	3.69006	2.39619	1.54161	1.55134	1.44697	2.02798	1.80758	1.74166	5.26651	3.74745	2.58079
8670	1.43120	1.37301	1.33323	2.30157	2.08372	1.90770	5.39204	3.69201	2.39745	1.54245	1.55352	1.44858	2.03094	1.80763	1.74575	5.26681	3.74967	2.58230
8840	1.43109	1.37246	1.33368	2.30319	2.08212	1.90675	5.39140	3.68961	2.39408	1.54104	1.55160	1.44695	2.02654	1.80527	1.74208	5.26451	3.74799	2.58224
9000	1.42950	1.37252	1.33252	2.30387	2.08247	1.90714	5.39366	3.68629	2.39610	1.54175	1.55304	1.44775	2.02855	1.80355	1.74014	5.26205	3.74689	2.58044
9160	1.42862	1.36977	1.32945	2.30007	2.07960	1.90407	5.38373	3.68561	2.39147	1.53954	1.54999	1.44590	2.02886	1.80785	1.74415	5.26572	3.75060	2.58457
9330	1.43184	1.37453	1.33364	2.30500	2.08456	1.90940	5.39261	3.69083	2.39555	1.54417	1.55384	1.45035	2.02659	1.80644	1.74309	5.26487	3.74797	2.58223
9490	1.43050	1.37523	1.33377	2.30433	2.08439	1.90916	5.39055	3.68981	2.39544	1.54495	1.55495	1.45026	2.02879	1.80641	1.74168	5.26605	3.74956	2.58308
9660	1.43165	1.37253	1.33211	2.30464	2.08425	1.90863	5.39422	3.68790	2.39314	1.54449	1.55461	1.45025	2.02823	1.80768	1.74395	5.26441	3.75107	2.58389
9820	1.43024	1.37271	1.33425	2.30467	2.08486	1.91019	5.38529	3.69004	2.39610	1.54575	1.55591	1.45125	2.02626	1.80487	1.74148	5.26480	3.74988	2.58356	32.58	6.0	0.00	-2.04	0.01739	0.01204	0.01524	0.01863	0.01917	0.01499	0.00547	0.01518	0.02014	0.01901	0.01334	0.01698	0.01712	0.01769	0.01382	0.00577	0.01629	0.02183
9990	1.43277	1.37591	1.33535	2.30615	2.08731	1.91310	5.39618	3.69231	2.39663	1.54775	1.55722	1.45263	2.02739	1.80490	1.74275	5.26887	3.75198	2.58507
10150	1.43248	1.37387	1.33294	2.30480	2.08493	1.91056	5.39469	3.69051	2.39698	1.54634	1.55595	1.45208	2.03085	1.80972	1.74461	5.27018	3.75406	2.58749
10320	1.43315	1.37634	1.33608	2.30790	2.08741	1.91358	5.39226	3.69202	2.39768	1.54882	1.55870	1.45492	2.02797	1.80606	1.74364	5.26723	3.75238	2.58617
10480	1.43349	1.37593	1.33644	2.30926	2.09014	1.91588	5.39687	3.69355	2.39693	1.55052	1.56149	1.45729	2.02908	1.80849	1.74409	5.27186	3.75546	2.58921
10650	1.43123	1.37383	1.33553	2.30888	2.08813	1.91325	5.38609	3.68768	2.39633	1.54856	1.55911	1.45519	2.03211	1.80787	1.74543	5.27304	3.75842	2.59187
10810	1.43473	1.37482	1.33639	2.31144	2.09105	1.91675	5.39880	3.69041	2.39716	1.55163	1.56129	1.45807	2.02845	1.80770	1.74162	5.27333	3.75570	2.58907
10980	1.43526	1.38027	1.33857	2.31367	2.09460	1.92034	5.39913	3.69515	2.40139	1.55472	1.56591	1.46143	2.03458	1.80834	1.74714	5.27665	3.76122	2.59415
11140	1.43550	1.37667	1.33791	2.31348	2.09238	1.91733	5.39029	3.68920	2.39814	1.55239	1.56272	1.45866	2.03103	1.80565	1.74303	5.27498	3.75639	2.58946
11300	1.43099	1.37395	1.33327	2.31090	2.09038	1.91508	5.38807	3.68850	2.39598	1.55181	1.56183	1.45811	2.03170	1.81117	1.74499	5.27554	3.76164	2.59495
11470	1.43381	1.37904	1.33703	2.31660	2.09584	1.92155	5.39614	3.69338	2.39723	1.55615	1.56600	1.46221	2.02991	1.80974	1.74585	5.27664	3.75963	2.59386	32.53	6.1	0.00	-2.04	0.01739	0.01204	0.01524	0.01863	0.01917	0.01499	0.00547	0.01518	0.02014	0.01901	0.01334	0.01697	0.01712	0.01769	0.01382	0.00577	0.01629	0.02183
11630	1.43238	1.37594	1.33586	2.31333	2.09386	1.91948	5.39687	3.69177	2.39641	1.55538	1.56504	1.46072	2.03041	1.80770	1.74897	5.27536	3.75817	2.59182
11800	1.43144	1.37485	1.33517	2.31314	2.09375	1.91880	5.39255	3.69011	2.39715	1.55523	1.56515	1.46155	2.02972	1.80787	1.74542	5.27809	3.75759	2.59120
11960	1.43131	1.37402	1.33733	2.31230	2.09486	1.92209	5.40095	3.69364	2.40116	1.55853	1.56879	1.46517	2.03393	1.81152	1.74731	5.28068	3.76193	2.59576
12120	1.43324	1.37556	1.33793	2.31524	2.09551	1.92050	5.39090	3.69131	2.39820	1.55669	1.56664	1.46322	2.03281	1.81250	1.75138	5.28111	3.76232	2.59703
12290	1.43677	1.38054	1.33835	2.31679	2.09674	1.92223	5.39756	3.69568	2.39960	1.55852	1.56924	1.46577	2.03113	1.81042	1.74599	5.27815	3.75990	2.59395
12450	1.43738	1.38053	1.33972	2.31740	2.09800	1.92318	5.40240	3.69638	2.40106	1.56026	1.57111	1.46675	2.03633	1.81156	1.74991	5.27750	3.76193	2.59674
12620	1.43696	1.37681	1.33670	2.31668	2.09683	1.92182	5.39501	3.69424	2.39901	1.55829	1.56942	1.46486	2.03430	1.81232	1.74916	5.27990	3.76405	2.59882
12780	1.43437	1.37908	1.34104	2.31867	2.09914	1.92407	5.40232	3.69566	2.40005	1.56118	1.57156	1.46769	2.03161	1.80983	1.74823	5.27999	3.76270	2.59570
12950	1.43839	1.38136	1.34184	2.31922	2.10071	1.92657	5.39933	3.69740	2.40321	1.56333	1.57266	1.46949	2.03746	1.80985	1.74819	5.28289	3.76487	2.59782
13110	1.43707	1.37433	1.34175	2.31787	2.09846	1.92336	5.39714	3.69465	2.40098	1.56049	1.57028	1.46687	2.03426	1.81710	1.75245	5.28314	3.76685	2.60145	32.58	6.1	0.00	-2.04	0.01739	0.01204	0.01524	0.01863	0.01917	0.01499	0.00547	0.01517	0.02013	0.01901	0.01334	0.01697	0.01712	0.01769	0.01381	0.00577	0.01629	0.02183
13280	1.43982	1.37942	1.34034	2.32098	2.10223	1.92747	5.40113	3.69752	2.40237	1.56442	1.57423	1.47000	2.03487	1.81027	1.74888	5.28005	3.76388	2.59884
13440	1.44021	1.38146	1.34569	2.32273	2.10410	1.93060	5.40586	3.70205	2.40671	1.56739	1.57656	1.47416	2.03880	1.81556	1.75406	5.28784	3.76930	2.60313
13610	1.44214	1.38093	1.34319	2.32191	2.10285	1.92809	5.40655	3.69628	2.40439	1.56562	1.57572	1.47197	2.03787	1.81614	1.75275	5.28807	3.77050	2.60457
13770	1.44485	1.38352	1.34345	2.32397	2.10424	1.92990	5.40756	3.69767	2.40514	1.56711	1.57676	1.47414	2.03693	1.81166	1.74784	5.28574	3.76774	2.60162
13930	1.44030	1.37925	1.33807	2.32423	2.10456	1.93005	5.40021	3.69579	2.39990	1.56725	1.57790	1.47482	2.03279	1.80967	1.74837	5.28169	3.76710	2.60185
14100	1.44063	1.37855	1.34133	2.32290	2.10370	1.92917	5.39479	3.69913	2.40489	1.56693	1.57737	1.47378	2.03743	1.81562	1.75718	5.28764	3.77069	2.60446
14260	1.44496	1.38354	1.34630	2.32486	2.10700	1.93258	5.40461	3.70494	2.40919	1.57067	1.57997	1.47651	2.03733	1.81744	1.75395	5.28817	3.77111	2.60366
14420	1.44466	1.37979	1.34576	2.32317	2.10367	1.92994	5.40481	3.70602	2.40670	1.56780	1.57659	1.47414	2.04264	1.82014	1.75458	5.28764	3.77315	2.60826
14590	1.44035	1.38241	1.34040	2.32932	2.11048	1.93631	5.40198	3.69785	2.40222	1.57265	1.58253	1.47960	2.03546	1.81170	1.74697	5.28784	3.77346	2.60734
14750	1.43937	1.37826	1.34634	2.32683	2.10800	1.93312	5.40897	3.69836	2.40701	1.56965	1.57877	1.47633	2.04089	1.82095	1.75728	5.29025	3.77421	2.60778	32.53	6.1	0.00	-2.04	0.01739	0.01204	0.01524	0.01863	0.01917	0.01499	0.00547	0.01517	0.02013	0.01901	0.01334	0.01697	0.01711	0.01768	0.01381	0.00577	0.01629	0.02183
14910	1.44608	1.38709	1.34870	2.32832	2.10950	1.93559	5.40938	3.70068	2.40546	1.57248	1.58192	1.47864	2.03830	1.81720	1.75027	5.28795	3.77242	2.60607
15080	1.44504	1.38187	1.34470	2.32680	2.10751	1.93330	5.40966	3.69946	2.40639	1.57096	1.58024	1.47837	2.03756	1.81711	1.75334	5.29289	3.77595	2.61006
15240	1.44328	1.38403	1.34382	2.33153	2.11215	1.93744	5.39867	3.69881	2.40640	1.57389	1.58496	1.48227	2.03536	1.81000	1.74964	5.29071	3.77469	2.60912
15400	1.43860	1.38152	1.34270	2.32979	2.11033	1.93485	5.39608	3.69442	2.40003	1.57260	1.58375	1.48068	2.03716	1.81474	1.75658	5.29298	3.77866	2.61319
15570	1.45044	1.37933	1.34838	2.33296	2.11406	1.93826	5.39374	3.70232	2.41013	1.57543	1.58607	1.48232	2.03915	1.82065	1.75436	5.29094	3.77377	2.60858
15730	1.45377	1.38642	1.34934	2.33156	2.11489	1.93953	5.41488	3.71046	2.41553	1.57762	1.58794	1.48391	2.04174	1.81932	1.75963	5.29239	3.77683	2.61152
15900	1.44615	1.38454	1.34845	2.33153	2.11296	1.93836	5.40893	3.70001	2.40415	1.57590	1.58672	1.48394	2.03618	1.81952	1.75446	5.29710	3.78107	2.61567
16060	1.44617	1.38630	1.34506	2.33584	2.11652	1.94118	5.40222	3.70404	2.40612	1.57881	1.58828	1.48665	2.03817	1.81433	1.75477	5.29460	3.77853	2.61256
16230	1.44875	1.38270	1.35195	2.33655	2.11818	1.94374	5.40954	3.70818	2.41209	1.58176	1.59165	1.48945	2.04001	1.82308	1.75817	5.29552	3.78109	2.61614
16390	1.44710	1.38550	1.34644	2.33600	2.11732	1.94140	5.41573	3.70139	2.40779	1.58013	1.58952	1.48760	2.04164	1.82325	1.75854	5.30076	3.78550	2.62030	32.58	6.1	0.00	-2.04	0.01738	0.01204	0.01523	0.01863	0.01917	0.01500	0.00547	0.01517	0.02013	0.01901	0.01334	0.01697	0.01711	0.01768	0.01381	0.00577	0.01629	0.02183
16560	1.44960	1.38523	1.35027	2.33912	2.12008	1.94600	5.40533	3.70556	2.40904	1.58364	1.59356	1.49110	2.03894	1.81972	1.75567	5.29780	3.78301	2.61749
16720	1.44865	1.38794	1.35148	2.34116	2.12366	1.94911	5.40659	3.70823	2.41240	1.58761	1.59715	1.49459	2.04249	1.82161	1.75843	5.30254	3.78748	2.62144
16890	1.44774	1.38585	1.34776	2.34059	2.12253	1.94692	5.40331	3.70713	2.40925	1.58546	1.59554	1.49334	2.04347	1.82315	1.75582	5.30201	3.78824	2.62225
17050	1.45085	1.38749	1.34915	2.34200	2.12303	1.94861	5.41104	3.70726	2.41100	1.58694	1.59711	1.49533	2.04319	1.81986	1.75567	5.30136	3.78519	2.62039
17210	1.44702	1.38521	1.35000	2.34247	2.12465	1.95017	5.41545	3.70088	2.40939	1.58898	1.59902	1.49639	2.04009	1.81501	1.75395	5.30336	3.78761	2.62218
17380	1.44428	1.38489	1.34680	2.34268	2.12356	1.94882	5.40796	3.70669	2.40327	1.58792	1.59885	1.49643	2.04157	1.81831	1.75460	5.30620	3.79204	2.62516
17540	1.45030	1.38427	1.35048	2.34778	2.12745	1.95436	5.41553	3.70508	2.41212	1.59267	1.60302	1.49939	2.04380	1.82211	1.75591	5.30709	3.79168	2.62435
17710	1.44927	1.38849	1.35261	2.34480	2.12655	1.95322	5.40837	3.70830	2.40984	1.59237	1.60180	1.49936	2.04429	1.82022	1.75543	5.30567	3.79151	2.62450
17870	1.44585	1.38474	1.34836	2.34500	2.12565	1.95105	5.40246	3.69910	2.40897	1.59059	1.60059	1.49880	2.03999	1.81853	1.75411	5.30201	3.78794	2.62204
18030	1.44610	1.38792	1.34966	2.34441	2.12829	1.95498	5.40604	3.70875	2.41496	1.59461	1.60438	1.50309	2.04357	1.82007	1.75721	5.30985	3.79545	2.62837	32.64	6.2	0.00	-2.04	0.01738	0.01204	0.01523	0.01863	0.01917	0.01499	0.00547	0.01517	0.02013	0.01901	0.01333	0.01697	0.01711	0.01768	0.01381	0.00577	0.01629	0.02183
18200	1.44828	1.38625	1.34779	2.34849	2.12888	1.95478	5.40042	3.70143	2.40852	1.59374	1.60372	1.50172	2.04126	1.82144	1.75981	5.31169	3.79713	2.63097
18360	1.45240	1.38650	1.35054	2.35253	2.13246	1.95807	5.41312	3.70801	2.41086	1.59686	1.60616	1.50495	2.04034	1.82006	1.75743	5.31123	3.79734	2.63001
18530	1.44874	1.38771	1.34901	2.35263	2.13272	1.95922	5.41348	3.70510	2.40993	1.59802	1.60741	1.50612	2.04054	1.81907	1.75704	5.31311	3.79877	2.63183
18690	1.44881	1.38743	1.34988	2.35252	2.13332	1.95847	5.40770	3.70340	2.40892	1.59797	1.60808	1.50632	2.04123	1.82037	1.75402	5.31360	3.79911	2.63354
18860	1.44760	1.38725	1.35105	2.35413	2.13410	1.96037	5.40883	3.70469	2.40897	1.59951	1.61010	1.50669	2.04106	1.81835	1.75584	5.31545	3.80085	2.63372
19020	1.44952	1.38956	1.35014	2.35553	2.13543	1.96156	5.40568	3.70515	2.40989	1.60033	1.61074	1.50863	2.04093	1.82039	1.75711	5.31360	3.80070	2.63500
19190	1.44709	1.38702	1.34881	2.35641	2.13617	1.96181	5.40414	3.70216	2.40751	1.60048	1.61085	1.50844	2.04194	1.82185	1.76090	5.31726	3.80402	2.63748
19350	1.44968	1.38961	1.35137	2.35852	2.13761	1.96319	5.40264	3.70249	2.41152	1.60154	1.61151	1.50951	2.03871	1.81793	1.75625	5.31716	3.80059	2.63440
19520	1.44858	1.38898	1.35079	2.35878	2.14034	1.96661	5.40883	3.70773	2.41316	1.60438	1.61491	1.51247	2.04253	1.82104	1.75849	5.32003	3.80408	2.63833
19680	1.44881	1.38779	1.34727	2.35844	2.13800	1.96260	5.41049	3.70357	2.40849	1.60143	1.61240	1.50943	2.04278	1.82239	1.76039	5.32157	3.80762	2.64172	32.64	6.1	0.00	-2.04	0.01738	0.01204	0.01523	0.01863	0.01917	0.01499	0.00547	0.01517	0.02013	0.01901	0.01333	0.01697	0.01711	0.01768	0.01381	0.00577	0.01629	0.02183
19850	1.44992	1.39030	1.35146	2.36168	2.14184	1.96677	5.40624	3.70632	2.41452	1.60462	1.61553	1.51270	2.04348	1.82301	1.76148	5.32029	3.80612	2.63943
20010	1.44885	1.38851	1.35177	2.35974	2.13988	1.96535	5.40681	3.70285	2.41200	1.60387	1.61454	1.51311	2.04141	1.81815	1.75580	5.31794	3.80303	2.63730
20180	1.44872	1.39010	1.35260	2.36086	2.14203	1.96756	5.40571	3.71063	2.41303	1.60678	1.61692	1.51499	2.04375	1.82351	1.75689	5.31989	3.80583	2.63969
20340	1.44921	1.38806	1.34986	2.35994	2.14025	1.96557	5.40026	3.70559	2.41027	1.60486	1.61481	1.51205	2.04292	1.82132	1.75631	5.32078	3.80695	2.64050
20510	1.44926	1.38950	1.35127	2.36326	2.14289	1.96778	5.40442	3.70633	2.41234	1.60695	1.61663	1.51556	2.04483	1.82514	1.76431	5.32500	3.81209	2.64504
20670	1.45488	1.39250	1.35582	2.36722	2.14716	1.97191	5.40867	3.70989	2.41409	1.61072	1.62038	1.51839	2.04479	1.82259	1.75962	5.32415	3.81032	2.64312
20830	1.45042	1.38861	1.35123	2.36276	2.14391	1.96959	5.40943	3.70600	2.41297	1.60802	1.61797	1.51695	2.04306	1.82106	1.75965	5.32118	3.80818	2.64211
21000	1.45090	1.39158	1.35289	2.36335	2.14329	1.96969	5.40588	3.70692	2.41155	1.60824	1.61809	1.51736	2.04348	1.82689	1.76394	5.32557	3.81280	2.64762
21160	1.45210	1.38832	1.35319	2.36945	2.14983	1.97511	5.40956	3.70812	2.41129	1.61288	1.62356	1.52166	2.04515	1.82079	1.76326	5.32547	3.81179	2.64623
21330	1.45120	1.38949	1.35683	2.36876	2.14990	1.97525	5.41592	3.70856	2.41445	1.61329	1.62296	1.52157	2.04755	1.82523	1.76051	5.32712	3.81249	2.64691	32.58	6.2	0.00	-2.04	0.01738	0.01204	0.01523	0.01863	0.01917	0.01499	0.00547	0.01517	0.02013	0.01901	0.01333	0.01697	0.01711	0.01768	0.01381	0.00577	0.01629	0.02183
21490	1.44616	1.38754	1.35068	2.36767	2.14699	1.97188	5.40342	3.70756	2.40892	1.61078	1.62115	1.51939	2.04167	1.82241	1.75994	5.32388	3.80841	2.64310
21650	1.44959	1.39364	1.35385	2.36804	2.14948	1.97468	5.41818	3.70952	2.41378	1.61397	1.62461	1.52275	2.04973	1.82354	1.76077	5.32761	3.81398	2.64765
21820	1.45090	1.38740	1.35071	2.36774	2.14763	1.97322	5.40698	3.70616	2.41215	1.61147	1.62226	1.52009	2.04551	1.82119	1.75997	5.32263	3.80916	2.64327
21980	1.45142	1.39316	1.35507	2.36851	2.14970	1.97646	5.40702	3.71056	2.41434	1.61503	1.62555	1.52329	2.04784	1.82118	1.75939	5.33088	3.81484	2.64800
22140	1.45167	1.38829	1.35280	2.36897	2.14814	1.97436	5.40774	3.70784	2.41091	1.61276	1.62409	1.52178	2.04299	1.82047	1.75783	5.32392	3.81066	2.64507
22310	1.45292	1.39228	1.35709	2.36951	2.15126	1.97759	5.41863	3.71066	2.41509	1.61591	1.62628	1.52456	2.04724	1.82306	1.75959	5.32705	3.81533	2.64886
22470	1.45112	1.39058	1.35327	2.36957	2.15017	1.97622	5.40592	3.70826	2.41354	1.61405	1.62528	1.52347	2.04444	1.82142	1.75752	5.32520	3.81212	2.64741
22630	1.45140	1.39588	1.35318	2.37080	2.15254	1.97872	5.41652	3.71090	2.41771	1.61806	1.62825	1.52734	2.05008	1.82668	1.76131	5.32936	3.81616	2.65108
22800	1.45072	1.38961	1.35316	2.37114	2.15186	1.97801	5.40888	3.71062	2.41518	1.61707	1.62820	1.52617	2.04767	1.82662	1.76266	5.33184	3.81704	2.65161
22960	1.45450	1.39035	1.35681	2.37220	2.15334	1.97855	5.41284	3.70990	2.41478	1.61781	1.62754	1.52582	2.04672	1.82506	1.76304	5.32939	3.81636	2.65083	32.58	6.0	0.00	-2.04	0.01738	0.01204	0.01523	0.01863	0.01917	0.01499	0.00547	0.01517	0.02013	0.01901	0.01333	0.01697	0.01711	0.01768	0.01381	0.00577	0.01629	0.02183
23130	1.45457	1.39311	1.35619	2.37397	2.15587	1.98095	5.41563	3.71180	2.41665	1.62007	1.62997	1.52880	2.04931	1.82650	1.76281	5.33391	3.81855	2.65396
23290	1.45295	1.39351	1.35787	2.37447	2.15606	1.98157	5.40637	3.71195	2.41803	1.62101	1.63103	1.52934	2.04886	1.82665	1.76581	5.33537	3.81941	2.65444
23460	1.45800	1.39324	1.35776	2.37495	2.15665	1.98207	5.41438	3.71227	2.41819	1.62119	1.63201	1.53018	2.05057	1.82859	1.76733	5.33537	3.82268	2.65719
23620	1.45774	1.39595	1.35686	2.37761	2.15908	1.98339	5.41713	3.71414	2.41815	1.62391	1.63326	1.53176	2.05044	1.82809	1.76660	5.33580	3.82142	2.65633
23790	1.45655	1.39373	1.35793	2.37676	2.15817	1.98513	5.41514	3.71733	2.42029	1.62452	1.63449	1.53274	2.05183	1.82611	1.76611	5.33867	3.82276	2.65738
23950	1.45465	1.39513	1.36064	2.37741	2.15833	1.98316	5.41308	3.71086	2.41520	1.62358	1.63202	1.53120	2.04931	1.82966	1.76531	5.33752	3.82321	2.65851
24120	1.45647	1.39419	1.35770	2.37948	2.15998	1.98522	5.41170	3.71335	2.41846	1.62509	1.63552	1.53394	2.04902	1.82833	1.76425	5.33923	3.82225	2.65744
24280	1.45424	1.39531	1.35943	2.37919	2.16124	1.98773	5.41980	3.71447	2.41897	1.62658	1.63743	1.53603	2.05024	1.82907	1.76722	5.33904	3.82488	2.66065
24450	1.45747	1.39541	1.35586	2.38021	2.16095	1.98594	5.41450	3.71063	2.41639	1.62527	1.63532	1.53470	2.05018	1.83066	1.76862	5.34237	3.82717	2.66320
24610	1.45742	1.39438	1.35992	2.38322	2.16385	1.98864	5.41777	3.71137	2.41875	1.62762	1.63736	1.53722	2.04968	1.82879	1.76573	5.33937	3.82418	2.65987	32.64	6.0	0.00	-2.04	0.01738	0.01204	0.01523	0.01863	0.01917	0.01499	0.00547	0.01516	0.02013	0.01901	0.01333	0.01697	0.01711	0.01768	0.01381	0.00577	0.01629	0.02183
24780	1.45618	1.39668	1.36001	2.38367	2.16531	1.99103	5.41077	3.71875	2.42199	1.63081	1.64062	1.53954	2.05274	1.83141	1.76851	5.34608	3.82826	2.66347
24940	1.45871	1.39675	1.35788	2.38322	2.16347	1.98843	5.40968	3.71049	2.41827	1.62805	1.63876	1.53656	2.05119	1.83043	1.77059	5.34470	3.83031	2.66560
25100	1.45843	1.39665	1.36155	2.38651	2.16659	1.99195	5.42271	3.71388	2.41885	1.63071	1.64083	1.53910	2.05083	1.82872	1.76608	5.34241	3.82745	2.66259
25270	1.45798	1.39789	1.36173	2.38775	2.16840	1.99484	5.41988	3.71517	2.42166	1.63409	1.64432	1.54200	2.05446	1.83105	1.76680	5.34923	3.83224	2.66662
25430	1.45824	1.39722	1.35884	2.38685	2.16673	1.99228	5.41215	3.71236	2.41792	1.63156	1.64144	1.53958	2.05270	1.83020	1.76723	5.34374	3.83035	2.66638
25600	1.45702	1.39517	1.35886	2.38769	2.16756	1.99237	5.41988	3.71170	2.41803	1.63195	1.64134	1.54069	2.04867	1.82984	1.76421	5.34476	3.82919	2.66458
25760	1.45609	1.39085	1.35807	2.38508	2.16523	1.99062	5.40430	3.70890	2.41488	1.63074	1.64110	1.53912	2.05058	1.83115	1.76862	5.34678	3.83331	2.66869
25920	1.45936	1.39569	1.36015	2.38987	2.16936	1.99473	5.41794	3.71668	2.41800	1.63455	1.64608	1.54371	2.05266	1.82935	1.76572	5.34403	3.82980	2.66622
26090	1.45919	1.39842	1.36119	2.39085	2.17185	1.99753	5.41854	3.71738	2.42131	1.63736	1.64779	1.54622	2.05337	1.83264	1.77111	5.34837	3.83397	2.66961
26250	1.45647	1.39704	1.35744	2.39084	2.17054	1.99607	5.42070	3.71003	2.41830	1.63548	1.64591	1.54513	2.05072	1.82912	1.76875	5.34680	3.83488	2.67040	32.58	6.1	0.00	-2.04	0.01738	0.01204	0.01523	0.01863	0.01917	0.01499	0.00547	0.01516	0.02012	0.01901	0.01333	0.01697	0.01711	0.01768	0.01381	0.00577	0.01629	0.02183
26420	1.45860	1.39811	1.35915	2.39127	2.17138	1.99700	5.42187	3.71724	2.41828	1.63707	1.64686	1.54505	2.05398	1.83296	1.76972	5.35246	3.83738	2.67257
26580	1.46157	1.40029	1.36304	2.39460	2.17518	2.00054	5.42661	3.71939	2.42335	1.63998	1.64994	1.54787	2.05467	1.83220	1.77163	5.34898	3.83604	2.67083
26750	1.46122	1.39973	1.36430	2.39267	2.17399	1.99988	5.42256	3.71808	2.42432	1.63949	1.64968	1.54812	2.05435	1.83250	1.76901	5.34849	3.83649	2.67068
26910	1.46126	1.40153	1.36647	2.39316	2.17353	1.99914	5.42686	3.71960	2.42595	1.63891	1.64887	1.54750	2.05190	1.83343	1.76780	5.34928	3.83486	2.66956
27070	1.45875	1.40055	1.36227	2.39278	2.17595	2.00192	5.42349	3.71811	2.42211	1.64259	1.65279	1.55138	2.05811	1.83238	1.77101	5.35183	3.83790	2.67443
27240	1.46025	1.39900	1.36620	2.39562	2.17530	2.00104	5.42645	3.71706	2.42250	1.64066	1.65032	1.54928	2.05411	1.83863	1.77637	5.35424	3.84142	2.67690
27400	1.46405	1.40528	1.36177	2.40013	2.18002	2.00459	5.42913	3.71995	2.42552	1.64393	1.65451	1.55330	2.05800	1.83799	1.77426	5.35173	3.83901	2.67359
27570	1.47137	1.40777	1.37206	2.39718	2.17839	2.00412	5.42969	3.73068	2.43525	1.64479	1.65464	1.55299	2.06215	1.84040	1.77792	5.35411	3.83962	2.67433
27730	1.46679	1.40451	1.36837	2.39475	2.17532	2.00058	5.42333	3.72240	2.42760	1.64249	1.65178	1.55091	2.05841	1.84002	1.77413	5.35441	3.83814	2.67453
27900	1.46906	1.40403	1.36506	2.39601	2.17697	2.00189	5.42272	3.71972	2.42599	1.64247	1.65170	1.55093	2.05726	1.83342	1.77594	5.35334	3.83887	2.67510	32.58	6.2	0.00	-2.04	0.01738	0.01204	0.01523	0.01863	0.01917	0.01499	0.00547	0.01516	0.02012	0.01901	0.01333	0.01697	0.01711	0.01768	0.01381	0.00577	0.01629	0.02183
28060	1.46521	1.40274	1.36612	2.39644	2.17646	2.00193	5.42406	3.71809	2.42521	1.64225	1.65197	1.55093	2.05979	1.83772	1.77462	5.35314	3.84232	2.67783
28220	1.46802	1.40329	1.36917	2.39898	2.17899	2.00596	5.42511	3.72487	2.42774	1.64500	1.65436	1.55324	2.05734	1.83796	1.77192	5.35191	3.83929	2.67485
28390	1.46566	1.40527	1.36807	2.40137	2.18296	2.00900	5.42353	3.72487	2.42670	1.64881	1.65886	1.55753	2.05890	1.83672	1.77278	5.35893	3.84537	2.68077
28550	1.46381	1.39996	1.36537	2.40210	2.18135	2.00673	5.42539	3.71830	2.42316	1.64597	1.65663	1.55557	2.05930	1.83546	1.77069	5.35714	3.84417	2.68101
28720	1.46217	1.40063	1.36525	2.40312	2.18349	2.00856	5.42333	3.71762	2.42602	1.64815	1.65838	1.55764	2.05437	1.83384	1.77153	5.35658	3.84090	2.67861
28880	1.46365	1.40507	1.36688	2.40410	2.18429	2.01009	5.42329	3.72328	2.42833	1.64979	1.66020	1.55977	2.05799	1.83626	1.77084	5.35549	3.84473	2.68055
29050	1.46437	1.40107	1.36441	2.40342	2.18404	2.00939	5.42900	3.71886	2.42529	1.64872	1.65924	1.55889	2.05688	1.83445	1.77210	5.35877	3.84599	2.68186
29210	1.46519	1.40462	1.36606	2.40562	2.18547	2.01163	5.43082	3.72150	2.42832	1.65107	1.66151	1.56010	2.05921	1.83666	1.77247	5.35850	3.84536	2.68178
29380	1.46075	1.40064	1.36472	2.40782	2.18800	2.01346	5.42689	3.71925	2.42717	1.65305	1.66349	1.56202	2.05703	1.83544	1.77448	5.36407	3.84874	2.68378
29540	1.46328	1.40173	1.36272	2.40558	2.18532	2.01054	5.42748	3.71583	2.42325	1.64966	1.66036	1.55876	2.05565	1.83376	1.77474	5.36070	3.84785	2.68371	32.64	6.1	0.00	-2.04	0.01738	0.01204	0.01523	0.01863	0.01917	0.01499	0.00547	0.01516	0.02012	0.01901	0.01333	0.01696	0.01711	0.01768	0.01381	0.00577	0.01629	0.02183
29710	1.46313	1.40369	1.36566	2.40734	2.18774	2.01208	5.42472	3.72057	2.42600	1.65215	1.66219	1.56052	2.05964	1.83883	1.77638	5.36517	3.85414	2.68969
29870	1.47063	1.40705	1.36775	2.41224	2.19285	2.01709	5.42889	3.72580	2.42897	1.65576	1.66604	1.56484	2.05911	1.83801	1.77297	5.36414	3.85201	2.68813
30030	1.46594	1.40474	1.36600	2.40944	2.19003	2.01449	5.42849	3.71767	2.42434	1.65310	1.66401	1.56325	2.05627	1.83374	1.77158	5.36305	3.84931	2.68526
30200	1.46155	1.40301	1.36494	2.40819	2.18846	2.01303	5.40861	3.71838	2.42626	1.65244	1.66314	1.56227	2.05981	1.83823	1.77579	5.36951	3.85471	2.69105
30360	1.46578	1.40438	1.36805	2.41427	2.19410	2.01847	5.43234	3.72261	2.42862	1.65719	1.66748	1.56753	2.05989	1.83638	1.77172	5.36968	3.85311	2.68966
30530	1.46613	1.40312	1.36641	2.41390	2.19458	2.01902	5.43052	3.72376	2.42629	1.65774	1.66904	1.56835	2.06072	1.83393	1.77215	5.37117	3.85474	2.69030
30690	1.46329	1.40101	1.36457	2.41288	2.19197	2.01688	5.42346	3.71647	2.42346	1.65543	1.66683	1.56590	2.05350	1.83118	1.77299	5.36553	3.84983	2.68703
30850	1.46209	1.40164	1.36775	2.41346	2.19515	2.01968	5.42687	3.72514	2.42608	1.65863	1.67032	1.56868	2.05979	1.83519	1.77358	5.37117	3.85622	2.69115
31020	1.46436	1.40109	1.36455	2.41294	2.19310	2.01753	5.41654	3.71711	2.42273	1.65659	1.66712	1.56574	2.05334	1.83196	1.76942	5.36616	3.85182	2.68733
31180	1.46096	1.40173	1.36883	2.41461	2.19625	2.02183	5.43137	3.72458	2.42863	1.65979	1.67060	1.56911	2.06058	1.83653	1.77325	5.37060	3.85757	2.69231	32.58	6.2	0.00	-2.04	0.01738	0.01204	0.01523	0.01863	0.01917	0.01499	0.00547	0.01516	0.02012	0.01900	0.01333	0.01696	0.01711	0.01768	0.01381	0.00577	0.01629	0.02183
31340	1.46444	1.40333	1.36351	2.41405	2.19417	2.01885	5.42837	3.71779	2.42468	1.65758	1.66844	1.56719	2.05668	1.83215	1.77140	5.36967	3.85303	2.68867
31510	1.46598	1.40306	1.36915	2.41711	2.19904	2.02452	5.44062	3.72809	2.43070	1.66265	1.67364	1.57208	2.06228	1.83905	1.77414	5.37381	3.85961	2.69540
31670	1.46640	1.40266	1.36582	2.41719	2.19737	2.02167	5.42452	3.71757	2.42480	1.66036	1.67201	1.57014	2.05733	1.83578	1.77128	5.37232	3.85736	2.69331
31830	1.46441	1.40260	1.36634	2.41606	2.19688	2.02159	5.43453	3.72076	2.42683	1.66065	1.67158	1.57076	2.05711	1.83461	1.77504	5.36977	3.85713	2.69311
32000	1.46241	1.40259	1.36529	2.41440	2.19553	2.02096	5.42642	3.72268	2.42389	1.66038	1.67201	1.57014	2.05859	1.83673	1.77262	5.37099	3.85882	2.69543
32160	1.46698	1.40558	1.36812	2.41733	2.19879	2.02310	5.43169	3.72140	2.42715	1.66315	1.67378	1.57329	2.05784	1.83806	1.77535	5.37093	3.85919	2.69398
32330	1.46638	1.40685	1.36863	2.41873	2.20053	2.02519	5.43303	3.72420	2.43167	1.66479	1.67530	1.57404	2.05963	1.83763	1.77824	5.37338	3.85998	2.69585
32490	1.46731	1.40865	1.36999	2.41865	2.19937	2.02458	5.43003	3.72342	2.43166	1.66520	1.67486	1.57405	2.05989	1.83586	1.77469	5.37564	3.86229	2.69672
32660	1.46625	1.40737	1.36898	2.42010	2.20062	2.02603	5.42983	3.72367	2.42820	1.66588	1.67598	1.57493	2.05979	1.83979	1.77607	5.37719	3.86339	2.69841
32820	1.47034	1.40633	1.36671	2.42085	2.20240	2.02828	5.43755	3.72364	2.42819	1.66713	1.67715	1.57599	2.05923	1.83515	1.77502	5.37492	3.86234	2.69746	32.58	6.1	0.00	-2.04	0.01738	0.01204	0.01523	0.01863	0.01917	0.01499	0.00547	0.01516	0.02012	0.01900	0.01333	0.01696	0.01711	0.01768	0.01381	0.00577	0.01629	0.02183
32990	1.46825	1.40376	1.36913	2.41992	2.20259	2.02843	5.43333	3.72837	2.43150	1.66862	1.67854	1.57748	2.06089	1.84033	1.77669	5.37850	3.86373	2.69913
33150	1.46917	1.40649	1.37027	2.42082	2.20206	2.02604	5.43057	3.72337	2.43096	1.66647	1.67645	1.57527	2.05960	1.83894	1.77935	5.38119	3.86555	2.70091
33320	1.47147	1.40928	1.37317	2.42306	2.20379	2.02924	5.42502	3.72879	2.43145	1.66916	1.67790	1.57785	2.06074	1.84138	1.77532	5.37943	3.86316	2.69886
33480	1.46836	1.40756	1.37088	2.42141	2.20495	2.03058	5.42741	3.73114	2.43468	1.67159	1.68233	1.58142	2.06363	1.84312	1.77919	5.38145	3.86782	2.70211
33650	1.47182	1.40637	1.36958	2.42407	2.20386	2.02881	5.42644	3.72490	2.42765	1.66901	1.67925	1.57863	2.06248	1.84284	1.78232	5.38218	3.87032	2.70413
33810	1.46965	1.40684	1.37170	2.42559	2.20576	2.03141	5.43236	3.72561	2.43115	1.67087	1.68053	1.58012	2.06241	1.83950	1.77755	5.37953	3.86650	2.70148
33970	1.46791	1.40858	1.37085	2.42644	2.20789	2.03371	5.43771	3.72654	2.43349	1.67407	1.68357	1.58286	2.06648	1.84289	1.78003	5.38647	3.86985	2.70437
34140	1.46817	1.40643	1.37116	2.42575	2.20572	2.03125	5.43430	3.72259	2.42797	1.67165	1.68134	1.58043	2.06179	1.83799	1.77871	5.38411	3.87074	2.70536
34300	1.46827	1.40404	1.36814	2.42733	2.20719	2.03254	5.42697	3.72420	2.42770	1.67215	1.68245	1.58118	2.06103	1.83824	1.77362	5.37993	3.86783	2.70330
34470	1.46889	1.40594	1.36949	2.42709	2.20730	2.03307	5.41798	3.71981	2.42881	1.67285	1.68244	1.58230	2.05962	1.83925	1.77792	5.38269	3.86993	2.70519	32.64	6.1	0.00	-2.04	0.01738	0.01204	0.01523	0.01863	0.01917	0.01499	0.00547	0.01516	0.02012	0.01900	0.01333	0.01696	0.01711	0.01768	0.01381	0.00577	0.01629	0.02183
34630	1.46750	1.40532	1.36947	2.42726	2.20733	2.03241	5.41786	3.72228	2.42868	1.67352	1.68320	1.58234	2.05981	1.83763	1.77620	5.38358	3.86780	2.70323
34800	1.46894	1.41018	1.37053	2.43017	2.21243	2.03893	5.42843	3.73107	2.43462	1.67816	1.68715	1.58702	2.06680	1.84510	1.78125	5.38810	3.87413	2.70988
34960	1.47244	1.40997	1.37007	2.42999	2.20994	2.03536	5.42900	3.72616	2.43095	1.67638	1.68543	1.58481	2.06425	1.84473	1.78191	5.38777	3.87590	2.71102
35120	1.47168	1.40845	1.37011	2.43207	2.21161	2.03727	5.43228	3.72809	2.42992	1.67694	1.68720	1.58674	2.06194	1.83986	1.77711	5.38690	3.87123	2.70680
35290	1.47221	1.40878	1.37476	2.43150	2.21217	2.03736	5.43216	3.72747	2.43267	1.67798	1.68780	1.58741	2.06723	1.84194	1.78039	5.38780	3.87328	2.70900
35450	1.47275	1.40372	1.37082	2.43040	2.21090	2.03627	5.43091	3.72787	2.43152	1.67676	1.68653	1.58625	2.06170	1.83910	1.77699	5.38504	3.87086	2.70613
35610	1.46808	1.40896	1.37051	2.43394	2.21616	2.04174	5.44308	3.72724	2.43212	1.68088	1.69154	1.59047	2.06566	1.84220	1.77952	5.39268	3.87702	2.71154
35780	1.46938	1.40895	1.37116	2.43308	2.21307	2.03848	5.42596	3.72491	2.43062	1.67826	1.68843	1.58767	2.06327	1.84206	1.77751	5.38916	3.87280	2.70772
35940	1.46838	1.40667	1.36905	2.43101	2.21271	2.03845	5.43447	3.72501	2.42893	1.67845	1.68856	1.58816	2.06055	1.83864	1.77677	5.38591	3.87225	2.70831
36110	1.46884	1.40899	1.37506	2.43100	2.21507	2.04009	5.44109	3.72997	2.43503	1.68141	1.69265	1.59116	2.06611	1.84553	1.78325	5.39076	3.87658	2.71133	32.64	6.1	0.00	-2.04	0.01738	0.01204	0.01523	0.01862	0.01917	0.01499	0.00547	0.01516	0.02012	0.01900	0.01332	0.01696	0.01711	0.01768	0.01381	0.00577	0.01629	0.02183
36270	1.46859	1.40836	1.37117	2.43499	2.21546	2.03913	5.42750	3.72623	2.42698	1.68005	1.69028	1.58982	2.06463	1.84396	1.77999	5.39199	3.87774	2.71355
36440	1.47267	1.40756	1.37301	2.43671	2.21690	2.04087	5.43022	3.72844	2.43326	1.68179	1.69240	1.59255	2.06392	1.84332	1.77916	5.39026	3.87578	2.71139
36600	1.47008	1.41123	1.37243	2.43567	2.21769	2.04228	5.43577	3.72868	2.43262	1.68281	1.69437	1.59342	2.06601	1.84158	1.78311	5.39308	3.87852	2.71474
36770	1.46996	1.40860	1.37226	2.43679	2.21718	2.04139	5.43115	3.72714	2.43222	1.68201	1.69327	1.59262	2.06420	1.84389	1.78070	5.39308	3.88066	2.71659
36930	1.46851	1.40613	1.37238	2.43911	2.21992	2.04334	5.43715	3.72611	2.43316	1.68400	1.69509	1.59469	2.06323	1.84249	1.78035	5.39518	3.87859	2.71404
37100	1.47155	1.41042	1.37390	2.44072	2.22234	2.04670	5.42953	3.73111	2.43693	1.68743	1.69827	1.59808	2.06683	1.84628	1.78335	5.39704	3.88124	2.71765
37260	1.47152	1.41062	1.37504	2.44024	2.22036	2.04405	5.42353	3.72618	2.43470	1.68453	1.69567	1.59497	2.06905	1.84865	1.78747	5.39840	3.88478	2.72158
37420	1.47448	1.41481	1.37519	2.44402	2.22431	2.04851	5.43496	3.72982	2.43420	1.68891	1.69977	1.59961	2.06795	1.84368	1.78113	5.39694	3.88268	2.71854
37590	1.47114	1.41118	1.37363	2.44184	2.22254	2.04692	5.43391	3.72707	2.43556	1.68705	1.69799	1.59798	2.06592	1.84554	1.78374	5.39644	3.88174	2.71857
37750	1.47305	1.40981	1.37458	2.44136	2.22268	2.04778	5.43181	3.72768	2.43297	1.68845	1.69900	1.59829	2.06540	1.84265	1.78144	5.39987	3.88267	2.71872	32.64	6.1	0.00	-2.04	0.01738	0.01204	0.01523	0.01862	0.01917	0.01499	0.00547	0.01516	0.02012	0.01900	0.01332	0.01696	0.01710	0.01768	0.01381	0.00577	0.01629	0.02183
37920	1.46901	1.41056	1.37698	2.44256	2.22281	2.04771	5.43607	3.72663	2.43437	1.68918	1.69991	1.59975	2.06401	1.84583	1.78146	5.39994	3.88403	2.72052
38080	1.47348	1.41307	1.37164	2.44434	2.22483	2.04953	5.43307	3.73038	2.43181	1.69037	1.70071	1.60099	2.06673	1.84307	1.78062	5.40050	3.88334	2.72056
38250	1.47334	1.41082	1.37490	2.44654	2.22810	2.05204	5.43307	3.73346	2.43556	1.69223	1.70399	1.60324	2.06761	1.84420	1.78321	5.39957	3.88609	2.72321
38410	1.47401	1.40978	1.37192	2.44502	2.22533	2.04929	5.43047	3.72568	2.43256	1.68999	1.70072	1.60152	2.06675	1.84738	1.78366	5.40153	3.88825	2.72505
38580	1.47423	1.41142	1.37420	2.44708	2.22766	2.05236	5.43298	3.73147	2.43539	1.69292	1.70377	1.60332	2.06950	1.84900	1.78709	5.40566	3.89035	2.72700
38740	1.47453	1.41343	1.37808	2.45030	2.23137	2.05696	5.43651	3.73497	2.43765	1.69678	1.70674	1.60668	2.07068	1.84693	1.78649	5.40812	3.89137	2.72690
38910	1.47365	1.41014	1.37738	2.44931	2.23158	2.05768	5.44394	3.73293	2.43744	1.69727	1.70748	1.60695	2.07025	1.84621	1.78402	5.40715	3.89226	2.72716
39070	1.47436	1.41106	1.37462	2.44928	2.23037	2.05490	5.43092	3.73019	2.43256	1.69486	1.70542	1.60449	2.06679	1.84210	1.77891	5.40213	3.88667	2.72400
39230	1.47225	1.41254	1.37624	2.44694	2.23012	2.05707	5.43319	3.73202	2.43811	1.69659	1.70800	1.60740	2.07001	1.84435	1.78279	5.40659	3.89071	2.72765
39400	1.47186	1.40971	1.37388	2.44926	2.22965	2.05534	5.43367	3.72554	2.43420	1.69593	1.70524	1.60464	2.06463	1.84226	1.77941	5.40007	3.88635	2.72376	32.58	6.0	0.00	-2.04	0.01738	0.01204	0.01523	0.01862	0.01917	0.01499	0.00547	0.01516	0.02012	0.01900	0.01332	0.01696	0.01710	0.01768	0.01381	0.00577	0.01629	0.02183
39560	1.47050	1.41022	1.37605	2.44666	2.23110	2.05779	5.44385	3.73785	2.44044	1.69907	1.70867	1.60827	2.07141	1.84635	1.78393	5.40746	3.89254	2.72899
39720	1.47417	1.40796	1.37435	2.44966	2.23070	2.05602	5.43845	3.72652	2.43517	1.69714	1.70585	1.60659	2.06737	1.84455	1.78263	5.40387	3.89187	2.72858
39890	1.47499	1.41188	1.37474	2.45041	2.23152	2.05676	5.43164	3.73019	2.43205	1.69788	1.70776	1.60717	2.06509	1.84318	1.78420	5.40570	3.89143	2.72862
40050	1.47139	1.41214	1.37332	2.44980	2.23119	2.05553	5.42568	3.72638	2.43359	1.69764	1.70659	1.60660	2.06955	1.85032	1.78733	5.40936	3.89616	2.73280
40220	1.47483	1.41210	1.37742	2.45475	2.23523	2.05927	5.43476	3.73284	2.43550	1.70109	1.71120	1.61065	2.06646	1.84622	1.78160	5.40873	3.89327	2.72982
40380	1.47672	1.41454	1.37689	2.45564	2.23815	2.06415	5.44637	3.73445	2.44211	1.70389	1.71370	1.61357	2.06833	1.84704	1.78452	5.41096	3.89708	2.73280
40550	1.47698	1.41222	1.37643	2.45504	2.23563	2.06101	5.43509	3.73088	2.43570	1.70115	1.71176	1.61101	2.06904	1.84803	1.78550	5.41389	3.89891	2.73500
40710	1.46944	1.41162	1.37609	2.45793	2.23891	2.06369	5.43087	3.73107	2.43518	1.70395	1.71333	1.61379	2.06864	1.84427	1.78104	5.40962	3.89553	2.73237
40870	1.47645	1.41573	1.37583	2.45749	2.23974	2.06497	5.43553	3.73236	2.43637	1.70518	1.71547	1.61514	2.06809	1.84327	1.78075	5.41099	3.89734	2.73461
41040	1.47004	1.40915	1.37583	2.45687	2.23836	2.06346	5.42615	3.73035	2.43670	1.70399	1.71404	1.61358	2.06956	1.84408	1.78361	5.41149	3.89755	2.73349	32.64	6.1	0.00	-2.04	0.01738	0.01204	0.01523	0.01862	0.01917	0.01499	0.00547	0.01516	0.02012	0.01900	0.01332	0.01696	0.01711	0.01768	0.01381	0.00577	0.01629	0.02183
41200	1.47565	1.41372	1.37555	2.45787	2.23890	2.06382	5.43933	3.72991	2.43872	1.70528	1.71548	1.61512	2.06558	1.84857	1.78332	5.41215	3.89870	2.73486
41370	1.46818	1.40966	1.37198	2.45816	2.23889	2.06311	5.42830	3.72475	2.43227	1.70438	1.71455	1.61405	2.06453	1.84537	1.78022	5.41935	3.90347	2.74007
41530	1.47028	1.41005	1.37043	2.46313	2.24319	2.06735	5.43045	3.72607	2.43260	1.70795	1.71775	1.61717	2.06331	1.84379	1.78310	5.41582	3.90076	2.73729
41700	1.47109	1.40869	1.36896	2.46107	2.24223	2.06657	5.43316	3.72751	2.43152	1.70745	1.71734	1.61650	2.06714	1.84222	1.78365	5.41888	3.90217	2.73848
41860	1.46799	1.40718	1.37545	2.46222	2.24403	2.06903	5.42749	3.72870	2.43320	1.70938	1.71957	1.61884	2.06385	1.84389	1.78162	5.41678	3.90156	2.73706
42030	1.46686	1.41134	1.37182	2.46121	2.24377	2.06964	5.43162	3.73285	2.43277	1.71076	1.72054	1.62025	2.06665	1.84627	1.78335	5.41755	3.90284	2.73824
42190	1.47300	1.40715	1.37533	2.46196	2.24315	2.06811	5.43767	3.73047	2.43186	1.70849	1.71941	1.61878	2.06669	1.84676	1.78049	5.42158	3.90575	2.74121
42360	1.47426	1.41050	1.37596	2.46521	2.24583	2.07065	5.43507	3.73075	2.43282	1.71123	1.72194	1.62165	2.06578	1.84138	1.78078	5.41528	3.90400	2.73952
42520	1.46741	1.40627	1.37727	2.46378	2.24697	2.07179	5.44359	3.73157	2.43724	1.71318	1.72394	1.62401	2.06410	1.84719	1.78286	5.42285	3.90631	2.74105
42690	1.47235	1.40854	1.37058	2.46382	2.24470	2.06953	5.43235	3.72653	2.42995	1.71031	1.72075	1.62111	2.06854	1.84305	1.78054	5.42208	3.90723	2.74219	32.58	6.1	0.00	-2.04	0.01738	0.01204	0.01523	0.01862	0.01917	0.01499	0.00547	0.01516	0.02012	0.01900	0.01332	0.01695	0.01711	0.01768	0.01381	0.00577	0.01629	0.02183
42850	1.46998	1.40811	1.37534	2.46615	2.24703	2.07079	5.43556	3.73121	2.43460	1.71141	1.72294	1.62112	2.06417	1.84466	1.77923	5.42001	3.90493	2.74030
43010	1.47251	1.41250	1.37465	2.46652	2.24758	2.07265	5.42858	3.73052	2.43619	1.71332	1.72428	1.62279	2.06585	1.84424	1.78045	5.42144	3.90656	2.74285
43180	1.47235	1.40998	1.37458	2.46625	2.24768	2.07214	5.42915	3.72804	2.43731	1.71356	1.72430	1.62289	2.06583	1.84756	1.78299	5.42234	3.90749	2.74381
43340	1.47393	1.41311	1.37530	2.46802	2.24949	2.07416	5.43738	3.72952	2.43521	1.71517	1.72552	1.62511	2.06801	1.84670	1.78223	5.42111	3.90778	2.74267
43510	1.47383	1.41442	1.37732	2.46952	2.25176	2.07624	5.42968	3.73180	2.43646	1.71718	1.72718	1.62698	2.06869	1.84758	1.78353	5.42408	3.91080	2.74572
43670	1.47107	1.41212	1.37781	2.47043	2.25051	2.07452	5.42696	3.73189	2.43464	1.71603	1.72730	1.62589	2.06887	1.84670	1.78604	5.42691	3.91263	2.74858
43840	1.47619	1.41504	1.37715	2.47213	2.25275	2.07763	5.43373	3.73308	2.43742	1.71820	1.72917	1.62821	2.06873	1.84478	1.78423	5.42751	3.91084	2.74546
44000	1.47681	1.41673	1.38129	2.47504	2.25678	2.08138	5.44071	3.73653	2.43992	1.72154	1.73303	1.63189	2.07395	1.85073	1.78666	5.42955	3.91492	2.75035
44170	1.47934	1.41469	1.37667	2.47414	2.25441	2.07900	5.43884	3.73016	2.43703	1.71956	1.73028	1.63043	2.06668	1.84889	1.78427	5.42644	3.91162	2.74762
44330	1.47246	1.41465	1.37728	2.47239	2.25368	2.07770	5.43598	3.73379	2.43709	1.71842	1.73129	1.62992	2.07005	1.84647	1.78696	5.42594	3.91163	2.74716	32.58	6.1	0.00	-2.04	0.01738	0.01204	0.01523	0.01862	0.01917	0.01499	0.00547	0.01516	0.02012	0.01900	0.01332	0.01695	0.01711	0.01768	0.01381	0.00577	0.01628	0.02183
44500	1.47594	1.41475	1.38145	2.47333	2.25516	2.07931	5.44056	3.73476	2.43790	1.71965	1.73275	1.63006	2.07191	1.84913	1.78528	5.42771	3.91284	2.74916
44660	1.47688	1.41398	1.37916	2.47490	2.25643	2.08021	5.43784	3.73292	2.44063	1.72117	1.73356	1.63120	2.06973	1.84769	1.78547	5.42874	3.91337	2.74881
44830	1.47645	1.41531	1.37962	2.47453	2.25522	2.07948	5.43099	3.73209	2.43928	1.72049	1.73248	1.63112	2.07448	1.85242	1.78897	5.43468	3.92025	2.75559
44990	1.48154	1.41987	1.38246	2.48130	2.26174	2.08549	5.44016	3.73948	2.44169	1.72505	1.73674	1.63502	2.07544	1.85107	1.79091	5.43318	3.91841	2.75309
45150	1.48009	1.41612	1.38037	2.47859	2.26047	2.08532	5.44166	3.73912	2.44246	1.72473	1.73594	1.63453	2.07310	1.84928	1.79056	5.43044	3.91622	2.75235
45320	1.47699	1.41432	1.37871	2.47736	2.25772	2.08115	5.43448	3.73222	2.43638	1.72279	1.73378	1.63333	2.07018	1.84898	1.78513	5.42580	3.91267	2.74884
45480	1.47481	1.41628	1.38030	2.47425	2.25959	2.08496	5.44661	3.73801	2.44309	1.72663	1.73804	1.63677	2.07849	1.85185	1.78968	5.43411	3.91823	2.75407
45640	1.47867	1.41611	1.38224	2.47817	2.26005	2.08378	5.43480	3.73319	2.43972	1.72413	1.73606	1.63560	2.07397	1.85315	1.78753	5.42891	3.91761	2.75452
45810	1.47843	1.41700	1.37713	2.47915	2.26013	2.08374	5.43780	3.72969	2.43753	1.72474	1.73558	1.63602	2.07314	1.84845	1.78600	5.43001	3.91685	2.75369
45970	1.47690	1.41567	1.37910	2.47823	2.25926	2.08332	5.43444	3.73012	2.43442	1.72380	1.73506	1.63431	2.07204	1.85273	1.79104	5.43329	3.92039	2.75696	32.58	6.1	0.00	-2.04	0.01738	0.01204	0.01523	0.01862	0.01917	0.01499	0.00547	0.01516	0.02012	0.01900	0.01332	0.01695	0.01711	0.01768	0.01381	0.00577	0.01628	0.02183
46140	1.47822	1.41798	1.38338	2.48168	2.26224	2.08571	5.43992	3.73644	2.44180	1.72718	1.73828	1.63748	2.07238	1.84865	1.78590	5.43082	3.91729	2.75349
46300	1.47834	1.42027	1.38415	2.48228	2.26486	2.08935	5.43630	3.73820	2.44426	1.73024	1.74093	1.64077	2.07561	1.85058	1.78942	5.43629	3.92011	2.75655
46470	1.47923	1.41733	1.38118	2.48125	2.26185	2.08615	5.43440	3.73385	2.44033	1.72749	1.73779	1.63873	2.07569	1.85419	1.79138	5.43579	3.92220	2.75875
46630	1.48200	1.41814	1.38433	2.48390	2.26484	2.08887	5.44365	3.73613	2.44260	1.72938	1.74083	1.63949	2.07176	1.84959	1.78637	5.43359	3.91899	2.75639
46790	1.47975	1.41892	1.38390	2.48377	2.26575	2.09026	5.44215	3.73845	2.44198	1.73167	1.74298	1.64243	2.07369	1.84961	1.78778	5.43866	3.92201	2.75843
46960	1.47735	1.41860	1.38139	2.48248	2.26380	2.08905	5.43988	3.73482	2.44083	1.73027	1.74080	1.64108	2.07452	1.85245	1.78827	5.43729	3.92356	2.76056
47120	1.47958	1.41950	1.38362	2.48573	2.26737	2.09177	5.44109	3.73882	2.44182	1.73235	1.74391	1.64348	2.07340	1.85018	1.78823	5.43803	3.92292	2.75966
47290	1.48226	1.42149	1.38489	2.48747	2.26896	2.09373	5.45348	3.74186	2.44779	1.73571	1.74669	1.64724	2.07782	1.85374	1.79291	5.44344	3.92642	2.76240
47450	1.48170	1.42138	1.38063	2.48672	2.26804	2.09140	5.43906	3.73707	2.44301	1.73346	1.74378	1.64437	2.07468	1.85285	1.79134	5.44447	3.92841	2.76471
47620	1.48184	1.41833	1.38330	2.48805	2.26988	2.09355	5.44834	3.73745	2.44290	1.73462	1.74558	1.64509	2.07654	1.85641	1.79123	5.44390	3.93010	2.76663	32.58	5.9	0.00	-2.04	0.01738	0.01204	0.01523	0.01862	0.01917	0.01499	0.00547	0.01516	0.02012	0.01900	0.01332	0.01695	0.01711	0.01768	0.01381	0.00577	0.01628	0.02182
47780	1.48246	1.42118	1.38487	2.49052	2.27273	2.09717	5.44343	3.74248	2.44734	1.73766	1.74792	1.64810	2.07626	1.85489	1.78928	5.44463	3.92994	2.76572
47940	1.48180	1.41944	1.38153	2.49024	2.27134	2.09580	5.44460	3.73870	2.44318	1.73636	1.74694	1.64741	2.07554	1.85035	1.78812	5.44099	3.92787	2.76353
48110	1.47650	1.41544	1.38185	2.48758	2.26942	2.09437	5.44692	3.73461	2.43993	1.73505	1.74619	1.64660	2.07296	1.84905	1.78938	5.44042	3.92488	2.76144
48270	1.47815	1.41716	1.38107	2.48723	2.27132	2.09636	5.44253	3.73560	2.44345	1.73837	1.74871	1.64842	2.07278	1.85008	1.79174	5.44306	3.92842	2.76489
48440	1.47925	1.41787	1.38151	2.48992	2.27169	2.09555	5.44359	3.73969	2.44281	1.73813	1.74807	1.64852	2.07262	1.85378	1.78870	5.44269	3.92840	2.76432
48600	1.48086	1.41901	1.38511	2.49003	2.27393	2.10067	5.44838	3.74401	2.44774	1.74257	1.75341	1.65308	2.07771	1.85501	1.79470	5.44985	3.93401	2.76909
48760	1.48302	1.41954	1.38499	2.49317	2.27406	2.09812	5.45496	3.74005	2.44356	1.73972	1.75028	1.65114	2.07774	1.85809	1.79354	5.45108	3.93499	2.77046
48930	1.48308	1.41928	1.38337	2.49473	2.27578	2.09922	5.45289	3.74060	2.44643	1.74110	1.75163	1.65057	2.07725	1.85613	1.79275	5.44587	3.93070	2.76724
49090	1.48086	1.42019	1.38518	2.49380	2.27568	2.10030	5.44168	3.73847	2.44587	1.74239	1.75262	1.65284	2.07487	1.85445	1.79222	5.45152	3.93406	2.76908
49260	1.48207	1.42170	1.38386	2.49316	2.27513	2.09995	5.45977	3.73735	2.44204	1.74147	1.75194	1.65224	2.07653	1.85480	1.79179	5.44685	3.93244	2.76840	32.58	6.0	0.00	-2.04	0.01738	0.01204	0.01523	0.01862	0.01916	0.01499	0.00547	0.01516	0.02012	0.01900	0.01332	0.01695	0.01711	0.01768	0.01381	0.00577	0.01628	0.02182
49420	1.48375	1.42008	1.38781	2.49647	2.27913	2.10401	5.45494	3.74081	2.44718	1.74532	1.75619	1.65575	2.07882	1.85569	1.79268	5.45079	3.93657	2.77234
49590	1.48689	1.42032	1.38298	2.49586	2.27784	2.10163	5.44673	3.73884	2.44557	1.74304	1.75371	1.65338	2.08029	1.85624	1.79753	5.44985	3.93745	2.77369
49750	1.48635	1.42624	1.38536	2.49754	2.27901	2.10310	5.44535	3.74683	2.44927	1.74496	1.75494	1.65593	2.07582	1.85478	1.79143	5.45012	3.93429	2.77122
49910	1.48414	1.42419	1.38276	2.49764	2.27982	2.10496	5.44568	3.74574	2.44527	1.74653	1.75692	1.65730	2.07854	1.85540	1.79573	5.45123	3.93652	2.77336
50080	1.48849	1.42172	1.38554	2.49723	2.27919	2.10395	5.44324	3.74399	2.44442	1.74649	1.75730	1.65669	2.07757	1.85626	1.79227	5.44962	3.93662	2.77326
50240	1.48546	1.42168	1.38564	2.49895	2.28087	2.10551	5.45404	3.74269	2.44471	1.74745	1.75843	1.65828	2.07943	1.85646	1.79532	5.44919	3.93672	2.77310
50410	1.48707	1.42205	1.38655	2.50096	2.28239	2.10696	5.45262	3.74420	2.44665	1.74934	1.76086	1.66028	2.07876	1.85931	1.79645	5.45213	3.94012	2.77608
50570	1.48278	1.42340	1.38282	2.49889	2.28192	2.10582	5.44994	3.74225	2.44486	1.74839	1.75887	1.65868	2.07993	1.85703	1.79386	5.45233	3.94033	2.77656
50740	1.48620	1.42442	1.38394	2.50145	2.28391	2.10750	5.44823	3.74116	2.44458	1.74973	1.76082	1.66009	2.08093	1.85725	1.79319	5.45651	3.94298	2.77967
50900	1.48274	1.42375	1.38770	2.50408	2.28530	2.11136	5.43930	3.75014	2.45117	1.75141	1.76198	1.66180	2.08144	1.86008	1.79839	5.45703	3.94163	2.77754	32.64	6.2	0.00	-2.04	0.01738	0.01204	0.01523	0.01862	0.01916	0.01499	0.00547	0.01516	0.02012	0.01899	0.01332	0.01695	0.01711	0.01768	0.01381	0.00577	0.01628	0.02182
51070	1.49171	1.42559	1.39198	2.50281	2.28541	2.11028	5.45010	3.74848	2.45103	1.75199	1.76195	1.66236	2.08061	1.85902	1.79327	5.45730	3.94265	2.77940
51230	1.48109	1.41749	1.38712	2.50424	2.28469	2.10867	5.44486	3.74023	2.44410	1.75015	1.76026	1.66114	2.07719	1.85877	1.79712	5.45784	3.94111	2.77849
51390	1.48515	1.42521	1.38976	2.50352	2.28526	2.10995	5.45181	3.74781	2.45216	1.75157	1.76118	1.66179	2.08383	1.86150	1.80156	5.45409	3.94106	2.77755
51560	1.48641	1.42557	1.38771	2.50323	2.28476	2.10996	5.44495	3.74447	2.44307	1.75182	1.76224	1.66307	2.08279	1.85875	1.79460	5.46008	3.94798	2.78499
51720	1.48437	1.42018	1.38840	2.51107	2.29140	2.11546	5.45514	3.74072	2.44926	1.75586	1.76770	1.66784	2.07766	1.85936	1.79983	5.46148	3.94689	2.78359
51890	1.48482	1.42490	1.38864	2.51026	2.29116	2.11601	5.44726	3.74666	2.45283	1.75673	1.76706	1.66767	2.08467	1.86023	1.80098	5.46135	3.94742	2.78417
52050	1.48078	1.42240	1.38160	2.50940	2.28939	2.11355	5.44629	3.73662	2.43708	1.75403	1.76646	1.66610	2.07245	1.84859	1.78982	5.45918	3.94551	2.78209
52210	1.47850	1.42056	1.38938	2.51274	2.29410	2.11830	5.45307	3.74275	2.44682	1.75956	1.77067	1.67111	2.08106	1.85645	1.79152	5.46631	3.95093	2.78716
52380	1.48205	1.42051	1.38373	2.51186	2.29218	2.11633	5.44523	3.73818	2.44528	1.75733	1.76889	1.66930	2.07255	1.84995	1.78997	5.46617	3.95179	2.78913
52540	1.47413	1.41721	1.38378	2.51327	2.29290	2.11702	5.43172	3.74164	2.44643	1.75771	1.76913	1.66797	2.08131	1.86190	1.79590	5.46245	3.94858	2.78520	32.58	6.3	0.00	-2.04	0.01738	0.01204	0.01523	0.01862	0.01916	0.01499	0.00547	0.01517	0.02013	0.01899	0.01332	0.01695	0.01711	0.01768	0.01381	0.00577	0.01628	0.02182
52710	1.48970	1.42282	1.38570	2.50957	2.29018	2.11488	5.44511	3.74138	2.44656	1.75638	1.76739	1.66762	2.07823	1.85537	1.79236	5.46972	3.95439	2.79115
52870	1.48486	1.42598	1.38836	2.51488	2.29574	2.11993	5.45055	3.75085	2.45578	1.76048	1.77049	1.67089	2.08642	1.86617	1.80182	5.46426	3.94803	2.78472
53030	1.49603	1.42990	1.39292	2.51365	2.29576	2.12011	5.44762	3.74754	2.45390	1.76258	1.77300	1.67370	2.08104	1.85965	1.79708	5.46811	3.95296	2.79003
53200	1.48639	1.42598	1.38954	2.51383	2.29550	2.11894	5.45599	3.74689	2.45202	1.75988	1.77084	1.67147	2.08217	1.85813	1.79783	5.46520	3.95133	2.78905
53360	1.47886	1.42069	1.38467	2.51446	2.29522	2.11898	5.43468	3.73651	2.44126	1.76059	1.77231	1.67313	2.07329	1.85253	1.79045	5.46895	3.95210	2.78901
53530	1.48257	1.42199	1.38397	2.51500	2.29681	2.12037	5.44344	3.73962	2.44250	1.76209	1.77370	1.67355	2.08014	1.85565	1.79579	5.46727	3.95412	2.79251
53690	1.48095	1.42375	1.38930	2.51782	2.29894	2.12279	5.43784	3.74216	2.44675	1.76426	1.77538	1.67534	2.07800	1.85523	1.79260	5.46891	3.95473	2.79159
53860	1.48287	1.42468	1.38929	2.51553	2.29660	2.12007	5.44235	3.73844	2.44509	1.76251	1.77325	1.67363	2.07904	1.85614	1.79654	5.46811	3.95353	2.78994
54020	1.48131	1.42609	1.38707	2.51612	2.29744	2.12222	5.44795	3.74153	2.44808	1.76375	1.77430	1.67516	2.08389	1.86130	1.80027	5.47266	3.95719	2.79369
54190	1.48910	1.42922	1.39101	2.51930	2.30036	2.12448	5.45874	3.74749	2.45121	1.76612	1.77652	1.67638	2.08243	1.86067	1.80065	5.47165	3.95649	2.79406	32.58	6.1	0.00	-2.04	0.01738	0.01204	0.01523	0.01862	0.01916	0.01499	0.00547	0.01517	0.02013	0.01899	0.01331	0.01695	0.01711	0.01768	0.01381	0.00577	0.01628	0.02182
54350	1.48584	1.42792	1.38920	2.51959	2.30048	2.12459	5.44542	3.74057	2.44962	1.76651	1.77653	1.67699	2.08574	1.86340	1.79956	5.47098	3.96004	2.79725
54520	1.49003	1.42978	1.39154	2.52271	2.30423	2.12729	5.45545	3.74850	2.45421	1.76899	1.77896	1.67895	2.08529	1.86151	1.79872	5.47484	3.95844	2.79496
54680	1.48687	1.42602	1.39154	2.52060	2.30160	2.12505	5.45366	3.74426	2.45372	1.76699	1.77877	1.67804	2.08347	1.85958	1.79750	5.46984	3.95585	2.79249
54850	1.48945	1.42950	1.39214	2.52158	2.30398	2.12774	5.45086	3.74833	2.45489	1.77023	1.78124	1.68099	2.08586	1.86344	1.80037	5.47547	3.95958	2.79607
55010	1.48832	1.42780	1.39098	2.52076	2.30155	2.12560	5.44562	3.74489	2.45117	1.76794	1.77840	1.67920	2.08504	1.86266	1.80073	5.47692	3.96180	2.79951
55180	1.48911	1.43027	1.39347	2.52369	2.30476	2.12790	5.45021	3.74864	2.45228	1.77051	1.78046	1.68043	2.08380	1.86321	1.79983	5.47450	3.95892	2.79515
55340	1.48840	1.42957	1.39471	2.52473	2.30701	2.13021	5.44996	3.75398	2.45703	1.77334	1.78351	1.68388	2.08822	1.86510	1.80326	5.47993	3.96322	2.80004
55510	1.48983	1.42767	1.39245	2.52425	2.30474	2.12944	5.45313	3.74613	2.45307	1.77101	1.78118	1.68078	2.08354	1.86309	1.80057	5.47390	3.96149	2.79790
55670	1.48724	1.42707	1.39350	2.52207	2.30443	2.12819	5.44241	3.74506	2.45179	1.77124	1.78152	1.68233	2.08495	1.86170	1.79984	5.47366	3.95937	2.79620
55840	1.48986	1.42961	1.39441	2.52553	2.30799	2.13245	5.45692	3.75141	2.45798	1.77431	1.78467	1.68426	2.08880	1.86434	1.80341	5.47858	3.96345	2.80056	32.64	6.2	0.00	-2.04	0.01738	0.01204	0.01523	0.01861	0.01916	0.01499	0.00547	0.01517	0.02013	0.01899	0.01331	0.01694	0.01711	0.01768	0.01381	0.00577	0.01628	0.02182
56000	1.48989	1.43060	1.39359	2.52564	2.30628	2.12920	5.45522	3.74681	2.45279	1.77228	1.78295	1.68275	2.08774	1.86549	1.80332	5.47955	3.96475	2.80149
56160	1.48829	1.43001	1.39336	2.52574	2.30756	2.13087	5.45412	3.74587	2.45421	1.77363	1.78363	1.68433	2.08470	1.86182	1.79710	5.47459	3.96256	2.79892
56330	1.48711	1.42818	1.39238	2.52744	2.30981	2.13267	5.45205	3.74765	2.45442	1.77600	1.78580	1.68559	2.08608	1.86337	1.79817	5.48176	3.96552	2.80206
56490	1.48601	1.43056	1.39236	2.52778	2.30874	2.13227	5.45896	3.74789	2.45345	1.77571	1.78555	1.68644	2.08539	1.86082	1.79821	5.47623	3.96519	2.80180
56660	1.48913	1.43018	1.39362	2.52918	2.31026	2.13493	5.45026	3.74778	2.45164	1.77673	1.78745	1.68709	2.08650	1.86232	1.80195	5.48421	3.96820	2.80432
56820	1.48880	1.42916	1.39393	2.53063	2.31163	2.13563	5.45851	3.74780	2.45569	1.77851	1.78782	1.68763	2.08678	1.86461	1.79898	5.48364	3.96736	2.80269
56990	1.49092	1.43235	1.39522	2.52972	2.31179	2.13554	5.45538	3.75087	2.45663	1.77924	1.78887	1.68940	2.08689	1.86357	1.80175	5.48267	3.96886	2.80465
57150	1.49139	1.43160	1.39397	2.53035	2.31120	2.13524	5.45111	3.74453	2.45479	1.77817	1.78753	1.68803	2.09099	1.86580	1.80387	5.48468	3.97115	2.80736
57320	1.49240	1.43492	1.39580	2.53285	2.31472	2.13729	5.46379	3.75086	2.45688	1.78041	1.79067	1.69073	2.08915	1.86543	1.80216	5.48297	3.96864	2.80565
57480	1.49088	1.43337	1.39515	2.53082	2.31413	2.13779	5.44927	3.75133	2.45656	1.78099	1.79029	1.69092	2.08806	1.86644	1.80172	5.48436	3.97035	2.80627	32.64	6.2	0.00	-2.04	0.01738	0.01204	0.01523	0.01861	0.01916	0.01499	0.00547	0.01517	0.02013	0.01899	0.01331	0.01694	0.01711	0.01768	0.01381	0.00577	0.01628	0.02182
57650	1.49001	1.43123	1.39494	2.53136	2.31139	2.13574	5.44578	3.74707	2.45425	1.77874	1.78788	1.68862	2.08980	1.86860	1.80546	5.48691	3.97265	2.80934
57810	1.49260	1.43028	1.39583	2.53337	2.31516	2.13831	5.45902	3.75242	2.45703	1.78177	1.79104	1.69190	2.08715	1.86501	1.80128	5.48262	3.97006	2.80627
57970	1.49147	1.43329	1.39737	2.53442	2.31676	2.14099	5.45069	3.75158	2.45736	1.78436	1.79464	1.69452	2.09154	1.86804	1.80438	5.49158	3.97340	2.80970
58140	1.49278	1.43185	1.39463	2.53319	2.31385	2.13836	5.45577	3.74991	2.45750	1.78096	1.79127	1.69121	2.08966	1.86711	1.80598	5.49181	3.97607	2.81167
58300	1.49440	1.43380	1.39598	2.53607	2.31698	2.14050	5.44854	3.75031	2.45727	1.78399	1.79397	1.69315	2.08849	1.86235	1.80338	5.48584	3.97261	2.80802
58470	1.49201	1.43276	1.39853	2.53697	2.31894	2.14270	5.45797	3.75657	2.46071	1.78640	1.79500	1.69510	2.08901	1.86944	1.80521	5.48960	3.97488	2.81127
58630	1.49418	1.43015	1.39638	2.53607	2.31667	2.14071	5.45301	3.74753	2.45502	1.78391	1.79357	1.69370	2.08906	1.86604	1.80470	5.49202	3.97566	2.81180
58800	1.49115	1.43242	1.39757	2.53688	2.31751	2.14228	5.45142	3.75126	2.45725	1.78567	1.79525	1.69547	2.08864	1.86600	1.80081	5.48993	3.97409	2.80979
58960	1.49410	1.43287	1.39805	2.53777	2.31959	2.14402	5.45776	3.75381	2.46155	1.78714	1.79649	1.69666	2.08778	1.86927	1.80175	5.49000	3.97579	2.81250
59130	1.49543	1.43164	1.39605	2.53776	2.31913	2.14271	5.44493	3.75263	2.45725	1.78616	1.79619	1.69618	2.08814	1.86841	1.80321	5.48874	3.97595	2.81223	32.64	6.1	0.00	-2.04	0.01738	0.01204	0.01523	0.01861	0.01916	0.01498	0.00547	0.01517	0.02013	0.01899	0.01331	0.01694	0.01711	0.01768	0.01381	0.00577	0.01628	0.02182
59290	1.49402	1.43295	1.39679	2.53791	2.32011	2.14345	5.45671	3.75118	2.45714	1.78660	1.79619	1.69674	2.08822	1.86669	1.80277	5.48952	3.97566	2.81298
59460	1.49334	1.43674	1.39887	2.53957	2.32085	2.14636	5.45557	3.75403	2.45848	1.78872	1.79792	1.69783	2.08999	1.86774	1.80418	5.49109	3.97716	2.81374
59620	1.49336	1.43375	1.39615	2.53832	2.31865	2.14280	5.45175	3.75093	2.45680	1.78623	1.79653	1.69673	2.08648	1.86839	1.80554	5.49341	3.97844	2.81529
59790	1.49354	1.43474	1.39858	2.54161	2.32189	2.14727	5.45179	3.75490	2.45864	1.78944	1.79904	1.69968	2.09063	1.86756	1.80494	5.49459	3.98132	2.81673
59950	1.49285	1.43435	1.39835	2.54176	2.32253	2.14746	5.45329	3.75271	2.45724	1.78938	1.79896	1.69976	2.09147	1.86803	1.80363	5.49583	3.98232	2.81778
60120	1.49553	1.43322	1.40001	2.54372	2.32387	2.14813	5.45569	3.75046	2.45899	1.79087	1.80076	1.70095	2.08956	1.86757	1.80477	5.49606	3.97943	2.81578
60280	1.49263	1.43371	1.39856	2.54167	2.32523	2.15116	5.45837	3.75873	2.46391	1.79381	1.80361	1.70460	2.09340	1.86875	1.80782	5.49848	3.98375	2.82010
60450	1.49457	1.43186	1.39743	2.54494	2.32559	2.14976	5.44960	3.75238	2.45774	1.79253	1.80210	1.70249	2.09061	1.86625	1.80707	5.49821	3.98179	2.81857
60610	1.49420	1.43236	1.39631	2.54320	2.32379	2.14812	5.45537	3.74984	2.45523	1.79133	1.80099	1.70140	2.08895	1.86701	1.80731	5.49700	3.98232	2.81953
60780	1.49386	1.43363	1.39937	2.54500	2.32633	2.15058	5.45347	3.75333	2.45830	1.79327	1.80230	1.70297	2.09034	1.86800	1.80358	5.49742	3.98134	2.81787	32.64	6.0	0.00	-2.04	0.01738	0.01204	0.01523	0.01861	0.01916	0.01498	0.00547	0.01517	0.02013	0.01899	0.01331	0.01694	0.01711	0.01768	0.01381	0.00577	0.01628	0.02182
60940	1.49499	1.43651	1.39970	2.54721	2.32819	2.15255	5.46632	3.75667	2.46112	1.79516	1.80442	1.70571	2.09163	1.87008	1.80577	5.49769	3.98368	2.82083
61110	1.49525	1.43334	1.39822	2.54536	2.32529	2.14939	5.45038	3.74802	2.45668	1.79227	1.80230	1.70285	2.08963	1.87208	1.80794	5.50007	3.98672	2.82383
61270	1.49683	1.43674	1.39967	2.54949	2.32891	2.15254	5.45696	3.75306	2.46089	1.79570	1.80498	1.70577	2.09298	1.86688	1.80451	5.49950	3.98367	2.81989
61430	1.49439	1.43587	1.39784	2.54817	2.32965	2.15449	5.46172	3.75495	2.46078	1.79660	1.80702	1.70699	2.09287	1.86693	1.80655	5.50195	3.98547	2.82198
61600	1.49486	1.43433	1.39795	2.54762	2.32712	2.15162	5.45193	3.75216	2.45563	1.79423	1.80372	1.70481	2.08995	1.86862	1.80577	5.50061	3.98602	2.82361
61760	1.49554	1.43585	1.39664	2.54840	2.32890	2.15407	5.45562	3.75092	2.45712	1.79626	1.80443	1.70584	2.08961	1.86562	1.80546	5.49866	3.98401	2.81991
61930	1.49373	1.43703	1.39928	2.54846	2.32940	2.15467	5.45652	3.75590	2.45847	1.79797	1.80661	1.70771	2.09144	1.86919	1.80269	5.50162	3.98566	2.82229
62090	1.49470	1.43474	1.39870	2.54841	2.32905	2.15353	5.46249	3.75436	2.45755	1.79666	1.80660	1.70637	2.09209	1.86968	1.80726	5.50357	3.98662	2.82389
62260	1.49291	1.43644	1.40086	2.54925	2.32983	2.15484	5.46030	3.75620	2.45910	1.79763	1.80733	1.70839	2.09295	1.87053	1.80908	5.50357	3.98875	2.82501
62420	1.49807	1.43644	1.40243	2.55096	2.33143	2.15661	5.46447	3.75763	2.46311	1.79930	1.80865	1.70896	2.09307	1.87167	1.80911	5.50154	3.98712	2.82327	32.58	6.2	0.00	-2.04	0.01738	0.01204	0.01523	0.01861	0.01916	0.01498	0.00547	0.01517	0.02013	0.01899	0.01331	0.01694	0.01711	0.01768	0.01381	0.00577	0.01628	0.02182
62590	1.49421	1.43970	1.40018	2.54913	2.33212	2.15710	5.45529	3.75672	2.46191	1.80058	1.80990	1.71095	2.09342	1.86966	1.80809	5.50296	3.98916	2.82597
62750	1.49565	1.43505	1.40092	2.55090	2.33122	2.15536	5.46024	3.75624	2.45866	1.79864	1.80908	1.70932	2.09247	1.87032	1.80512	5.50366	3.99109	2.82716
62920	1.49741	1.43553	1.40089	2.55269	2.33263	2.15755	5.45699	3.75598	2.46034	1.79973	1.80924	1.70994	2.09080	1.86783	1.80605	5.50326	3.98789	2.82502
63080	1.49580	1.43611	1.40167	2.55028	2.33303	2.15800	5.46403	3.75582	2.46263	1.80235	1.81130	1.71169	2.09256	1.87102	1.80644	5.50430	3.99068	2.82704
63240	1.49345	1.43823	1.39542	2.55152	2.33217	2.15627	5.46329	3.75271	2.45551	1.79975	1.80924	1.70923	2.09250	1.86971	1.80744	5.50575	3.99205	2.82856
63410	1.49379	1.43422	1.39962	2.55364	2.33400	2.15848	5.45480	3.75524	2.45687	1.80177	1.81085	1.71238	2.09054	1.86952	1.80392	5.50373	3.98911	2.82724
63570	1.49778	1.43490	1.39849	2.55424	2.33657	2.16065	5.46634	3.75352	2.45848	1.80323	1.81225	1.71391	2.08995	1.86987	1.80517	5.50864	3.99340	2.82880
63740	1.49179	1.43392	1.39744	2.55482	2.33444	2.15809	5.45167	3.74906	2.45725	1.80202	1.81047	1.71264	2.08994	1.86760	1.80568	5.50612	3.99428	2.83073
63900	1.49512	1.43576	1.39801	2.55674	2.33723	2.16119	5.45553	3.75615	2.45821	1.80397	1.81410	1.71545	2.09233	1.86585	1.80281	5.50662	3.99217	2.82937
64070	1.49467	1.43537	1.40215	2.55781	2.33963	2.16393	5.46276	3.75911	2.46219	1.80583	1.81633	1.71760	2.09345	1.87065	1.80665	5.51118	3.99503	2.83167	32.58	6.2	0.00	-2.04	0.01738	0.01204	0.01523	0.01861	0.01916	0.01498	0.00547	0.01517	0.02013	0.01899	0.01331	0.01694	0.01711	0.01768	0.01381	0.00577	0.01628	0.02182
64230	1.49751	1.43296	1.39893	2.55694	2.33649	2.16095	5.46268	3.75256	2.45803	1.80373	1.81377	1.71487	2.09473	1.87169	1.81079	5.51051	3.99787	2.83463
64400	1.49493	1.43506	1.40370	2.56115	2.34135	2.16488	5.46183	3.75604	2.46006	1.80655	1.81651	1.71739	2.09247	1.86837	1.80514	5.50863	3.99557	2.83136
64560	1.49582	1.43576	1.40318	2.56019	2.34123	2.16545	5.45972	3.75557	2.46367	1.80792	1.81828	1.71863	2.09771	1.87346	1.80667	5.50947	3.99746	2.83310
64720	1.49522	1.43344	1.39780	2.55866	2.33906	2.16320	5.45541	3.75290	2.46073	1.80596	1.81565	1.71687	2.09167	1.86803	1.80638	5.50772	3.99759	2.83272
64890	1.49427	1.43547	1.40024	2.55963	2.33934	2.16261	5.45772	3.75155	2.45662	1.80571	1.81555	1.71623	2.09256	1.86767	1.80304	5.51051	3.99482	2.83142
65050	1.49340	1.43239	1.39996	2.55720	2.33766	2.16187	5.45204	3.75081	2.45771	1.80471	1.81475	1.71560	2.08921	1.87204	1.80828	5.51172	3.99761	2.83461
65220	1.49990	1.43636	1.39943	2.56048	2.34145	2.16615	5.45699	3.75300	2.46055	1.80825	1.81845	1.71904	2.09396	1.87058	1.81012	5.51253	3.99965	2.83591
65380	1.49792	1.43731	1.40252	2.56291	2.34361	2.16755	5.45841	3.76067	2.46579	1.81034	1.81966	1.72069	2.09563	1.87218	1.80956	5.51041	3.99820	2.83414
65550	1.49910	1.43533	1.40442	2.56058	2.34349	2.16764	5.46813	3.75893	2.46400	1.81069	1.82024	1.72183	2.09284	1.87093	1.80560	5.51216	3.99841	2.83550
65710	1.49794	1.43740	1.40051	2.56075	2.34137	2.16537	5.46526	3.75233	2.46085	1.80784	1.81840	1.71897	2.09414	1.87055	1.80876	5.51111	3.99760	2.83541	32.58	6.1	0.00	-2.04	0.01738	0.01204	0.01523	0.01861	0.01916	0.01498	0.00547	0.01517	0.02013	0.01899	0.01331	0.01694	0.01711	0.01768	0.01381	0.00577	0.01628	0.02182
65870	1.49576	1.43842	1.40170	2.56191	2.34297	2.16643	5.46880	3.75668	2.46212	1.80947	1.81982	1.71996	2.09385	1.86954	1.80589	5.51363	3.99817	2.83559
66040	1.49462	1.43686	1.40091	2.56157	2.34314	2.16641	5.45604	3.75115	2.46019	1.81015	1.81980	1.71936	2.09272	1.87341	1.81084	5.51606	4.00203	2.83871
66200	1.50094	1.44019	1.40042	2.56467	2.34604	2.17033	5.46604	3.75848	2.46585	1.81357	1.82259	1.72304	2.09585	1.87154	1.80809	5.51501	4.00032	2.83672
66370	1.50114	1.43954	1.40553	2.56560	2.34699	2.17143	5.47023	3.76236	2.46573	1.81409	1.82418	1.72487	2.09478	1.87089	1.80778	5.51549	4.00232	2.83897
66530	1.49613	1.43473	1.40065	2.56457	2.34502	2.16948	5.46116	3.75877	2.46351	1.81221	1.82199	1.72275	2.09634	1.87264	1.80687	5.51468	4.00070	2.83772
66690	1.49930	1.43649	1.40135	2.56314	2.34439	2.16856	5.45986	3.75335	2.46206	1.81150	1.82126	1.72237	2.09240	1.86999	1.80594	5.51421	3.99972	2.83733
66860	1.49237	1.43364	1.39661	2.56204	2.34366	2.16740	5.45075	3.74860	2.45664	1.81109	1.82105	1.72192	2.09198	1.87018	1.80841	5.51562	4.00368	2.84053
67020	1.49639	1.43673	1.40683	2.56624	2.34656	2.17061	5.46701	3.75669	2.46332	1.81369	1.82278	1.72470	2.09162	1.86818	1.80497	5.51316	4.00069	2.83774
67190	1.49698	1.43905	1.39721	2.56653	2.34809	2.17303	5.45953	3.75579	2.46089	1.81620	1.82631	1.72718	2.09214	1.86962	1.80580	5.51633	4.00372	2.84001
67350	1.49941	1.43343	1.39548	2.56392	2.34572	2.17006	5.46062	3.75477	2.45824	1.81298	1.82204	1.72424	2.09132	1.86959	1.80935	5.51608	4.00513	2.84166	32.58	6.1	0.00	-2.04	0.01738	0.01204	0.01523	0.01861	0.01916	0.01498	0.00547	0.01517	0.02013	0.01899	0.01331	0.01694	0.01711	0.01768	0.01381	0.00577	0.01628	0.02182
67520	1.49840	1.43518	1.40295	2.56626	2.34741	2.17231	5.46322	3.76232	2.46556	1.81518	1.82505	1.72559	2.09403	1.87274	1.81093	5.51652	4.00088	2.83843
67680	1.49934	1.43571	1.40603	2.56393	2.34754	2.17197	5.46904	3.76001	2.46758	1.81608	1.82486	1.72608	2.09424	1.87569	1.80983	5.51564	4.00138	2.83740
67850	1.50556	1.44249	1.40722	2.56256	2.34627	2.17108	5.47319	3.76140	2.46703	1.81606	1.82345	1.72605	2.09566	1.87542	1.81081	5.51446	4.00062	2.83743
68010	1.50301	1.43862	1.40669	2.56241	2.34550	2.17075	5.46985	3.76496	2.46882	1.81571	1.82260	1.72471	2.09903	1.87661	1.81177	5.51551	4.00033	2.83711
68180	1.50947	1.44189	1.40825	2.56165	2.34565	2.17091	5.46761	3.76428	2.46879	1.81605	1.82382	1.72591	2.10018	1.87935	1.81615	5.51655	4.00283	2.83902
68340	1.50672	1.44333	1.40943	2.56520	2.34852	2.17419	5.47278	3.76322	2.46935	1.81831	1.82723	1.72873	2.09634	1.87479	1.80931	5.51692	4.00322	2.84041
68500	1.49888	1.43453	1.40230	2.56570	2.34739	2.17215	5.46025	3.75731	2.46052	1.81629	1.82565	1.72686	2.09500	1.87578	1.81595	5.52268	4.00836	2.84509
68670	1.50251	1.44176	1.40427	2.57115	2.35342	2.17704	5.46298	3.76015	2.46301	1.81995	1.82972	1.73154	2.09268	1.87010	1.80569	5.51975	4.00774	2.84405
68830	1.49257	1.43523	1.39834	2.57065	2.35214	2.17542	5.45249	3.75655	2.45748	1.81978	1.82974	1.73062	2.09196	1.86915	1.80407	5.51763	4.00534	2.84130
69000	1.49667	1.43502	1.40187	2.56760	2.35069	2.17478	5.46229	3.75668	2.46058	1.81834	1.82805	1.72942	2.09094	1.86869	1.80413	5.51660	4.00319	2.84016	32.64	6.0	0.00	-2.04	0.01738	0.01204	0.01523	0.01861	0.01916	0.01498	0.00547	0.01517	0.02012	0.01899	0.01331	0.01694	0.01711	0.01768	0.01381	0.00577	0.01628	0.02182
69160	1.49707	1.43550	1.40204	2.56616	2.35152	2.17603	5.45640	3.76255	2.46397	1.82144	1.83055	1.73131	2.09423	1.87269	1.81113	5.52078	4.00685	2.84333
69320	1.49886	1.43681	1.40438	2.56871	2.35033	2.17405	5.45648	3.75406	2.45986	1.81870	1.82735	1.72897	2.09589	1.87274	1.81191	5.51835	4.00799	2.84401
69490	1.50189	1.43803	1.40544	2.57051	2.35317	2.17650	5.46905	3.75919	2.46386	1.82070	1.83021	1.73168	2.09333	1.87152	1.80911	5.51556	4.00493	2.84251
69650	1.50081	1.43896	1.40372	2.56938	2.35289	2.17734	5.45900	3.75911	2.46357	1.82156	1.82978	1.73226	2.09664	1.87268	1.80853	5.52078	4.00718	2.84333
69820	1.49940	1.43596	1.40290	2.56967	2.35289	2.17752	5.45766	3.75652	2.46389	1.82198	1.83043	1.73173	2.09460	1.87409	1.81072	5.52017	4.00809	2.84426
69980	1.50137	1.43690	1.40411	2.57080	2.35389	2.17798	5.46311	3.75804	2.46329	1.82227	1.83218	1.73350	2.09666	1.87146	1.80868	5.52199	4.00796	2.84489
70150	1.50002	1.43999	1.40472	2.57227	2.35541	2.17931	5.46103	3.75942	2.46309	1.82361	1.83330	1.73450	2.09507	1.87295	1.80948	5.52223	4.01064	2.84637
70310	1.50089	1.43972	1.40392	2.57202	2.35446	2.17832	5.46530	3.75804	2.46177	1.82275	1.83184	1.73429	2.09834	1.87648	1.81146	5.52367	4.01228	2.84933
70480	1.50317	1.44040	1.40564	2.57421	2.35764	2.18014	5.45892	3.75793	2.46323	1.82466	1.83437	1.73716	2.09222	1.87001	1.80847	5.52357	4.00978	2.84722
70640	1.50184	1.43799	1.40384	2.57698	2.36002	2.18387	5.45621	3.76020	2.46361	1.82733	1.83762	1.73831	2.09330	1.87431	1.80713	5.52966	4.01462	2.85061	32.58	6.2	0.00	-2.04	0.01738	0.01204	0.01523	0.01861	0.01916	0.01498	0.00547	0.01516	0.02012	0.01899	0.01331	0.01694	0.01710	0.01768	0.01380	0.00577	0.01628	0.02182
70810	1.50182	1.43789	1.40325	2.57601	2.35783	2.18112	5.46275	3.75488	2.46436	1.82542	1.83410	1.73529	2.09885	1.87637	1.81393	5.52592	4.01378	2.85096
70970	1.50682	1.44328	1.40485	2.57646	2.35901	2.18249	5.46466	3.75724	2.46150	1.82655	1.83598	1.73759	2.09348	1.87099	1.81021	5.52569	4.01256	2.84938
71140	1.49174	1.44216	1.41521	2.57961	2.36336	2.18700	5.45113	3.76158	2.46092	1.83072	1.83990	1.74162	2.09683	1.87105	1.80163	5.53189	4.01772	2.85444
71300	1.50295	1.43438	1.40196	2.57874	2.36104	2.18406	5.46483	3.75571	2.46493	1.82793	1.83646	1.73778	2.09751	1.87765	1.81414	5.52599	4.01203	2.84870
71460	1.50599	1.44463	1.40854	2.57486	2.35785	2.18228	5.46365	3.76052	2.46270	1.82680	1.83493	1.73717	2.09723	1.87106	1.80961	5.52879	4.01402	2.85141
71630	1.50287	1.43893	1.40735	2.57788	2.36043	2.18405	5.45978	3.75881	2.46311	1.82861	1.83673	1.73950	2.09437	1.87414	1.80985	5.52616	4.01431	2.85083
71790	1.50156	1.43938	1.40478	2.57660	2.35991	2.18320	5.46715	3.75974	2.46654	1.82792	1.83680	1.73852	2.09737	1.87910	1.81676	5.53165	4.01789	2.85588
71960	1.50417	1.44205	1.40208	2.58181	2.36490	2.18861	5.46849	3.76108	2.46444	1.83226	1.84159	1.74391	2.09766	1.88051	1.81634	5.53074	4.01689	2.85326
72120	1.51343	1.44487	1.41254	2.57766	2.36264	2.18747	5.48490	3.76784	2.47058	1.83258	1.84133	1.74283	2.10099	1.87319	1.80912	5.53243	4.01842	2.85587
72280	1.49078	1.43207	1.40034	2.58245	2.36470	2.18804	5.45768	3.75239	2.45878	1.83185	1.83986	1.74114	2.09055	1.86763	1.80036	5.52924	4.01560	2.85236	32.58	6.0	0.00	-2.04	0.01738	0.01204	0.01523	0.01861	0.01916	0.01498	0.00547	0.01516	0.02012	0.01899	0.01331	0.01694	0.01710	0.01768	0.01380	0.00577	0.01628	0.02182
72450	1.49470	1.43368	1.39626	2.58269	2.36577	2.18920	5.46041	3.74851	2.45933	1.83388	1.84346	1.74469	2.08620	1.86550	1.80370	5.53234	4.02108	2.85590
72610	1.50546	1.44430	1.40686	2.57977	2.36256	2.18627	5.46179	3.75812	2.46265	1.83110	1.83949	1.74155	2.09589	1.86641	1.80071	5.52893	4.01496	2.85264
72770	1.49771	1.43508	1.39901	2.58288	2.36674	2.19003	5.45577	3.75361	2.46009	1.83493	1.84359	1.74574	2.09480	1.87228	1.80211	5.53544	4.02046	2.85646
72940	1.50217	1.43452	1.39473	2.58322	2.36576	2.18942	5.45321	3.74560	2.46091	1.83444	1.84287	1.74492	2.09036	1.87310	1.80998	5.53355	4.01733	2.85371
73100	1.50644	1.44320	1.40803	2.58297	2.36706	2.19192	5.45797	3.75992	2.46853	1.83709	1.84472	1.74679	2.09748	1.87547	1.81585	5.53719	4.02179	2.85720
73260	1.49866	1.44290	1.41020	2.58164	2.36407	2.18896	5.47925	3.76505	2.46351	1.83338	1.84278	1.74413	2.09824	1.87410	1.80928	5.53544	4.02164	2.85875
73430	1.50045	1.43252	1.40146	2.58431	2.36631	2.19021	5.47127	3.75974	2.46424	1.83526	1.84313	1.74532	2.09692	1.87622	1.80634	5.53119	4.01856	2.85566
73590	1.51045	1.43704	1.39720	2.57941	2.36213	2.18574	5.47909	3.75143	2.46505	1.83233	1.84002	1.74180	2.10363	1.87328	1.82266	5.53517	4.02378	2.85921
73760	1.49356	1.43812	1.42866	2.58352	2.36687	2.19131	5.45915	3.77272	2.46969	1.83708	1.84510	1.74616	2.09865	1.87926	1.80013	5.53453	4.02125	2.85742
73920	1.52431	1.44206	1.40673	2.58465	2.36884	2.19284	5.47778	3.76266	2.47219	1.83861	1.84605	1.74877	2.09661	1.87474	1.80810	5.54037	4.02520	2.86070	32.58	6.2	0.00	-2.04	0.01738	0.01204	0.01523	0.01861	0.01916	0.01498	0.00547	0.01516	0.02012	0.01899	0.01331	0.01694	0.01710	0.01768	0.01380	0.00577	0.01628	0.02182
74080	1.49854	1.43984	1.40188	2.58493	2.36759	2.19166	5.45490	3.75928	2.45790	1.83706	1.84525	1.74721	2.09783	1.86697	1.80494	5.53096	4.02079	2.85697
74250	1.50490	1.43679	1.41016	2.58721	2.37137	2.19575	5.46568	3.76305	2.47440	1.84146	1.84857	1.75045	2.09645	1.87578	1.81198	5.54175	4.02691	2.86321
74410	1.50180	1.43856	1.40061	2.58693	2.37027	2.19419	5.46108	3.75828	2.46464	1.83899	1.84699	1.74874	2.09478	1.87162	1.80538	5.53784	4.02215	2.85921
74570	1.50527	1.43782	1.40405	2.58755	2.37131	2.19689	5.47057	3.76299	2.46840	1.84160	1.84873	1.75071	2.09945	1.87697	1.81666	5.54053	4.02646	2.86213
74740	1.50580	1.43917	1.40523	2.58465	2.36840	2.19187	5.46939	3.76482	2.46391	1.83840	1.84588	1.74820	2.10130	1.87737	1.81241	5.53787	4.02715	2.86354
74900	1.50658	1.44119	1.40833	2.58835	2.37263	2.19708	5.47293	3.76948	2.46852	1.84207	1.84960	1.75185	2.10224	1.87744	1.81311	5.53932	4.02657	2.86283
75060	1.50917	1.44045	1.40973	2.58627	2.36927	2.19372	5.47782	3.76418	2.46745	1.83933	1.84763	1.74905	2.09791	1.87254	1.80857	5.53500	4.02323	2.85959
75220	1.49870	1.43669	1.40559	2.58511	2.37166	2.19633	5.47207	3.76152	2.46766	1.84350	1.85165	1.75359	2.09904	1.87578	1.81200	5.54026	4.02858	2.86450
75390	1.50396	1.43985	1.40302	2.58802	2.37107	2.19482	5.47154	3.75815	2.46504	1.84073	1.84921	1.75090	2.09321	1.87082	1.80830	5.53686	4.02439	2.86150
75550	1.49747	1.43628	1.40095	2.58699	2.37000	2.19395	5.44937	3.75025	2.45776	1.84038	1.84723	1.75016	2.09647	1.87686	1.81481	5.54345	4.03202	2.86854	32.64	6.1	0.00	-2.04	0.01738	0.01203	0.01523	0.01861	0.01916	0.01498	0.00547	0.01516	0.02012	0.01899	0.01331	0.01694	0.01710	0.01767	0.01380	0.00577	0.01628	0.02182
75720	1.50662	1.44626	1.41132	2.59256	2.37614	2.20043	5.47622	3.76608	2.46655	1.84588	1.85398	1.75530	2.09704	1.87521	1.80982	5.54321	4.02952	2.86669
75880	1.50313	1.43891	1.40493	2.59022	2.37504	2.20046	5.46865	3.76444	2.46583	1.84574	1.85339	1.75556	2.09856	1.87424	1.80907	5.54311	4.02930	2.86621
76040	1.50068	1.43642	1.40032	2.59028	2.37323	2.19816	5.45734	3.75582	2.46064	1.84415	1.85203	1.75455	2.09377	1.87122	1.80429	5.54082	4.02768	2.86355
76210	1.50152	1.43929	1.40618	2.59342	2.37758	2.20333	5.46620	3.76150	2.46583	1.84796	1.85707	1.75875	2.09682	1.87243	1.81067	5.54858	4.03331	2.86934
76370	1.49996	1.43857	1.40370	2.59252	2.37526	2.19992	5.46832	3.75949	2.46195	1.84510	1.85365	1.75589	2.09748	1.87591	1.81092	5.54736	4.03238	2.86842
76540	1.50625	1.44077	1.40563	2.59194	2.37542	2.20090	5.46714	3.76327	2.46655	1.84639	1.85394	1.75591	2.09707	1.87658	1.81141	5.54324	4.03107	2.86654
76700	1.50422	1.43926	1.40554	2.59081	2.37377	2.19829	5.46869	3.75805	2.46528	1.84508	1.85328	1.75497	2.09967	1.87872	1.81623	5.54760	4.03611	2.87241
76860	1.50725	1.44001	1.40994	2.59675	2.37930	2.20435	5.47248	3.76698	2.46919	1.84966	1.85733	1.75882	2.09966	1.87856	1.81418	5.54672	4.03366	2.86953
77030	1.50412	1.44354	1.40779	2.59732	2.38160	2.20685	5.46564	3.76309	2.46482	1.85284	1.85964	1.76164	2.09951	1.87313	1.80570	5.55226	4.03806	2.87307
77190	1.49951	1.43691	1.40117	2.59699	2.37954	2.20509	5.45497	3.75628	2.46252	1.85012	1.85716	1.75995	2.09527	1.87007	1.80613	5.54980	4.03576	2.87153	32.64	6.1	0.00	-2.04	0.01738	0.01203	0.01523	0.01861	0.01916	0.01498	0.00547	0.01516	0.02012	0.01899	0.01331	0.01694	0.01710	0.01767	0.01380	0.00577	0.01628	0.02182
77350	1.49829	1.43711	1.39967	2.59649	2.37976	2.20464	5.45810	3.75333	2.46010	1.85023	1.85832	1.76041	2.09309	1.86727	1.80584	5.54716	4.03607	2.87224
77520	1.49551	1.43433	1.40068	2.59663	2.37855	2.20421	5.45342	3.75515	2.46078	1.85050	1.85817	1.76085	2.09451	1.87270	1.81026	5.55050	4.03778	2.87475
77680	1.50094	1.43857	1.40165	2.59871	2.38166	2.20694	5.45741	3.75206	2.46156	1.85251	1.86078	1.76266	2.09295	1.87007	1.80870	5.55057	4.03705	2.87236
77850	1.49883	1.44016	1.40397	2.60038	2.38347	2.20882	5.46628	3.75952	2.46489	1.85526	1.86243	1.76504	2.09763	1.87467	1.80844	5.55240	4.03910	2.87471
78010	1.49960	1.43929	1.40527	2.59828	2.38126	2.20622	5.45903	3.75774	2.46491	1.85267	1.85975	1.76217	2.09562	1.87567	1.81101	5.55442	4.03953	2.87512
78180	1.50341	1.43977	1.40404	2.60031	2.38309	2.20854	5.45761	3.76211	2.46606	1.85475	1.86176	1.76440	2.09928	1.87700	1.81163	5.55425	4.04299	2.87799
78340	1.50461	1.44272	1.41059	2.60342	2.38652	2.21202	5.46343	3.76590	2.47214	1.85734	1.86484	1.76672	2.09978	1.87752	1.81315	5.55696	4.04182	2.87696
78510	1.50160	1.43891	1.40602	2.60187	2.38567	2.21155	5.46461	3.76483	2.46879	1.85802	1.86410	1.76630	2.09846	1.87673	1.81252	5.55591	4.04200	2.87696
78670	1.50083	1.44025	1.40216	2.60097	2.38430	2.20838	5.46900	3.76018	2.46280	1.85520	1.86218	1.76449	2.09568	1.87386	1.80915	5.54848	4.03676	2.87287
78830	1.49957	1.44044	1.40724	2.59850	2.38477	2.21168	5.46963	3.76424	2.46577	1.85836	1.86604	1.76880	2.09685	1.87728	1.81276	5.55865	4.04304	2.87814	32.58	6.2	0.00	-2.04	0.01738	0.01203	0.01523	0.01861	0.01916	0.01498	0.00547	0.01516	0.02012	0.01899	0.01331	0.01693	0.01710	0.01767	0.01380	0.00577	0.01628	0.02182
79000	1.50296	1.44007	1.40670	2.60159	2.38468	2.20998	5.47394	3.76108	2.46603	1.85609	1.86311	1.76497	2.09658	1.87503	1.81339	5.55142	4.04038	2.87650
79160	1.50243	1.43787	1.40519	2.60220	2.38550	2.21050	5.47036	3.76127	2.46425	1.85621	1.86325	1.76646	2.09655	1.87448	1.80839	5.55250	4.04088	2.87595
79320	1.50110	1.43662	1.40301	2.59978	2.38257	2.20777	5.46369	3.75805	2.46302	1.85518	1.86207	1.76551	2.09679	1.87693	1.81283	5.55554	4.04332	2.87926
79490	1.50413	1.44010	1.40600	2.60350	2.38740	2.21195	5.46377	3.76212	2.46762	1.85863	1.86500	1.76777	2.09668	1.87460	1.80948	5.55223	4.04043	2.87676
79650	1.50268	1.43906	1.40710	2.60427	2.38829	2.21363	5.46649	3.76489	2.46995	1.86066	1.86790	1.76955	2.09781	1.87316	1.81341	5.55655	4.04317	2.87827
79820	1.50259	1.44073	1.40550	2.60308	2.38595	2.21184	5.46198	3.76054	2.46334	1.85896	1.86549	1.76770	2.09851	1.87724	1.81319	5.55865	4.04465	2.88001
79980	1.50124	1.44047	1.40604	2.60491	2.38832	2.21417	5.47069	3.76084	2.46732	1.86038	1.86769	1.76950	2.09744	1.87434	1.81160	5.55682	4.04301	2.87957
80150	1.50232	1.44394	1.40368	2.60627	2.39114	2.21630	5.46918	3.76520	2.46623	1.86266	1.87074	1.77232	2.09853	1.87455	1.81286	5.55730	4.04507	2.88046
80310	1.50069	1.43731	1.40392	2.60551	2.38753	2.21276	5.47052	3.76039	2.46198	1.85999	1.86682	1.76983	2.09608	1.87717	1.81348	5.56041	4.04771	2.88356
80480	1.50376	1.43859	1.40737	2.60712	2.39062	2.21682	5.46037	3.76136	2.46602	1.86185	1.86879	1.77197	2.09494	1.87538	1.81178	5.55815	4.04546	2.88074	32.64	5.9	0.00	-2.04	0.01738	0.01203	0.01522	0.01861	0.01916	0.01498	0.00547	0.01516	0.02012	0.01899	0.01331	0.01693	0.01710	0.01767	0.01380	0.00577	0.01628	0.02182
80640	1.50311	1.44109	1.40811	2.60913	2.39332	2.21957	5.46969	3.76472	2.46962	1.86429	1.87249	1.77448	2.09737	1.87863	1.81305	5.56454	4.04901	2.88436
80810	1.50454	1.43891	1.40540	2.60813	2.39187	2.21700	5.46367	3.76013	2.46381	1.86275	1.86929	1.77293	2.09758	1.87549	1.81312	5.56072	4.04649	2.88189
80970	1.50500	1.43996	1.40818	2.60622	2.38988	2.21558	5.46680	3.76247	2.46646	1.86248	1.87028	1.77192	2.09599	1.87838	1.80810	5.55896	4.04510	2.88117
81140	1.50232	1.43960	1.40794	2.60729	2.39112	2.21636	5.46469	3.76114	2.46553	1.86359	1.87042	1.77192	2.09810	1.87851	1.81301	5.56174	4.04816	2.88201
81300	1.50316	1.43926	1.40749	2.60779	2.39147	2.21739	5.46351	3.76354	2.46796	1.86348	1.87013	1.77279	2.09786	1.87601	1.81255	5.55988	4.04566	2.88120
81470	1.50314	1.44306	1.40663	2.60621	2.39130	2.21753	5.46298	3.76317	2.46872	1.86417	1.87116	1.77401	2.09998	1.87584	1.81340	5.56089	4.04751	2.88349
81630	1.50581	1.44237	1.40725	2.60817	2.39146	2.21682	5.47067	3.76360	2.46437	1.86367	1.87171	1.77328	2.10061	1.87882	1.81379	5.56153	4.04900	2.88411
81800	1.50545	1.44303	1.40718	2.60936	2.39242	2.21766	5.46631	3.76190	2.46787	1.86399	1.87227	1.77422	2.09694	1.87783	1.81294	5.55937	4.04654	2.88328
81960	1.50399	1.44205	1.40754	2.60831	2.39277	2.21897	5.47161	3.76298	2.46946	1.86637	1.87342	1.77591	2.10046	1.87700	1.81377	5.56163	4.04899	2.88500
82130	1.50367	1.44121	1.40639	2.60733	2.39123	2.21647	5.46980	3.75758	2.46545	1.86385	1.86999	1.77373	2.09952	1.87692	1.81428	5.56229	4.05076	2.88723	32.64	6.1	0.00	-2.04	0.01737	0.01203	0.01522	0.01861	0.01916	0.01498	0.00547	0.01516	0.02012	0.01899	0.01330	0.01693	0.01710	0.01767	0.01380	0.00577	0.01628	0.02182
82290	1.50483	1.44295	1.40859	2.61058	2.39436	2.21938	5.47501	3.76350	2.46880	1.86604	1.87313	1.77576	2.09801	1.87608	1.81077	5.56151	4.04891	2.88432
82460	1.50345	1.44440	1.41325	2.61220	2.39743	2.22264	5.47481	3.77041	2.47238	1.86969	1.87645	1.77927	2.10209	1.87837	1.81399	5.56827	4.05360	2.88757
82620	1.50591	1.44305	1.40721	2.61212	2.39498	2.21922	5.46927	3.76337	2.46830	1.86748	1.87306	1.77601	2.09815	1.87732	1.81415	5.56526	4.05120	2.88586
82780	1.50398	1.44077	1.40473	2.61100	2.39429	2.22040	5.47131	3.75913	2.46840	1.86732	1.87342	1.77698	2.09720	1.87466	1.81238	5.56141	4.04879	2.88393
82950	1.50734	1.44487	1.41070	2.61378	2.39844	2.22407	5.48243	3.76787	2.47148	1.87034	1.87712	1.78013	2.10193	1.88035	1.81598	5.56651	4.05465	2.88853
83110	1.50615	1.44273	1.40732	2.61263	2.39624	2.22201	5.46952	3.76569	2.46867	1.86776	1.87452	1.77820	2.10011	1.87776	1.81305	5.56682	4.05395	2.88902
83280	1.50531	1.44115	1.40691	2.61245	2.39627	2.22184	5.47546	3.76335	2.46658	1.86880	1.87544	1.77885	2.09874	1.87585	1.81231	5.56246	4.05060	2.88572
83440	1.50324	1.44270	1.40729	2.61291	2.39711	2.22366	5.47640	3.76531	2.46838	1.87002	1.87748	1.78064	2.09893	1.87776	1.81194	5.56580	4.05271	2.88824
83600	1.50277	1.44103	1.40767	2.61335	2.39713	2.22309	5.46919	3.76354	2.46501	1.87018	1.87735	1.78021	2.09628	1.87898	1.81050	5.56530	4.05141	2.88671
83770	1.50741	1.44533	1.40924	2.61626	2.40107	2.22715	5.47150	3.76684	2.46891	1.87325	1.88067	1.78349	2.10183	1.87880	1.81492	5.56994	4.05703	2.89186	32.64	6.2	0.00	-2.04	0.01737	0.01203	0.01522	0.01861	0.01916	0.01498	0.00547	0.01516	0.02012	0.01899	0.01330	0.01693	0.01710	0.01767	0.01380	0.00577	0.01628	0.02182
83930	1.50330	1.43995	1.40822	2.61599	2.39904	2.22495	5.46482	3.76277	2.46634	1.87062	1.87674	1.78006	2.10015	1.87608	1.81284	5.56666	4.05483	2.88966
84100	1.50421	1.43973	1.40801	2.61456	2.39858	2.22392	5.47109	3.76052	2.46428	1.87028	1.87752	1.77943	2.09556	1.87432	1.81102	5.56666	4.05256	2.88741
84260	1.49970	1.43706	1.40478	2.61268	2.39530	2.22017	5.46462	3.75840	2.46157	1.86788	1.87507	1.77794	2.09690	1.87748	1.81186	5.56659	4.05449	2.88972
84420	1.50366	1.44336	1.40649	2.61613	2.39929	2.22430	5.46462	3.76180	2.46468	1.87051	1.87865	1.78082	2.10065	1.87873	1.81599	5.57092	4.05769	2.89309
84590	1.50732	1.44520	1.40770	2.61929	2.40182	2.22652	5.47048	3.76422	2.46798	1.87308	1.88085	1.78366	2.09947	1.87685	1.81266	5.56794	4.05533	2.89122
84750	1.50584	1.44520	1.40902	2.61639	2.40248	2.22852	5.47313	3.76958	2.47307	1.87616	1.88336	1.78580	2.10268	1.88083	1.81645	5.57583	4.05902	2.89415
84920	1.50698	1.44543	1.40968	2.61857	2.40194	2.22658	5.46673	3.76667	2.46705	1.87269	1.88102	1.78353	2.09953	1.87876	1.81513	5.57173	4.05901	2.89515
85080	1.50857	1.44504	1.41157	2.62033	2.40417	2.22839	5.46588	3.76672	2.46842	1.87503	1.88302	1.78565	2.10084	1.87924	1.81475	5.57268	4.05782	2.89218
85250	1.50919	1.44409	1.40875	2.61948	2.40391	2.22907	5.47024	3.76407	2.46896	1.87501	1.88367	1.78487	2.10271	1.87774	1.81441	5.57234	4.05675	2.89240
85410	1.50726	1.44170	1.40834	2.61773	2.40119	2.22671	5.47123	3.76091	2.46659	1.87247	1.88056	1.78294	2.09725	1.87642	1.81050	5.56652	4.05346	2.89031	32.64	6.0	0.00	-2.04	0.01737	0.01203	0.01522	0.01861	0.01916	0.01498	0.00547	0.01516	0.02011	0.01898	0.01330	0.01693	0.01710	0.01767	0.01380	0.00577	0.01628	0.02182
85570	1.50661	1.44306	1.41082	2.61957	2.40409	2.23035	5.47608	3.76749	2.47017	1.87697	1.88475	1.78714	2.10216	1.88078	1.81342	5.57179	4.05965	2.89522
85740	1.50694	1.44160	1.40702	2.61905	2.40305	2.22828	5.46423	3.76482	2.46858	1.87390	1.88249	1.78467	2.10051	1.87858	1.81401	5.57044	4.05919	2.89475
85900	1.50675	1.44222	1.40900	2.61968	2.40386	2.22890	5.46904	3.76712	2.46811	1.87561	1.88312	1.78548	2.10014	1.87768	1.81632	5.57058	4.05822	2.89421
86070	1.50783	1.44376	1.41017	2.62065	2.40413	2.22949	5.46672	3.76349	2.47010	1.87654	1.88463	1.78760	2.10084	1.87991	1.81724	5.56878	4.05853	2.89564
86230	1.50788	1.44446	1.40934	2.62049	2.40475	2.23044	5.45683	3.76128	2.46912	1.87653	1.88446	1.78712	2.09987	1.87860	1.81094	5.56878	4.05774	2.89378
86400	1.50746	1.44450	1.41258	2.62357	2.40878	2.23440	5.47295	3.76970	2.47158	1.88033	1.88804	1.79011	2.10417	1.88205	1.81650	5.57514	4.06194	2.89847
86560	1.50704	1.44236	1.40970	2.62332	2.40630	2.23129	5.46655	3.76636	2.46955	1.87807	1.88583	1.78877	2.10345	1.88278	1.81904	5.57673	4.06373	2.90031
86720	1.50951	1.44458	1.41072	2.62513	2.40792	2.23333	5.46403	3.76420	2.47196	1.87980	1.88746	1.78978	2.10126	1.88068	1.81530	5.57257	4.06068	2.89663
86890	1.50753	1.44518	1.41214	2.62507	2.40997	2.23508	5.47128	3.76759	2.47145	1.88194	1.88959	1.79231	2.10496	1.88062	1.81707	5.57738	4.06367	2.89911
87050	1.50756	1.44300	1.40904	2.62388	2.40655	2.23248	5.46583	3.76364	2.46565	1.87876	1.88567	1.78848	2.09965	1.87713	1.81471	5.56875	4.05908	2.89519	32.58	6.0	0.00	-2.04	0.01737	0.01203	0.01522	0.01861	0.01916	0.01498	0.00547	0.01516	0.02011	0.01898	0.01330	0.01693	0.01710	0.01767	0.01380	0.00577	0.01628	0.02182
87210	1.50823	1.44422	1.41202	2.62558	2.41096	2.23647	5.47316	3.76688	2.47088	1.88284	1.89019	1.79322	2.10347	1.87964	1.81820	5.57714	4.06407	2.90031
87380	1.50977	1.44248	1.40884	2.62454	2.40822	2.23323	5.46473	3.76400	2.46763	1.87954	1.88693	1.79048	2.10422	1.88306	1.81857	5.57880	4.06606	2.90194
87540	1.51026	1.44424	1.41264	2.62855	2.41271	2.23816	5.48319	3.77118	2.47321	1.88457	1.89174	1.79398	2.10556	1.88197	1.81789	5.57897	4.06499	2.90185
87700	1.50795	1.44161	1.41158	2.62578	2.40971	2.23542	5.46693	3.76241	2.46705	1.88113	1.88905	1.79186	2.10242	1.88070	1.81738	5.57815	4.06361	2.90081
87870	1.50512	1.44339	1.40856	2.62649	2.41009	2.23574	5.46632	3.76382	2.46982	1.88176	1.88893	1.79275	2.09894	1.87788	1.81254	5.57369	4.06211	2.89848
88030	1.50527	1.44199	1.40781	2.62513	2.40838	2.23404	5.46543	3.76273	2.46312	1.88036	1.88795	1.79141	2.09630	1.87571	1.81285	5.57372	4.06138	2.89793
88190	1.50201	1.44261	1.40802	2.62472	2.41070	2.23696	5.47206	3.76272	2.46933	1.88381	1.89188	1.79411	2.10186	1.87876	1.81293	5.57863	4.06568	2.90177
88360	1.50299	1.44158	1.40885	2.62693	2.41057	2.23695	5.47557	3.76315	2.46427	1.88348	1.89131	1.79460	2.09842	1.87702	1.81118	5.58002	4.06444	2.90042
88520	1.50326	1.44204	1.40974	2.62699	2.41248	2.24069	5.47985	3.76695	2.47035	1.88776	1.89498	1.79760	2.10189	1.88059	1.81365	5.58513	4.06994	2.90567
88690	1.50487	1.44275	1.41018	2.62973	2.41325	2.23826	5.46766	3.76251	2.46580	1.88443	1.89167	1.79372	2.10015	1.88025	1.81635	5.58187	4.06867	2.90522	32.58	6.1	0.00	-2.04	0.01737	0.01203	0.01522	0.01861	0.01916	0.01498	0.00547	0.01516	0.02012	0.01898	0.01330	0.01693	0.01710	0.01767	0.01380	0.00577	0.01628	0.02182
88850	1.50590	1.44387	1.41216	2.63010	2.41412	2.23939	5.47080	3.76313	2.46594	1.88567	1.89318	1.79613	2.10093	1.87677	1.80906	5.57618	4.06511	2.90241
89010	1.50347	1.44022	1.41021	2.62974	2.41485	2.23976	5.46233	3.76408	2.46866	1.88662	1.89388	1.79691	2.09835	1.87732	1.81112	5.57845	4.06745	2.90478
89180	1.50077	1.44289	1.40691	2.62938	2.41407	2.23898	5.47569	3.76189	2.46493	1.88589	1.89358	1.79639	2.10124	1.87609	1.81594	5.58248	4.06917	2.90590
89340	1.50371	1.44326	1.40732	2.63111	2.41536	2.24056	5.46416	3.76660	2.46492	1.88660	1.89503	1.79750	2.10040	1.87525	1.81543	5.58228	4.06916	2.90594
89510	1.50690	1.44138	1.40977	2.63262	2.41709	2.24167	5.46579	3.76669	2.46488	1.88863	1.89672	1.79856	2.09773	1.87983	1.81515	5.58252	4.06996	2.90641
89670	1.50264	1.44123	1.40800	2.63184	2.41622	2.24040	5.46864	3.76290	2.46624	1.88731	1.89500	1.79767	2.10045	1.88042	1.81651	5.58445	4.07197	2.90839
89840	1.50391	1.44199	1.40908	2.63447	2.41726	2.24268	5.46327	3.76195	2.46745	1.88864	1.89650	1.79919	2.10076	1.88132	1.81443	5.58418	4.06956	2.90635
90000	1.50978	1.44706	1.41169	2.63481	2.41950	2.24458	5.47145	3.76791	2.47292	1.89139	1.89887	1.80141	2.10148	1.87946	1.81352	5.58614	4.07301	2.90940
90170	1.50523	1.44165	1.40895	2.63473	2.41881	2.24273	5.47096	3.76114	2.46574	1.88876	1.89762	1.79952	2.09660	1.87776	1.81420	5.59021	4.07566	2.91196
90330	1.50340	1.44241	1.40971	2.63693	2.42053	2.24426	5.45591	3.76436	2.46810	1.88997	1.89799	1.80048	2.09739	1.87647	1.81262	5.58501	4.07043	2.90799	32.58	6.0	0.00	-2.04	0.01738	0.01203	0.01523	0.01861	0.01916	0.01498	0.00547	0.01516	0.02012	0.01898	0.01330	0.01693	0.01710	0.01767	0.01380	0.00577	0.01628	0.02182
90500	1.50561	1.44517	1.41052	2.63681	2.42116	2.24541	5.47484	3.76863	2.47118	1.89151	1.89920	1.80201	2.10050	1.87939	1.81574	5.58775	4.07389	2.91044
90660	1.50416	1.44338	1.40677	2.63545	2.41907	2.24265	5.46572	3.76012	2.46676	1.88895	1.89737	1.79975	2.09896	1.87619	1.81461	5.58660	4.07280	2.90986
90820	1.50522	1.44153	1.40835	2.63613	2.41927	2.24342	5.47134	3.76181	2.46712	1.89000	1.89807	1.80089	2.10048	1.88015	1.81534	5.58697	4.07531	2.91253
90990	1.50326	1.44653	1.41033	2.63890	2.42215	2.24560	5.47195	3.76358	2.47041	1.89179	1.90050	1.80238	2.10064	1.88124	1.81549	5.58592	4.07330	2.91031
91150	1.50343	1.44144	1.40929	2.63589	2.42114	2.24566	5.46079	3.76173	2.46744	1.89237	1.90044	1.80272	2.09961	1.87754	1.80914	5.58775	4.07431	2.91057
91320	1.49961	1.43995	1.40457	2.63727	2.42098	2.24422	5.46283	3.75894	2.46391	1.89101	1.89908	1.80111	2.09749	1.87660	1.81082	5.59168	4.07661	2.91315
91480	1.49878	1.44051	1.40306	2.64074	2.42408	2.24782	5.47040	3.76076	2.46315	1.89336	1.90141	1.80429	2.09414	1.87220	1.80820	5.58928	4.07441	2.91169
91650	1.49344	1.43579	1.40394	2.64022	2.42496	2.24856	5.46287	3.75732	2.46536	1.89431	1.90290	1.80562	2.09402	1.87521	1.80822	5.59002	4.07632	2.91315
91810	1.49258	1.43456	1.40058	2.63912	2.42344	2.24613	5.45331	3.75560	2.45916	1.89290	1.90140	1.80388	2.09418	1.87724	1.80967	5.59040	4.07836	2.91448
91980	1.49834	1.43840	1.40257	2.64069	2.42386	2.24727	5.46839	3.75867	2.46183	1.89333	1.90184	1.80453	2.09367	1.87244	1.81104	5.58797	4.07384	2.91141	32.69	6.0	0.00	-2.04	0.01738	0.01203	0.01523	0.01861	0.01916	0.01498	0.00547	0.01516	0.02012	0.01898	0.01330	0.01693	0.01710	0.01768	0.01380	0.00577	0.01628	0.02181
92140	1.49687	1.43851	1.40831	2.64131	2.42608	2.25061	5.46050	3.76784	2.46887	1.89641	1.90434	1.80695	2.09947	1.87678	1.81245	5.59299	4.07932	2.91548
92310	1.49687	1.43708	1.40139	2.64172	2.42425	2.24802	5.45903	3.75493	2.45695	1.89384	1.90157	1.80600	2.09391	1.87693	1.80968	5.59509	4.08224	2.91862
92470	1.49826	1.43696	1.40131	2.64496	2.42845	2.25087	5.46294	3.75883	2.46017	1.89668	1.90527	1.80754	2.09398	1.87162	1.80697	5.59235	4.07859	2.91517
92640	1.49695	1.43758	1.40755	2.64530	2.42933	2.25357	5.47124	3.76312	2.46787	1.89856	1.90649	1.80968	2.09854	1.87770	1.81333	5.59591	4.08105	2.91703
92800	1.49981	1.43852	1.40430	2.64284	2.42587	2.25021	5.46176	3.76280	2.46192	1.89591	1.90412	1.80617	2.10135	1.87770	1.81272	5.59309	4.08272	2.91833
92960	1.50133	1.44200	1.40688	2.64496	2.42742	2.25216	5.45867	3.76053	2.46551	1.89778	1.90560	1.80820	2.09623	1.87697	1.81105	5.59374	4.07865	2.91529
93130	1.50261	1.44211	1.41059	2.64379	2.42790	2.25215	5.46229	3.76521	2.47164	1.89785	1.90633	1.80866	2.10143	1.87884	1.81459	5.59245	4.07894	2.91505
93290	1.50412	1.44175	1.40895	2.64145	2.42532	2.25012	5.46631	3.76167	2.46553	1.89645	1.90443	1.80720	2.09737	1.87648	1.81302	5.59106	4.07624	2.91362
93450	1.50361	1.44530	1.40977	2.64379	2.42928	2.25282	5.47059	3.76595	2.47035	1.89986	1.90796	1.81083	2.10321	1.87927	1.81504	5.59411	4.08048	2.91618
93620	1.50359	1.44331	1.40745	2.64274	2.42558	2.25076	5.46275	3.76071	2.46422	1.89644	1.90474	1.80745	2.10400	1.87950	1.81379	5.59469	4.08277	2.91885	32.64	6.0	0.00	-2.04	0.01738	0.01204	0.01523	0.01861	0.01916	0.01498	0.00547	0.01516	0.02012	0.01898	0.01330	0.01693	0.01710	0.01768	0.01380	0.00577	0.01628	0.02181
93780	1.50677	1.44483	1.41136	2.64673	2.43038	2.25515	5.47370	3.76528	2.47043	1.90061	1.90796	1.81167	2.10405	1.88161	1.81529	5.59534	4.08195	2.91780
93940	1.50259	1.44186	1.40787	2.64404	2.42826	2.25138	5.46246	3.76209	2.46717	1.89815	1.90521	1.80953	2.10311	1.88045	1.81540	5.59785	4.08296	2.91891
94110	1.50490	1.44038	1.40847	2.64697	2.43004	2.25349	5.46784	3.76702	2.46781	1.89984	1.90774	1.81034	2.10105	1.87883	1.81619	5.59432	4.08138	2.91680
94270	1.50340	1.44150	1.40805	2.64320	2.42627	2.25054	5.45754	3.76129	2.46453	1.89733	1.90522	1.80777	2.09961	1.88130	1.81481	5.59303	4.08251	2.91749
94430	1.50391	1.44303	1.40786	2.64512	2.42880	2.25391	5.47305	3.76245	2.46708	1.89964	1.90731	1.81067	2.09946	1.87873	1.81388	5.59531	4.08170	2.91672
94600	1.50490	1.44332	1.40886	2.64395	2.42819	2.25299	5.47109	3.76166	2.46710	1.89859	1.90594	1.80920	2.10194	1.87973	1.81566	5.59629	4.08298	2.91905
94760	1.50602	1.44242	1.41024	2.64651	2.43072	2.25488	5.46503	3.76210	2.46795	1.90108	1.90883	1.81166	2.10146	1.87796	1.81587	5.59642	4.08180	2.91793
94930	1.50192	1.43892	1.40925	2.64647	2.43123	2.25533	5.46377	3.75963	2.46870	1.90237	1.91001	1.81309	2.10006	1.88140	1.81536	5.59721	4.08351	2.92007
95090	1.50311	1.44403	1.40901	2.64646	2.43070	2.25507	5.46930	3.76184	2.46820	1.90177	1.90941	1.81288	2.10086	1.87958	1.81556	5.59958	4.08467	2.92048
95260	1.50243	1.44165	1.40569	2.64752	2.43186	2.25630	5.46637	3.75941	2.46157	1.90269	1.91060	1.81338	2.09910	1.87805	1.81207	5.59560	4.08527	2.92058	32.58	6.1	0.00	-2.04	0.01738	0.01203	0.01523	0.01861	0.01916	0.01498	0.00547	0.01516	0.02012	0.01898	0.01330	0.01693	0.01710	0.01768	0.01380	0.00577	0.01628	0.02181
95420	1.50523	1.44340	1.40725	2.64842	2.43251	2.25694	5.46430	3.76096	2.46556	1.90376	1.91147	1.81553	2.09905	1.87715	1.81328	5.60062	4.08499	2.92127
95590	1.50402	1.44038	1.40825	2.64857	2.43182	2.25685	5.47692	3.76119	2.46592	1.90332	1.91139	1.81350	2.10108	1.87864	1.81342	5.59970	4.08715	2.92330
95750	1.50411	1.44451	1.40884	2.65065	2.43415	2.25846	5.46523	3.76382	2.46749	1.90529	1.91239	1.81548	2.10218	1.87827	1.81430	5.59953	4.08539	2.92071
95920	1.50670	1.44608	1.41270	2.65211	2.43636	2.26128	5.47435	3.76731	2.47186	1.90781	1.91505	1.81737	2.10443	1.88128	1.81660	5.60408	4.08942	2.92406
96080	1.50764	1.44319	1.40994	2.65082	2.43416	2.25804	5.46454	3.76298	2.46671	1.90472	1.91233	1.81616	2.10353	1.88137	1.81603	5.60330	4.09107	2.92732
96240	1.50756	1.44583	1.41299	2.65406	2.43674	2.26198	5.46861	3.76816	2.47169	1.90781	1.91528	1.81806	2.10406	1.88168	1.81567	5.59997	4.08712	2.92343
96410	1.50445	1.44641	1.41150	2.65059	2.43522	2.25926	5.47663	3.76029	2.46763	1.90699	1.91403	1.81711	2.10405	1.88112	1.81365	5.60181	4.08684	2.92235
96570	1.50461	1.44467	1.41049	2.65024	2.43376	2.25791	5.46186	3.76329	2.46698	1.90495	1.91339	1.81553	2.10190	1.87961	1.81906	5.60119	4.08876	2.92637
96740	1.50649	1.44528	1.41200	2.65344	2.43726	2.26161	5.47203	3.76429	2.47061	1.90794	1.91662	1.81965	2.10677	1.88248	1.81705	5.60398	4.09245	2.92762
96900	1.51157	1.44705	1.41592	2.65625	2.43976	2.26403	5.47112	3.77004	2.47197	1.91067	1.91889	1.82121	2.10411	1.88289	1.81697	5.60520	4.09143	2.92669	32.58	6.2	0.00	-2.04	0.01738	0.01203	0.01523	0.01861	0.01916	0.01498	0.00547	0.01516	0.02012	0.01898	0.01330	0.01693	0.01710	0.01768	0.01380	0.00577	0.01628	0.02181
97070	1.50644	1.44658	1.41304	2.65460	2.43885	2.26368	5.47910	3.76936	2.47241	1.91000	1.91833	1.82092	2.10696	1.88147	1.81624	5.60330	4.09110	2.92702
97230	1.50740	1.44293	1.41155	2.65463	2.43759	2.26121	5.46465	3.76271	2.46906	1.90819	1.91550	1.81867	2.10235	1.87833	1.81381	5.60157	4.08727	2.92355
97390	1.50309	1.44631	1.41295	2.65197	2.43914	2.26485	5.47915	3.77093	2.47194	1.91257	1.92074	1.82313	2.10860	1.88247	1.81692	5.60860	4.09452	2.92924
97560	1.50761	1.44566	1.41115	2.65632	2.43931	2.26414	5.47075	3.76596	2.47074	1.91001	1.91877	1.82172	2.10389	1.87997	1.81498	5.60721	4.09282	2.92833
97720	1.50733	1.44354	1.41108	2.65671	2.44034	2.26386	5.46904	3.76750	2.47052	1.91111	1.91894	1.82200	2.10439	1.87959	1.81146	5.60442	4.08995	2.92699
97880	1.50574	1.44030	1.40765	2.65455	2.43765	2.26206	5.46953	3.75883	2.46615	1.90922	1.91737	1.82026	2.10112	1.88222	1.81648	5.60514	4.09408	2.93168
98050	1.50663	1.44620	1.41041	2.65846	2.44128	2.26511	5.46856	3.76403	2.46924	1.91197	1.92034	1.82340	2.10245	1.87982	1.81492	5.60914	4.09277	2.92919
98210	1.50518	1.44351	1.41205	2.65795	2.44226	2.26643	5.47193	3.76294	2.46938	1.91329	1.92168	1.82413	2.10079	1.87947	1.81361	5.60697	4.09437	2.93061
98380	1.50555	1.44485	1.41109	2.65808	2.44139	2.26562	5.47185	3.76285	2.46816	1.91303	1.92212	1.82433	2.10178	1.88012	1.81623	5.60867	4.09382	2.93113
98540	1.50683	1.44428	1.41185	2.65870	2.44291	2.26776	5.46436	3.76708	2.46818	1.91395	1.92245	1.82525	2.10197	1.88082	1.81347	5.60561	4.09327	2.93014	32.64	6.0	0.00	-2.04	0.01738	0.01203	0.01523	0.01861	0.01915	0.01498	0.00547	0.01516	0.02012	0.01898	0.01330	0.01693	0.01710	0.01767	0.01380	0.00577	0.01628	0.02181
98710	1.50588	1.44508	1.41256	2.65976	2.44396	2.26892	5.47283	3.76461	2.47313	1.91558	1.92362	1.82604	2.10460	1.88059	1.81333	5.60934	4.09648	2.93238
98870	1.50525	1.44321	1.40961	2.65904	2.44221	2.26621	5.46477	3.76385	2.46912	1.91398	1.92225	1.82521	2.10403	1.88120	1.81813	5.61189	4.09908	2.93400
99040	1.50874	1.44215	1.41287	2.66137	2.44413	2.26918	5.47307	3.76578	2.47109	1.91622	1.92378	1.82761	2.10177	1.88109	1.81553	5.61101	4.09653	2.93214
99200	1.50887	1.44689	1.41541	2.66367	2.44799	2.27297	5.47519	3.76994	2.47633	1.91938	1.92765	1.83019	2.10616	1.88283	1.81924	5.61686	4.10083	2.93679
99370	1.51033	1.44521	1.41184	2.66290	2.44566	2.27008	5.46709	3.76440	2.47111	1.91631	1.92437	1.82730	2.10276	1.88127	1.81793	5.61189	4.09712	2.93351
99530	1.50898	1.44669	1.41173	2.66143	2.44594	2.27010	5.48122	3.76255	2.47079	1.91708	1.92476	1.82843	2.10436	1.88032	1.81603	5.61196	4.09619	2.93213
99700	1.50962	1.44814	1.41703	2.66497	2.44914	2.27439	5.47100	3.77303	2.47590	1.92120	1.92960	1.83242	2.10745	1.88727	1.82005	5.61570	4.10219	2.93789
99860	1.51125	1.44640	1.41371	2.66440	2.44735	2.27173	5.46367	3.76731	2.46858	1.91841	1.92626	1.82982	2.10433	1.88057	1.81933	5.61567	4.09810	2.93454
100020	1.50789	1.44479	1.41202	2.66140	2.44519	2.27011	5.47246	3.76439	2.46770	1.91745	1.92484	1.82872	2.10504	1.88426	1.82275	5.61669	4.10318	2.93837
100190	1.51030	1.44882	1.41585	2.66653	2.44991	2.27381	5.47377	3.76786	2.47273	1.92030	1.92859	1.83069	2.10360	1.88212	1.81898	5.61278	4.10115	2.93660	32.64	6.1	0.00	-2.04	0.01738	0.01203	0.01523	0.01861	0.01915	0.01498	0.00547	0.01516	0.02012	0.01898	0.01330	0.01692	0.01710	0.01767	0.01380	0.00577	0.01628	0.02181
100350	1.50856	1.44548	1.41459	2.66390	2.44893	2.27255	5.47723	3.76738	2.47203	1.92011	1.92740	1.83027	2.10546	1.88325	1.81949	5.61343	4.10007	2.93654
100520	1.50808	1.44636	1.41401	2.66414	2.44792	2.27298	5.47336	3.76604	2.47215	1.91984	1.92733	1.83014	2.10294	1.87949	1.81717	5.61244	4.09828	2.93493
100680	1.50652	1.44791	1.41576	2.66328	2.44957	2.27640	5.47165	3.77049	2.47475	1.92420	1.93091	1.83479	2.10944	1.88606	1.81866	5.61958	4.10451	2.94048
100840	1.50856	1.44549	1.41319	2.66614	2.44944	2.27430	5.47833	3.76370	2.47020	1.92096	1.92952	1.83216	2.10867	1.88411	1.81892	5.62002	4.10454	2.94125
101010	1.50690	1.44804	1.41303	2.66734	2.45059	2.27512	5.46929	3.76638	2.47140	1.92313	1.93000	1.83219	2.10583	1.88020	1.81823	5.61635	4.10175	2.93779
101170	1.50904	1.44545	1.41307	2.66613	2.45063	2.27553	5.47291	3.76763	2.47288	1.92280	1.93117	1.83377	2.10723	1.88170	1.81850	5.61910	4.10271	2.93946
101340	1.50864	1.44434	1.41315	2.66674	2.45055	2.27515	5.46742	3.76796	2.47193	1.92236	1.93144	1.83388	2.10201	1.88154	1.81602	5.61322	4.10146	2.93826
101500	1.51044	1.44979	1.41813	2.67028	2.45522	2.27995	5.48196	3.77406	2.47511	1.92708	1.93470	1.83759	2.10863	1.88499	1.81769	5.62199	4.10903	2.94419
101670	1.51229	1.44855	1.41480	2.67066	2.45337	2.27804	5.47426	3.76791	2.47174	1.92431	1.93217	1.83553	2.10720	1.88301	1.81949	5.62227	4.10806	2.94417
101830	1.50945	1.44693	1.41479	2.67025	2.45353	2.27782	5.46337	3.76835	2.47157	1.92463	1.93266	1.83464	2.10483	1.88174	1.81680	5.61955	4.10553	2.94075	32.58	6.3	0.00	-2.04	0.01738	0.01203	0.01523	0.01860	0.01915	0.01498	0.00547	0.01516	0.02012	0.01898	0.01330	0.01692	0.01710	0.01767	0.01380	0.00577	0.01628	0.02181
101990	1.50636	1.44559	1.41116	2.66660	2.44977	2.27505	5.46557	3.76058	2.46756	1.92235	1.92998	1.83303	2.10687	1.88369	1.82110	5.62298	4.10968	2.94567
102160	1.51047	1.44721	1.41653	2.67258	2.45536	2.28037	5.46822	3.76912	2.47270	1.92678	1.93480	1.83717	2.10510	1.88161	1.82044	5.62183	4.10680	2.94302
102320	1.50838	1.44628	1.41598	2.67228	2.45686	2.28145	5.48215	3.76930	2.47222	1.92850	1.93577	1.83907	2.10632	1.88340	1.81838	5.62560	4.10898	2.94509
102480	1.50808	1.44508	1.41517	2.67073	2.45436	2.27840	5.46757	3.76664	2.47049	1.92618	1.93393	1.83665	2.10418	1.88032	1.81358	5.62088	4.10468	2.94126
102650	1.50917	1.44749	1.41659	2.67269	2.45783	2.28238	5.48093	3.77083	2.47572	1.92948	1.93762	1.84147	2.10602	1.88301	1.81965	5.62465	4.11153	2.94656
102810	1.50958	1.44659	1.41338	2.67288	2.45583	2.28034	5.47029	3.76635	2.46981	1.92765	1.93504	1.83845	2.10387	1.87929	1.81321	5.62054	4.10659	2.94368
102970	1.51030	1.44749	1.41625	2.67441	2.45824	2.28397	5.47575	3.76996	2.47439	1.93089	1.93799	1.84143	2.10832	1.88336	1.81812	5.62601	4.11179	2.94769
103140	1.50781	1.44579	1.41536	2.67403	2.45732	2.28197	5.46972	3.76634	2.47282	1.92792	1.93512	1.83895	2.10547	1.88238	1.81886	5.62482	4.11245	2.94797
103300	1.50932	1.44566	1.41494	2.67519	2.45970	2.28410	5.48060	3.76721	2.47272	1.93109	1.93847	1.84224	2.10565	1.88123	1.81818	5.62554	4.11210	2.94806
103460	1.50553	1.44481	1.41412	2.67397	2.45635	2.28158	5.46781	3.76401	2.46745	1.92746	1.93564	1.83835	2.10305	1.87868	1.81424	5.62214	4.10805	2.94425	32.64	6.3	0.00	-2.04	0.01738	0.01203	0.01523	0.01861	0.01915	0.01498	0.00547	0.01516	0.02012	0.01898	0.01330	0.01692	0.01710	0.01767	0.01380	0.00577	0.01628	0.02181
103630	1.50673	1.44486	1.41324	2.67133	2.45765	2.28381	5.47738	3.76921	2.47357	1.93150	1.93893	1.84225	2.10841	1.88467	1.81705	5.62796	4.11257	2.94805
103790	1.50628	1.44637	1.41352	2.67367	2.45779	2.28217	5.46691	3.76507	2.46913	1.92953	1.93689	1.84066	2.10529	1.88012	1.81788	5.62088	4.10738	2.94435
103950	1.50382	1.44588	1.41497	2.67100	2.45781	2.28367	5.47131	3.76902	2.47268	1.93204	1.93968	1.84242	2.10629	1.88492	1.81999	5.62568	4.11260	2.94835
104120	1.51125	1.44722	1.41387	2.67443	2.45859	2.28286	5.47709	3.76728	2.47288	1.92989	1.93738	1.84070	2.10270	1.88133	1.81493	5.62221	4.10829	2.94484
104280	1.50650	1.44911	1.41646	2.67249	2.46020	2.28648	5.48207	3.77382	2.47851	1.93470	1.94220	1.84598	2.11185	1.88729	1.82174	5.63130	4.11586	2.95162
104440	1.51228	1.45035	1.41575	2.67677	2.46025	2.28465	5.48052	3.76918	2.47408	1.93246	1.94023	1.84295	2.10998	1.88901	1.82068	5.62718	4.11666	2.95228
104610	1.51283	1.45008	1.41738	2.67833	2.46128	2.28594	5.47811	3.77116	2.47205	1.93403	1.94060	1.84411	2.10713	1.88393	1.81671	5.62568	4.11293	2.94832
104770	1.50916	1.44628	1.41405	2.67379	2.45781	2.28216	5.46716	3.76624	2.46994	1.93044	1.93842	1.84169	2.10988	1.88912	1.82219	5.63004	4.11877	2.95377
104940	1.51386	1.45176	1.41759	2.67987	2.46402	2.28879	5.48109	3.77093	2.47679	1.93562	1.94354	1.84644	2.10951	1.88568	1.82032	5.62976	4.11597	2.95080
105100	1.51177	1.44917	1.41833	2.67951	2.46507	2.28958	5.47961	3.77245	2.47681	1.93604	1.94370	1.84698	2.11060	1.88696	1.82265	5.63156	4.11594	2.95146	32.64	6.2	0.00	-2.04	0.01738	0.01203	0.01523	0.01860	0.01915	0.01498	0.00547	0.01516	0.02012	0.01898	0.01330	0.01692	0.01710	0.01767	0.01380	0.00577	0.01628	0.02181
105260	1.50933	1.44851	1.41547	2.67751	2.46094	2.28561	5.46665	3.76801	2.47318	1.93392	1.94153	1.84458	2.10941	1.88431	1.81902	5.62585	4.11606	2.95122
