WetView ver 7.1	07-20-2019	15:47:36
AC9 Absorption and Attenuation Meter
00000311		; Serial number
2	; structure version number
Reserved
0.000000	0.000000		; Depth calibration
19200			; Baud rate
0.100000			; Path length (meters)
23			; number of temperature calibration bins
				12.61517	13.44096	14.46844	15.49904	16.50682	17.50108	18.49752	19.51783	20.49177	21.49009	22.48286	23.50673	24.54012	25.54812	26.49986	27.49321	28.50960	29.48671	30.47471	31.49432	32.50437	33.48679	34.49133	; temperature bins
a650	Blue	18.61587		0.01156	0.01096	0.01010	0.00930	0.00851	0.00774	0.00661	0.00573	0.00499	0.00402	0.00285	0.00203	0.00096	0.00000	-0.00110	-0.00152	-0.00210	-0.00247	-0.00259	-0.00317	-0.00346	-0.00380	-0.00403		; offset and temperature correction info
a676	Green	18.78942		0.00964	0.00899	0.00863	0.00813	0.00730	0.00639	0.00545	0.00448	0.00385	0.00301	0.00233	0.00165	0.00046	0.00000	-0.00106	-0.00167	-0.00251	-0.00280	-0.00316	-0.00329	-0.00377	-0.00392	-0.00441		; offset and temperature correction info
a715	Brown	18.59217		0.01171	0.01109	0.01043	0.00975	0.00878	0.00789	0.00685	0.00572	0.00469	0.00356	0.00255	0.00160	0.00061	0.00000	-0.00063	-0.00113	-0.00152	-0.00183	-0.00226	-0.00293	-0.00364	-0.00404	-0.00473		; offset and temperature correction info
c510	Red	18.18396		-0.00549	-0.00480	-0.00383	-0.00272	-0.00202	-0.00118	-0.00044	-0.00038	-0.00015	-0.00021	0.00013	0.00007	-0.00007	0.00000	-0.00007	-0.00065	-0.00045	-0.00018	0.00007	0.00039	-0.00001	-0.00002	-0.00045		; offset and temperature correction info
c532	Magenta	18.26528		-0.00721	-0.00645	-0.00581	-0.00518	-0.00465	-0.00345	-0.00281	-0.00270	-0.00182	-0.00141	-0.00108	-0.00072	-0.00022	0.00000	0.00044	0.00030	0.00031	-0.00006	-0.00052	-0.00089	-0.00142	-0.00149	-0.00154		; offset and temperature correction info
c555	Black	18.37125		-0.00430	-0.00419	-0.00381	-0.00319	-0.00286	-0.00254	-0.00205	-0.00196	-0.00138	-0.00137	-0.00067	-0.00051	-0.00030	0.00000	0.00067	0.00087	0.00057	0.00027	-0.00015	-0.00089	-0.00127	-0.00137	-0.00150		; offset and temperature correction info
a412	LtBlue	15.33566		-0.06011	-0.05567	-0.05012	-0.04441	-0.03922	-0.03412	-0.02941	-0.02503	-0.02049	-0.01588	-0.01121	-0.00784	-0.00311	0.00000	0.00273	0.00611	0.00757	0.00871	0.01066	0.01299	0.01539	0.01781	0.02175		; offset and temperature correction info
a440	LtGreen	16.05925		-0.01380	-0.01214	-0.01039	-0.00858	-0.00690	-0.00532	-0.00426	-0.00322	-0.00230	-0.00158	-0.00055	0.00006	0.00001	0.00000	0.00017	0.00016	-0.00094	-0.00222	-0.00363	-0.00486	-0.00567	-0.00651	-0.00782		; offset and temperature correction info
a488	Yellow	16.82827		0.00255	0.00293	0.00331	0.00354	0.00373	0.00378	0.00363	0.00350	0.00291	0.00225	0.00215	0.00142	0.00099	0.00000	-0.00092	-0.00169	-0.00295	-0.00396	-0.00479	-0.00542	-0.00582	-0.00604	-0.00663		; offset and temperature correction info
c650	Blue	18.49287		-0.00570	-0.00516	-0.00456	-0.00403	-0.00346	-0.00232	-0.00132	-0.00122	-0.00073	-0.00066	-0.00035	-0.00016	0.00003	0.00000	0.00044	0.00078	0.00108	0.00057	0.00040	-0.00042	-0.00033	-0.00029	-0.00034		; offset and temperature correction info
c676	Green	18.50570		0.00299	0.00293	0.00287	0.00293	0.00278	0.00294	0.00317	0.00251	0.00243	0.00215	0.00139	0.00123	0.00068	0.00000	-0.00041	-0.00106	-0.00205	-0.00268	-0.00325	-0.00413	-0.00495	-0.00610	-0.00674		; offset and temperature correction info
c715	Brown	17.88888		0.00826	0.00812	0.00773	0.00790	0.00766	0.00758	0.00753	0.00650	0.00571	0.00461	0.00359	0.00222	0.00101	0.00000	-0.00146	-0.00284	-0.00385	-0.00448	-0.00463	-0.00513	-0.00623	-0.00715	-0.00838		; offset and temperature correction info
a510	Red	17.18050		0.00353	0.00364	0.00354	0.00361	0.00381	0.00381	0.00356	0.00332	0.00277	0.00229	0.00176	0.00116	0.00036	0.00000	-0.00014	-0.00069	-0.00088	-0.00147	-0.00150	-0.00129	-0.00120	-0.00134	-0.00091		; offset and temperature correction info
a532	Magenta	17.40228		0.00550	0.00548	0.00526	0.00479	0.00464	0.00422	0.00393	0.00328	0.00253	0.00212	0.00136	0.00085	0.00039	0.00000	-0.00059	-0.00146	-0.00188	-0.00262	-0.00330	-0.00393	-0.00491	-0.00540	-0.00605		; offset and temperature correction info
a555	Black	17.72308		0.00849	0.00832	0.00800	0.00760	0.00724	0.00655	0.00580	0.00495	0.00435	0.00347	0.00252	0.00153	0.00049	0.00000	-0.00050	-0.00155	-0.00214	-0.00306	-0.00350	-0.00411	-0.00470	-0.00539	-0.00570		; offset and temperature correction info
c412	LtBlue	16.72802		-0.05949	-0.05458	-0.04744	-0.04134	-0.03547	-0.03064	-0.02511	-0.02047	-0.01574	-0.01163	-0.00761	-0.00442	-0.00204	0.00000	0.00100	0.00051	-0.00043	-0.00239	-0.00475	-0.00629	-0.00827	-0.00955	-0.01337		; offset and temperature correction info
c440	LtGreen	17.42637		-0.02723	-0.02503	-0.02216	-0.01930	-0.01691	-0.01394	-0.01125	-0.00926	-0.00732	-0.00582	-0.00401	-0.00226	-0.00093	0.00000	0.00082	0.00123	0.00133	0.00097	0.00038	-0.00003	-0.00022	-0.00023	-0.00125		; offset and temperature correction info
c488	Yellow	18.03666		-0.00640	-0.00554	-0.00465	-0.00357	-0.00276	-0.00154	-0.00067	-0.00031	-0.00014	-0.00012	0.00046	0.00032	0.00020	0.00000	0.00001	-0.00024	-0.00060	-0.00084	-0.00126	-0.00180	-0.00276	-0.00304	-0.00427		; offset and temperature correction info
0.003500	0.004000	0.015000	0.020000	0.015000	0.020000	2500.000000	2000.000000	1000.000000	; maxANoise	maxCNoise	maxADifference	maxCDifference	minACounts	minCCounts	minRCounts	maxTempSdev	maxDepthSdev
0			; auxilliary capabilities
1			; acquisition binsize
0	3.17520	2.93243	2.50083	13.94125	12.53117	11.38091	24.65826	15.96821	9.45067	9.06848	8.79645	8.30636	7.69116	6.32181	5.28510	31.37688	22.52856	15.75936	32.97	6.2	0.00	-2.04	0.01729	0.01196	0.01513	0.01823	0.01889	0.01477	0.00543	0.01506	0.01999	0.01861	0.01289	0.01643	0.01699	0.01758	0.01373	0.00570	0.01605	0.02144
170	3.17544	2.93233	2.49906	13.93796	12.52524	11.37493	24.56921	15.97597	9.44537	9.06617	8.79276	8.30214	7.69196	6.32194	5.28275	31.42989	22.52949	15.76015
330	3.17707	2.93591	2.50240	13.93712	12.52638	11.37543	24.62450	15.97731	9.45103	9.06541	8.79323	8.30294	7.68933	6.32200	5.28062	31.36694	22.52597	15.75522
500	3.17535	2.93183	2.50044	13.93452	12.52290	11.37391	24.61558	15.97962	9.44899	9.06389	8.78858	8.29929	7.69438	6.32376	5.28453	31.38049	22.52158	15.75349
660	3.17646	2.93468	2.50361	13.93148	12.52077	11.37191	24.59973	15.98111	9.45294	9.06128	8.78715	8.29824	7.69154	6.32310	5.27988	31.37823	22.51713	15.75230
830	3.17617	2.93395	2.50253	13.92780	12.51970	11.37048	24.57530	15.99089	9.45172	9.06231	8.78727	8.29861	7.69526	6.32299	5.28606	31.40403	22.52028	15.75020
990	3.17572	2.93156	2.50190	13.92603	12.51577	11.36576	24.61280	15.97334	9.44866	9.05724	8.78159	8.29418	7.69204	6.32735	5.28550	31.39588	22.51923	15.74836
1160	3.17993	2.93441	2.50289	13.92624	12.51748	11.36551	24.63760	15.98111	9.45056	9.05678	8.78197	8.29364	7.69218	6.32294	5.28347	31.38456	22.51052	15.74377
1320	3.17711	2.93485	2.50189	13.92026	12.51359	11.36239	24.61670	15.97880	9.45506	9.05405	8.77883	8.29053	7.69203	6.32175	5.28650	31.37643	22.50966	15.74290
1480	3.17661	2.93109	2.49916	13.91762	12.50828	11.35699	24.56117	15.97821	9.44564	9.04781	8.77303	8.28614	7.68862	6.32556	5.28606	31.39090	22.50398	15.73751
1650	3.17324	2.93122	2.49774	13.91747	12.50772	11.35700	24.58053	15.97827	9.44567	9.04799	8.77457	8.28632	7.68726	6.32068	5.28278	31.40853	22.50898	15.73821	33.02	6.2	0.00	-2.04	0.01728	0.01196	0.01513	0.01823	0.01889	0.01477	0.00542	0.01505	0.01999	0.01862	0.01289	0.01643	0.01699	0.01758	0.01373	0.00570	0.01605	0.02144
1810	3.17273	2.93016	2.49968	13.91412	12.50426	11.35464	24.56528	15.97179	9.44838	9.04580	8.76791	8.28255	7.69036	6.32530	5.28725	31.36827	22.50176	15.73878
1980	3.17561	2.93516	2.49933	13.91604	12.50446	11.35612	24.63478	15.97748	9.45023	9.04634	8.77166	8.28335	7.68984	6.32121	5.28386	31.35474	22.49942	15.73333
2140	3.17734	2.93510	2.50301	13.91277	12.50518	11.35612	24.60470	15.98836	9.45445	9.04728	8.77265	8.28450	7.69481	6.32411	5.28388	31.37730	22.50633	15.73410
2310	3.17668	2.93553	2.50171	13.90953	12.49958	11.35122	24.61694	15.98074	9.44771	9.04125	8.76695	8.27836	7.69101	6.32467	5.28306	31.36511	22.49560	15.72799
2470	3.17581	2.93149	2.50260	13.90520	12.49625	11.34582	24.58191	15.98023	9.45505	9.03952	8.76517	8.27617	7.69098	6.32276	5.28221	31.38499	22.49282	15.72424
2640	3.17494	2.93430	2.50417	13.90653	12.49775	11.34858	24.62530	15.98651	9.45268	9.04038	8.76433	8.27654	7.69227	6.32568	5.28655	31.40264	22.49597	15.72832
2800	3.17767	2.93453	2.50240	13.90267	12.49331	11.34378	24.60470	15.98141	9.45485	9.03527	8.75973	8.27187	7.69258	6.32726	5.28704	31.38408	22.49381	15.72543
2960	3.17840	2.93501	2.50043	13.90258	12.49170	11.34374	24.59330	15.98357	9.45197	9.03594	8.75915	8.27137	7.69008	6.32210	5.28395	31.35068	22.48833	15.72106
3130	3.17695	2.93449	2.50272	13.89913	12.49244	11.34348	24.60637	15.98875	9.45435	9.03542	8.76006	8.27211	7.69276	6.32503	5.28363	31.38318	22.48974	15.72012
3290	3.17753	2.93076	2.49894	13.89607	12.49015	11.33857	24.57691	15.97455	9.44916	9.03126	8.75411	8.26756	7.68962	6.32028	5.28441	31.35987	22.48371	15.71750	32.97	6.1	0.00	-2.04	0.01728	0.01196	0.01513	0.01823	0.01889	0.01477	0.00542	0.01505	0.01998	0.01862	0.01290	0.01643	0.01699	0.01757	0.01373	0.00570	0.01606	0.02145
3460	3.17679	2.93108	2.49960	13.89347	12.48657	11.33558	24.64651	15.97404	9.44814	9.03090	8.75366	8.26533	7.68752	6.31812	5.28117	31.35311	22.48525	15.71596
3620	3.17682	2.93190	2.50146	13.89247	12.48590	11.33336	24.66021	15.98598	9.44953	9.02871	8.75101	8.26438	7.68713	6.31909	5.28229	31.34816	22.48033	15.71246
3780	3.17821	2.93216	2.50153	13.89268	12.48381	11.32895	24.65713	15.97686	9.44705	9.02654	8.74652	8.26153	7.69062	6.32577	5.28655	31.36078	22.48384	15.71506
3950	3.18104	2.93739	2.50539	13.89505	12.49011	11.33306	24.65741	15.98020	9.45263	9.03000	8.75138	8.26490	7.68956	6.32178	5.28348	31.37296	22.48611	15.71371
4110	3.17744	2.93271	2.50282	13.89387	12.49084	11.33360	24.57830	15.98173	9.45562	9.02866	8.75286	8.26482	7.69161	6.32233	5.28292	31.36709	22.48334	15.71253
4280	3.17874	2.93494	2.50109	13.89407	12.48752	11.32913	24.57746	15.97451	9.44683	9.02625	8.75066	8.26056	7.68643	6.32392	5.28250	31.35717	22.48273	15.71433
4440	3.17908	2.93636	2.50350	13.89637	12.49101	11.33286	24.65378	15.97997	9.44983	9.02838	8.75305	8.26439	7.68622	6.32190	5.28183	31.36619	22.48550	15.71142
4610	3.17841	2.93460	2.50454	13.89756	12.49247	11.33390	24.64986	15.98366	9.45045	9.02881	8.75397	8.26511	7.69125	6.32366	5.28431	31.38064	22.47873	15.71424
4770	3.18072	2.93347	2.50234	13.89845	12.49236	11.33246	24.64428	15.97694	9.44709	9.02776	8.75119	8.26346	7.68854	6.32319	5.28446	31.35176	22.48033	15.71374
4940	3.17713	2.93164	2.50114	13.89978	12.49434	11.33602	24.61474	15.97097	9.44834	9.02910	8.75567	8.26611	7.68926	6.32081	5.28361	31.35519	22.47936	15.71548	32.97	6.1	0.00	-2.04	0.01728	0.01196	0.01513	0.01823	0.01889	0.01477	0.00542	0.01505	0.01998	0.01862	0.01290	0.01643	0.01698	0.01757	0.01373	0.00570	0.01606	0.02145
5100	3.17872	2.93625	2.50350	13.90200	12.49633	11.33642	24.59303	15.98204	9.44826	9.03024	8.75563	8.26750	7.68950	6.32043	5.28227	31.36151	22.48915	15.71647
5270	3.17614	2.93424	2.50333	13.90132	12.49512	11.33628	24.62198	15.97619	9.44579	9.03014	8.75525	8.26617	7.68943	6.32229	5.28162	31.37460	22.48662	15.72085
5430	3.17769	2.93545	2.50436	13.90739	12.49983	11.33896	24.61446	15.97391	9.45273	9.03236	8.75959	8.26934	7.68740	6.32234	5.28308	31.35925	22.48404	15.71913
5600	3.17948	2.93546	2.50544	13.91182	12.50428	11.34257	24.60137	15.98467	9.45028	9.03733	8.76340	8.27351	7.69314	6.32419	5.28617	31.34483	22.49143	15.72590
5760	3.17652	2.93458	2.50120	13.91097	12.50377	11.34249	24.61167	15.97285	9.44745	9.03577	8.76107	8.27264	7.68683	6.31940	5.28034	31.35429	22.48958	15.72385
5930	3.17294	2.93119	2.49839	13.90993	12.50202	11.34179	24.57082	15.97167	9.44454	9.03469	8.76133	8.27163	7.68553	6.31911	5.28100	31.35159	22.49315	15.72963
6090	3.17560	2.92997	2.50026	13.91381	12.50436	11.34735	24.64822	15.97265	9.44612	9.04036	8.76541	8.27692	7.68379	6.31794	5.27972	31.36151	22.49586	15.72925
6260	3.17470	2.93035	2.50051	13.91483	12.50616	11.34997	24.63174	15.97540	9.44727	9.04163	8.76693	8.27813	7.68973	6.31902	5.28001	31.36331	22.49740	15.73364
6420	3.17182	2.92859	2.49681	13.91338	12.50375	11.34869	24.58942	15.96351	9.44273	9.03915	8.76532	8.27503	7.68421	6.32143	5.28017	31.38544	22.50375	15.73682
6590	3.17172	2.92905	2.49860	13.91689	12.50663	11.35225	24.63026	15.97496	9.44194	9.04411	8.76773	8.27768	7.68590	6.31712	5.27895	31.37522	22.50707	15.73903	32.97	6.1	0.00	-2.04	0.01728	0.01195	0.01513	0.01823	0.01889	0.01477	0.00542	0.01504	0.01998	0.01862	0.01290	0.01643	0.01698	0.01757	0.01372	0.00570	0.01606	0.02145
6750	3.17383	2.92797	2.49694	13.91486	12.50720	11.35389	24.58155	15.96346	9.44321	9.04471	8.76991	8.27881	7.68439	6.31674	5.28226	31.38516	22.51473	15.74226
6920	3.17183	2.93003	2.49792	13.91789	12.50912	11.35653	24.55105	15.97005	9.43896	9.04552	8.77059	8.28128	7.67806	6.31289	5.27306	31.38335	22.50905	15.73808
7080	3.16845	2.92735	2.49474	13.91230	12.50497	11.35223	24.56047	15.96801	9.43441	9.04379	8.76789	8.27996	7.67901	6.30698	5.27197	31.35852	22.50584	15.73698
7250	3.16935	2.92962	2.49657	13.91467	12.50647	11.35377	24.60629	15.96652	9.44188	9.04574	8.76902	8.28122	7.67713	6.31392	5.27550	31.37477	22.50664	15.73934
7410	3.16485	2.92490	2.49412	13.91333	12.50477	11.35249	24.53446	15.96322	9.43431	9.04502	8.76716	8.27958	7.67827	6.31178	5.27678	31.38968	22.50775	15.74102
7580	3.16958	2.92647	2.49515	13.91608	12.50676	11.35365	24.56213	15.95448	9.43774	9.04704	8.76953	8.28248	7.67456	6.30921	5.27262	31.38380	22.50923	15.73742
7740	3.16617	2.92537	2.49301	13.91454	12.50456	11.35515	24.61242	15.95515	9.43518	9.04537	8.76949	8.28094	7.67393	6.30804	5.27322	31.36258	22.50091	15.73435
7910	3.16796	2.92463	2.49432	13.91469	12.50541	11.35305	24.65261	15.96036	9.43438	9.04586	8.77005	8.28187	7.67525	6.30856	5.27366	31.39964	22.50757	15.73700
8070	3.16405	2.92429	2.49173	13.91284	12.50438	11.35133	24.56158	15.95942	9.43340	9.04394	8.76791	8.27936	7.67763	6.31016	5.27318	31.41913	22.51238	15.74192
8240	3.16865	2.92455	2.49180	13.91705	12.50717	11.35278	24.56373	15.96044	9.43296	9.04551	8.76890	8.28113	7.67565	6.30832	5.26942	31.37905	22.51080	15.73721	33.02	6.1	0.00	-2.04	0.01728	0.01195	0.01512	0.01823	0.01889	0.01477	0.00542	0.01504	0.01998	0.01862	0.01290	0.01643	0.01698	0.01757	0.01372	0.00570	0.01606	0.02145
8400	3.16329	2.92209	2.49221	13.91485	12.50706	11.35368	24.59733	15.96357	9.43328	9.04471	8.77076	8.28207	7.67372	6.30643	5.26837	31.38402	22.50833	15.73708
8570	3.16585	2.92409	2.49352	13.92104	12.51205	11.35578	24.58815	15.95832	9.43743	9.04818	8.77354	8.28368	7.67201	6.31048	5.26745	31.38130	22.51253	15.74229
8730	3.16602	2.91981	2.49101	13.92036	12.51102	11.35488	24.66150	15.96150	9.43116	9.04713	8.77230	8.28186	7.66980	6.30595	5.26839	31.38673	22.50716	15.74010
8900	3.16381	2.92149	2.49157	13.92038	12.51262	11.35708	24.58648	15.95295	9.42666	9.04834	8.77410	8.28418	7.67147	6.30595	5.26936	31.40347	22.51444	15.74313
9070	3.16364	2.92280	2.49216	13.92110	12.51182	11.35434	24.63467	15.96746	9.43026	9.04723	8.77225	8.28306	7.67331	6.30682	5.27034	31.38356	22.51377	15.74479
9230	3.16666	2.92307	2.49331	13.92424	12.51718	11.35946	24.58787	15.95072	9.43076	9.05026	8.77668	8.28658	7.67443	6.30728	5.26931	31.39125	22.51210	15.74326
9400	3.16717	2.92352	2.49330	13.92435	12.51666	11.35932	24.57954	15.95401	9.43279	9.05020	8.77649	8.28754	7.66899	6.30411	5.26671	31.37137	22.51401	15.73999
9560	3.16453	2.92288	2.49231	13.92181	12.51625	11.36126	24.62490	15.96154	9.43456	9.05089	8.77685	8.28797	7.67009	6.30345	5.26774	31.36821	22.50852	15.74225
9730	3.16404	2.92215	2.48846	13.91987	12.51468	11.35632	24.63606	15.95393	9.43212	9.04848	8.77506	8.28619	7.67006	6.30780	5.26879	31.34252	22.51488	15.74903
9890	3.16541	2.92168	2.49260	13.93022	12.51963	11.36462	24.49166	15.95623	9.43242	9.05323	8.78013	8.29235	7.67188	6.30465	5.26603	31.36307	22.51849	15.74706	32.97	6.1	0.00	-2.04	0.01728	0.01195	0.01512	0.01823	0.01889	0.01477	0.00542	0.01504	0.01997	0.01862	0.01290	0.01643	0.01698	0.01757	0.01372	0.00570	0.01606	0.02145
10060	3.16361	2.91944	2.48984	13.92812	12.51892	11.36384	24.62521	15.95478	9.43090	9.05357	8.77971	8.29069	7.67089	6.30396	5.26432	31.38339	22.51189	15.74656
10220	3.16275	2.92349	2.49201	13.92988	12.52212	11.36808	24.61601	15.95431	9.43147	9.05658	8.78271	8.29468	7.67113	6.30469	5.26838	31.40647	22.51893	15.75080
10390	3.16207	2.91925	2.49054	13.92956	12.52029	11.36604	24.58429	15.95152	9.42895	9.05510	8.78091	8.29113	7.67012	6.30473	5.26829	31.41281	22.52715	15.75763
10550	3.16394	2.91997	2.49123	13.93385	12.52514	11.36997	24.57874	15.95842	9.42762	9.05840	8.78518	8.29446	7.67107	6.30384	5.26507	31.37029	22.51726	15.75281
10720	3.16157	2.91725	2.49085	13.92930	12.52238	11.36967	24.56875	15.95482	9.43046	9.05823	8.78261	8.29416	7.66736	6.30237	5.26456	31.37887	22.52616	15.75049
10880	3.16352	2.92122	2.49069	13.93097	12.52348	11.37143	24.59013	15.94815	9.43154	9.05868	8.78413	8.29549	7.66800	6.30357	5.26289	31.38339	22.52344	15.75471
11050	3.16280	2.91938	2.48831	13.93154	12.52396	11.36844	24.57513	15.94420	9.42976	9.05732	8.78359	8.29238	7.66822	6.30500	5.26346	31.41100	22.52443	15.75378
11210	3.16261	2.92076	2.49217	13.93210	12.52345	11.36941	24.61908	15.94968	9.42945	9.05911	8.78518	8.29510	7.66778	6.30187	5.26283	31.38972	22.52158	15.75135
11380	3.16451	2.92350	2.49399	13.93312	12.52665	11.37207	24.56348	15.95642	9.43403	9.06058	8.78738	8.29757	7.67096	6.30674	5.26729	31.39243	22.52455	15.75770
11540	3.16272	2.92177	2.49369	13.93504	12.52648	11.37083	24.65307	15.95901	9.42885	9.05945	8.78606	8.29742	7.67137	6.30265	5.26550	31.39839	22.52039	15.75274	33.02	6.2	0.00	-2.04	0.01728	0.01195	0.01512	0.01823	0.01889	0.01477	0.00542	0.01504	0.01997	0.01862	0.01290	0.01643	0.01698	0.01757	0.01372	0.00570	0.01606	0.02145
11710	3.16006	2.91777	2.49003	13.93218	12.52568	11.36979	24.59283	15.95215	9.42592	9.06022	8.78597	8.29803	7.66825	6.30379	5.26714	31.40382	22.52551	15.75633
11870	3.16249	2.91946	2.48951	13.93620	12.52735	11.37039	24.60813	15.94604	9.42569	9.05952	8.78627	8.29610	7.67015	6.30253	5.26304	31.39024	22.52471	15.75409
12040	3.16346	2.91391	2.48898	13.93756	12.52813	11.37081	24.54346	15.94690	9.42879	9.06130	8.78559	8.29660	7.66859	6.30186	5.26479	31.38165	22.52354	15.75628
12200	3.16053	2.91992	2.48961	13.93673	12.53116	11.37506	24.58616	15.94922	9.42798	9.06328	8.79011	8.30169	7.66811	6.30306	5.26664	31.38843	22.53479	15.75876
12370	3.16114	2.91717	2.48867	13.93782	12.53068	11.37290	24.60090	15.94687	9.42172	9.06068	8.78735	8.29831	7.66953	6.30227	5.26810	31.39115	22.53058	15.76274
12530	3.16346	2.92199	2.49253	13.94158	12.53094	11.37522	24.52301	15.94694	9.42854	9.06303	8.79006	8.30077	7.66732	6.30137	5.26626	31.40110	22.52786	15.75852
12700	3.16712	2.92160	2.49439	13.94291	12.53516	11.37811	24.59533	15.94459	9.43082	9.06770	8.79312	8.30326	7.66956	6.30480	5.26955	31.39115	22.53287	15.76376
12860	3.16380	2.92102	2.49090	13.94199	12.53258	11.37775	24.55564	15.95208	9.42757	9.06310	8.78948	8.30045	7.66665	6.30462	5.26439	31.37713	22.53065	15.76157
13020	3.16061	2.91854	2.48796	13.93750	12.52799	11.37378	24.53876	15.95016	9.42586	9.06294	8.78927	8.30002	7.67097	6.30101	5.26570	31.41560	22.53089	15.76082
13190	3.16150	2.92059	2.49014	13.93778	12.52769	11.37364	24.53721	15.94776	9.42785	9.06273	8.78843	8.29972	7.66309	6.30051	5.26429	31.39205	22.53177	15.76032	33.02	6.1	0.00	-2.04	0.01728	0.01195	0.01512	0.01823	0.01889	0.01477	0.00542	0.01504	0.01997	0.01862	0.01290	0.01643	0.01698	0.01757	0.01372	0.00570	0.01606	0.02145
13350	3.16082	2.92054	2.49016	13.93872	12.52878	11.37638	24.59489	15.95434	9.42600	9.06436	8.78876	8.30097	7.66705	6.30504	5.26756	31.42422	22.53301	15.76214
13520	3.16042	2.91566	2.49020	13.93709	12.52780	11.37470	24.54662	15.95156	9.42789	9.06253	8.78768	8.30004	7.66936	6.30432	5.26391	31.38662	22.53208	15.76302
13690	3.16253	2.91815	2.49112	13.93846	12.52856	11.37504	24.58878	15.95195	9.42745	9.06533	8.78922	8.30116	7.66774	6.30270	5.26566	31.41515	22.52985	15.76088
13850	3.16190	2.91943	2.49172	13.93912	12.52720	11.37602	24.57628	15.94506	9.42659	9.06442	8.78927	8.30054	7.66717	6.29977	5.26531	31.41969	22.53350	15.76254
14020	3.16098	2.91642	2.49156	13.93707	12.52777	11.37692	24.51843	15.94792	9.42796	9.06494	8.78943	8.30186	7.66502	6.29864	5.26129	31.41062	22.53752	15.76145
14180	3.15802	2.91566	2.48779	13.93365	12.52537	11.37388	24.56213	15.93919	9.42082	9.06273	8.78796	8.30011	7.66727	6.30175	5.26460	31.38662	22.53592	15.76203
14350	3.16315	2.91924	2.48906	13.93756	12.52949	11.37781	24.58433	15.95493	9.42814	9.06556	8.78827	8.30182	7.66479	6.30227	5.26540	31.36585	22.53128	15.76207
14510	3.16206	2.92059	2.48920	13.93966	12.52899	11.37676	24.56158	15.95160	9.42510	9.06600	8.79044	8.30141	7.67070	6.30418	5.26762	31.39929	22.53530	15.76329
14680	3.16229	2.92067	2.49086	13.94101	12.52993	11.37861	24.58572	15.95991	9.42955	9.06742	8.79065	8.30358	7.66941	6.30410	5.26314	31.41515	22.53369	15.76294
14840	3.16238	2.91850	2.48969	13.93843	12.52774	11.37457	24.57692	15.93961	9.42716	9.06572	8.79003	8.30251	7.66583	6.30183	5.26339	31.39664	22.53121	15.76075	32.97	6.0	0.00	-2.04	0.01728	0.01195	0.01512	0.01823	0.01889	0.01477	0.00542	0.01504	0.01997	0.01862	0.01290	0.01643	0.01698	0.01757	0.01372	0.00570	0.01606	0.02145
15010	3.16036	2.91938	2.49172	13.94001	12.53270	11.37862	24.56526	15.96210	9.42694	9.07016	8.79377	8.30636	7.66610	6.30064	5.26604	31.39710	22.53511	15.76258
15170	3.16004	2.91555	2.48967	13.93982	12.53110	11.37686	24.55030	15.94227	9.41825	9.06785	8.79218	8.30498	7.66627	6.30245	5.26615	31.38986	22.53858	15.76947
15340	3.16444	2.91904	2.49146	13.94600	12.53674	11.38159	24.54975	15.94893	9.42549	9.07247	8.79701	8.30828	7.66614	6.29714	5.26183	31.43564	22.53790	15.76821
15500	3.15623	2.91609	2.48969	13.94542	12.53754	11.38297	24.52652	15.94603	9.42450	9.07260	8.79801	8.30847	7.66382	6.29719	5.26222	31.41250	22.53938	15.76792
15670	3.16075	2.91818	2.49007	13.94946	12.54321	11.38775	24.59442	15.93726	9.42391	9.07780	8.80251	8.31437	7.66786	6.30071	5.26308	31.43292	22.54217	15.77177
15830	3.16160	2.91750	2.48883	13.95306	12.54389	11.38857	24.59359	15.93926	9.42177	9.07807	8.80296	8.31299	7.66644	6.30180	5.26765	31.41295	22.54675	15.77545
16000	3.16287	2.91821	2.48917	13.95612	12.54879	11.39160	24.64544	15.94172	9.42578	9.08202	8.80671	8.31791	7.66355	6.30089	5.26208	31.40842	22.54817	15.77707
16160	3.16004	2.91851	2.48883	13.95985	12.55009	11.39337	24.51299	15.95018	9.42576	9.08423	8.80954	8.32112	7.66569	6.29857	5.25975	31.40479	22.54669	15.77640
16330	3.16295	2.92248	2.49329	13.96574	12.55712	11.40076	24.59581	15.95124	9.42847	9.09068	8.81666	8.32732	7.66589	6.30370	5.26760	31.44201	22.55604	15.78454
16500	3.16201	2.91917	2.48890	13.96773	12.55863	11.40173	24.52403	15.94250	9.42408	9.09058	8.81676	8.32712	7.66310	6.29831	5.26359	31.40100	22.55407	15.78471	32.97	6.1	0.00	-2.04	0.01727	0.01195	0.01512	0.01823	0.01889	0.01477	0.00542	0.01504	0.01997	0.01862	0.01290	0.01643	0.01698	0.01757	0.01372	0.00570	0.01606	0.02145
16660	3.16316	2.91789	2.49128	13.96903	12.56109	11.40348	24.56749	15.95135	9.42028	9.09282	8.81889	8.32850	7.66602	6.30327	5.26512	31.41232	22.55754	15.78884
16830	3.16085	2.91957	2.49024	13.97320	12.56593	11.40716	24.60584	15.94305	9.42701	9.09720	8.82162	8.33195	7.66820	6.30497	5.26687	31.42956	22.56660	15.79727
16990	3.16662	2.92216	2.49336	13.98124	12.57078	11.41339	24.62562	15.95900	9.43076	9.10201	8.82541	8.33613	7.66743	6.30612	5.26742	31.43728	22.56648	15.79468
17160	3.16269	2.91633	2.49009	13.97787	12.56826	11.40935	24.56582	15.95649	9.42747	9.10001	8.82355	8.33434	7.66607	6.30224	5.26498	31.40371	22.56486	15.79377
17320	3.16097	2.91978	2.49125	13.97830	12.56914	11.41251	24.55196	15.95551	9.43187	9.10344	8.82895	8.33783	7.66758	6.30222	5.26723	31.41187	22.56672	15.79723
17490	3.16136	2.91588	2.49025	13.97888	12.56914	11.41307	24.57442	15.94967	9.42145	9.10308	8.82595	8.33676	7.66848	6.30400	5.26868	31.44228	22.57672	15.80149
17650	3.16297	2.91871	2.48984	13.98273	12.57339	11.41623	24.58220	15.95296	9.42824	9.10869	8.82874	8.34216	7.66630	6.30351	5.26650	31.45548	22.57125	15.80298
17820	3.15990	2.91898	2.49133	13.98116	12.57467	11.41772	24.60472	15.95210	9.42760	9.10824	8.83015	8.34190	7.66725	6.29908	5.26143	31.42366	22.56952	15.80138
17980	3.16059	2.91848	2.49201	13.98234	12.57408	11.41806	24.56749	15.95562	9.42794	9.10841	8.82850	8.34217	7.66853	6.30250	5.26585	31.44547	22.57281	15.80118
18150	3.15983	2.91316	2.48739	13.98201	12.57049	11.41615	24.58568	15.94489	9.42460	9.10678	8.82771	8.33884	7.66735	6.30559	5.26590	31.42105	22.57760	15.80832	33.02	6.1	0.00	-2.04	0.01727	0.01195	0.01512	0.01823	0.01889	0.01477	0.00542	0.01504	0.01997	0.01862	0.01290	0.01643	0.01698	0.01757	0.01372	0.00570	0.01606	0.02145
18310	3.16239	2.91964	2.49090	13.98963	12.57729	11.42189	24.57540	15.95520	9.42732	9.11170	8.83201	8.34389	7.66686	6.30172	5.26417	31.44012	22.57928	15.80848
18480	3.15885	2.91658	2.49083	13.98783	12.57858	11.42250	24.56458	15.94207	9.42336	9.11055	8.83327	8.34428	7.66361	6.30043	5.26091	31.46925	22.58742	15.80859
18640	3.15980	2.91775	2.49107	13.99178	12.58256	11.42816	24.57735	15.95245	9.42896	9.11559	8.84039	8.35026	7.66530	6.30169	5.26288	31.46151	22.58966	15.81579
18810	3.15982	2.91659	2.48931	13.99359	12.58426	11.42713	24.58679	15.94078	9.42327	9.11550	8.83879	8.35042	7.66242	6.29742	5.26455	31.47427	22.59159	15.82105
18970	3.16330	2.91942	2.48945	14.00086	12.58773	11.43338	24.52721	15.95555	9.42469	9.11961	8.84339	8.35541	7.66612	6.30118	5.26337	31.48385	22.59476	15.81802
19140	3.15929	2.91620	2.48917	13.99830	12.58610	11.42987	24.50266	15.94603	9.42561	9.11961	8.84185	8.35305	7.66811	6.30425	5.26565	31.42922	22.59302	15.81886
19300	3.16044	2.91713	2.48970	14.00127	12.58801	11.43485	24.59124	15.95371	9.42647	9.12211	8.84362	8.35482	7.66802	6.30389	5.26483	31.48112	22.59520	15.81826
19470	3.15846	2.91623	2.49071	13.99976	12.58957	11.43618	24.57846	15.95414	9.42856	9.12483	8.84904	8.35874	7.67370	6.30393	5.26830	31.48522	22.59489	15.82307
19630	3.15899	2.91710	2.48782	14.00043	12.58930	11.43594	24.57124	15.94916	9.42412	9.12473	8.84663	8.35832	7.66606	6.30175	5.26562	31.45969	22.59508	15.82646
19800	3.16168	2.91725	2.49181	14.00704	12.59635	11.44041	24.59354	15.95296	9.42257	9.12908	8.85259	8.36371	7.66520	6.29806	5.26309	31.44890	22.59907	15.82694	32.97	6.0	0.00	-2.04	0.01727	0.01195	0.01512	0.01823	0.01889	0.01477	0.00542	0.01504	0.01997	0.01862	0.01290	0.01643	0.01698	0.01757	0.01372	0.00570	0.01606	0.02145
19960	3.15861	2.91785	2.48837	14.00697	12.59739	11.44277	24.58020	15.96182	9.42731	9.13194	8.85616	8.36761	7.66954	6.29886	5.26384	31.47167	22.60748	15.83068
20120	3.15726	2.91315	2.48522	14.01150	12.59798	11.44259	24.55080	15.94219	9.41863	9.13354	8.85558	8.36811	7.66298	6.29825	5.26224	31.45800	22.60206	15.82924
20290	3.15911	2.91822	2.49123	14.01307	12.60192	11.44935	24.65967	15.95974	9.42848	9.13948	8.85875	8.37135	7.66995	6.30350	5.26236	31.50136	22.61453	15.83846
20450	3.15985	2.91529	2.48754	14.01303	12.59667	11.44703	24.59549	15.95441	9.42630	9.13720	8.85544	8.36989	7.66806	6.30320	5.26414	31.49770	22.61446	15.84054
20620	3.15994	2.91693	2.49062	14.01251	12.59735	11.44673	24.57159	15.94430	9.42449	9.13880	8.85600	8.37016	7.66642	6.29950	5.26113	31.47076	22.60972	15.83229
20780	3.15709	2.91648	2.48871	14.00984	12.59692	11.44612	24.64680	15.94567	9.42300	9.14016	8.85788	8.37287	7.66665	6.29985	5.26163	31.49770	22.61502	15.83630
20940	3.15946	2.91588	2.48746	14.01096	12.59819	11.44780	24.61972	15.94555	9.42717	9.14004	8.85748	8.37312	7.66305	6.29554	5.25938	31.49450	22.61334	15.83367
21110	3.15649	2.91774	2.49092	14.01315	12.60109	11.45036	24.54859	15.94916	9.42714	9.14247	8.85942	8.37367	7.66881	6.30125	5.26377	31.50547	22.61577	15.83757
21270	3.15851	2.91551	2.48787	14.01042	12.59542	11.44616	24.58492	15.94434	9.41974	9.13909	8.85771	8.37112	7.66564	6.30055	5.26514	31.48308	22.61477	15.83597
21440	3.15848	2.91558	2.48658	14.01122	12.59757	11.44796	24.55889	15.94481	9.42084	9.13974	8.85937	8.37202	7.66416	6.29854	5.25684	31.48132	22.60683	15.83325	32.97	6.1	0.00	-2.04	0.01728	0.01195	0.01512	0.01823	0.01889	0.01477	0.00542	0.01504	0.01997	0.01862	0.01290	0.01643	0.01698	0.01757	0.01372	0.00571	0.01606	0.02145
21600	3.15674	2.91481	2.48619	14.00885	12.59509	11.44707	24.56305	15.94273	9.42189	9.13656	8.85600	8.37011	7.66351	6.29980	5.26088	31.49228	22.60409	15.82911
21770	3.15791	2.91438	2.48615	14.00226	12.58836	11.44103	24.55778	15.94320	9.42155	9.13345	8.84979	8.36632	7.66481	6.29890	5.26379	31.44760	22.60222	15.82550
21930	3.15890	2.91535	2.48873	13.99859	12.58434	11.43726	24.58025	15.94571	9.42162	9.13007	8.84552	8.36043	7.66217	6.29785	5.25853	31.45989	22.59425	15.82125
22100	3.15846	2.91622	2.48820	13.99515	12.58221	11.43383	24.60500	15.95280	9.42326	9.12791	8.84123	8.35979	7.66530	6.29835	5.26220	31.44442	22.59102	15.81657
22260	3.15763	2.91249	2.48782	13.98984	12.57937	11.42712	24.59470	15.94093	9.41805	9.12163	8.83824	8.35326	7.66365	6.29501	5.26214	31.45534	22.59071	15.81724
22430	3.15870	2.91801	2.48825	13.99358	12.58117	11.43095	24.57609	15.94955	9.41972	9.12420	8.84272	8.35648	7.66389	6.29936	5.26139	31.46581	22.59301	15.81891
22590	3.15798	2.91639	2.48923	13.99652	12.58278	11.43146	24.55751	15.94477	9.42312	9.12482	8.84429	8.35765	7.66209	6.29951	5.26496	31.46900	22.60129	15.82009
22760	3.16218	2.91621	2.48990	14.00442	12.59002	11.43783	24.63567	15.94454	9.42253	9.13129	8.85229	8.36435	7.66165	6.29585	5.25873	31.48862	22.59830	15.82459
22920	3.15718	2.91451	2.48568	14.00650	12.59471	11.44249	24.58164	15.94559	9.42041	9.13360	8.85435	8.36671	7.66035	6.29499	5.26009	31.46035	22.59743	15.82962
23090	3.15906	2.91487	2.48680	14.00959	12.59631	11.44382	24.54266	15.94783	9.42011	9.13564	8.85619	8.36919	7.66194	6.29665	5.25767	31.45019	22.60033	15.82887	32.97	6.1	0.00	-2.04	0.01727	0.01195	0.01512	0.01823	0.01889	0.01477	0.00542	0.01504	0.01997	0.01862	0.01290	0.01643	0.01698	0.01757	0.01372	0.00571	0.01606	0.02145
23250	3.15430	2.91192	2.48466	14.01146	12.59479	11.44223	24.57786	15.93780	9.41856	9.13340	8.85424	8.36681	7.66328	6.29652	5.26172	31.46749	22.60674	15.83195
23420	3.15833	2.91480	2.48562	14.01185	12.59878	11.44578	24.54764	15.94344	9.42222	9.13750	8.85852	8.37126	7.66049	6.29923	5.26152	31.47524	22.60157	15.83502
23580	3.15739	2.91337	2.48675	14.01607	12.60295	11.44943	24.56676	15.94360	9.42277	9.14110	8.86318	8.37654	7.65923	6.29788	5.25727	31.46613	22.61322	15.83915
23750	3.16020	2.91594	2.48783	14.02129	12.60938	11.45476	24.55651	15.95829	9.42325	9.14717	8.87016	8.38072	7.66299	6.29762	5.25882	31.46066	22.62152	15.84577
23910	3.15729	2.91347	2.48558	14.02295	12.60855	11.45685	24.58509	15.94238	9.41750	9.14631	8.86639	8.37910	7.66474	6.29924	5.26290	31.48391	22.62545	15.85102
24080	3.16226	2.91661	2.48788	14.02415	12.60814	11.45660	24.57148	15.94007	9.42114	9.14634	8.86540	8.37932	7.66000	6.29755	5.26022	31.46749	22.62801	15.84530
24240	3.15866	2.91535	2.48828	14.02161	12.60551	11.45448	24.57259	15.94501	9.42191	9.14432	8.86382	8.37719	7.66302	6.29612	5.26072	31.45747	22.61859	15.84412
24410	3.16123	2.91654	2.48719	14.02053	12.60501	11.45452	24.53050	15.94035	9.42274	9.14272	8.86296	8.37574	7.66206	6.29608	5.26019	31.50356	22.61859	15.84164
24570	3.15873	2.91398	2.48822	14.01402	12.59998	11.44860	24.58953	15.94219	9.42113	9.13868	8.86185	8.37327	7.66312	6.29848	5.25786	31.45519	22.61272	15.83868
24740	3.15684	2.91706	2.48909	14.01367	12.60001	11.45055	24.59380	15.94685	9.41788	9.14054	8.86440	8.37669	7.66563	6.29764	5.26080	31.47209	22.61285	15.84141	33.02	6.0	0.00	-2.04	0.01727	0.01195	0.01512	0.01823	0.01889	0.01477	0.00542	0.01504	0.01997	0.01862	0.01290	0.01643	0.01698	0.01757	0.01372	0.00570	0.01606	0.02145
24910	3.15998	2.91564	2.48881	14.01630	12.59808	11.45083	24.62946	15.95638	9.42270	9.14025	8.86105	8.37536	7.66464	6.29993	5.26313	31.47620	22.61447	15.84042
25070	3.16265	2.91901	2.48905	14.01367	12.59822	11.45045	24.55660	15.94877	9.42331	9.13938	8.86176	8.37491	7.66672	6.29976	5.26159	31.47392	22.61042	15.83180
25240	3.16050	2.91692	2.48805	14.00413	12.58849	11.44294	24.59825	15.95422	9.42284	9.13170	8.85111	8.36558	7.66127	6.29526	5.25858	31.46662	22.59367	15.82295
25400	3.15704	2.91375	2.48727	13.99535	12.58155	11.43662	24.64734	15.95038	9.42221	9.12507	8.84513	8.36007	7.66261	6.29964	5.26145	31.45114	22.59143	15.81750
25570	3.15922	2.91483	2.48531	13.98914	12.57464	11.42656	24.59519	15.94674	9.42234	9.11735	8.83608	8.34988	7.66601	6.30090	5.26328	31.46116	22.59522	15.81770
25730	3.15971	2.91673	2.48812	13.98938	12.57505	11.42717	24.58935	15.94826	9.42473	9.11393	8.83336	8.34786	7.66317	6.29901	5.26344	31.47666	22.58919	15.81161
25900	3.15838	2.91564	2.48764	13.98167	12.56900	11.42195	24.52893	15.94913	9.42165	9.10779	8.83067	8.34335	7.66319	6.29780	5.26245	31.45478	22.57993	15.80125
26060	3.16084	2.91629	2.48839	13.97845	12.56805	11.41887	24.61106	15.95959	9.42718	9.10575	8.82985	8.34419	7.66624	6.30283	5.26411	31.45251	22.57626	15.80025
26230	3.15876	2.91369	2.48658	13.97566	12.56243	11.41203	24.55244	15.94689	9.41910	9.10049	8.82293	8.33619	7.66565	6.30034	5.26419	31.43568	22.57185	15.79807
26390	3.16196	2.91745	2.48848	13.97534	12.56348	11.41056	24.55627	15.94619	9.42332	9.10090	8.82383	8.33578	7.66603	6.30000	5.26224	31.43456	22.56502	15.79292	33.02	6.1	0.00	-2.04	0.01727	0.01195	0.01512	0.01823	0.01889	0.01477	0.00542	0.01504	0.01997	0.01862	0.01290	0.01643	0.01698	0.01757	0.01372	0.00570	0.01606	0.02145
26560	3.15678	2.91393	2.48798	13.97142	12.55827	11.40662	24.58290	15.95340	9.42501	9.09628	8.82114	8.33383	7.66143	6.29643	5.26207	31.44047	22.55925	15.78777
26720	3.15906	2.91516	2.48794	13.97193	12.55988	11.40754	24.53274	15.94588	9.42429	9.09612	8.82307	8.33419	7.66515	6.30116	5.26140	31.41867	22.55764	15.78908
26890	3.15584	2.91466	2.48538	13.97054	12.55884	11.40455	24.54353	15.94435	9.41721	9.09259	8.81802	8.32979	7.66004	6.29884	5.26344	31.42911	22.56366	15.79155
27050	3.15895	2.91638	2.48970	13.97120	12.56037	11.40642	24.57374	15.94807	9.42190	9.09621	8.82249	8.33274	7.66225	6.29669	5.26042	31.44684	22.56142	15.78995
27220	3.16086	2.91792	2.49062	13.97296	12.56510	11.41082	24.55073	15.95175	9.42960	9.09801	8.82437	8.33531	7.66613	6.30081	5.26402	31.44411	22.56111	15.79192
27380	3.15778	2.91596	2.48709	13.97262	12.55973	11.40837	24.57179	15.94118	9.42028	9.09480	8.82060	8.33137	7.66063	6.29515	5.26297	31.42140	22.56006	15.78822
27550	3.15772	2.91517	2.48719	13.96569	12.55656	11.40523	24.57762	15.94176	9.41954	9.09319	8.81813	8.33089	7.66296	6.29979	5.26251	31.44593	22.55783	15.78635
27710	3.15797	2.91438	2.48609	13.96381	12.55497	11.40320	24.53495	15.94462	9.42130	9.09022	8.81578	8.32715	7.66232	6.29640	5.26063	31.42548	22.55969	15.78620
27880	3.15718	2.91469	2.48746	13.96535	12.55483	11.40378	24.57929	15.94083	9.42265	9.09261	8.81595	8.32863	7.65782	6.29845	5.25876	31.43002	22.55777	15.78740
28040	3.15723	2.91529	2.48889	13.96478	12.55665	11.40632	24.57351	15.94827	9.42352	9.09381	8.81909	8.33058	7.66149	6.29651	5.25917	31.43841	22.55839	15.78996	33.02	6.2	0.00	-2.04	0.01727	0.01195	0.01512	0.01823	0.01889	0.01477	0.00542	0.01504	0.01997	0.01862	0.01290	0.01643	0.01698	0.01757	0.01372	0.00570	0.01606	0.02145
28210	3.15589	2.91543	2.48730	13.96516	12.55266	11.40519	24.54192	15.95089	9.41832	9.09125	8.81415	8.32734	7.66359	6.30091	5.26192	31.44250	22.56211	15.79225
28370	3.16014	2.91474	2.48767	13.96761	12.55507	11.40634	24.60353	15.95058	9.41992	9.09475	8.81792	8.33021	7.66097	6.29534	5.26031	31.40574	22.56198	15.78994
28540	3.15737	2.91342	2.48632	13.96529	12.55369	11.40567	24.60325	15.95457	9.42298	9.09494	8.81669	8.33033	7.65780	6.29373	5.26046	31.43023	22.55733	15.78755
28700	3.15873	2.91426	2.48763	13.96735	12.55594	11.40634	24.59797	15.94321	9.42422	9.09535	8.81734	8.33069	7.66129	6.29593	5.26086	31.42297	22.56192	15.78786
28870	3.15692	2.91143	2.48658	13.96338	12.55068	11.40073	24.55687	15.94122	9.41741	9.09198	8.81259	8.32635	7.66307	6.29856	5.26101	31.44250	22.56341	15.78861
29030	3.16046	2.91684	2.48771	13.96499	12.55149	11.40429	24.56630	15.94165	9.42036	9.09260	8.81318	8.32704	7.66111	6.29333	5.26210	31.44978	22.55541	15.78384
29200	3.15788	2.91415	2.48722	13.95846	12.54840	11.39830	24.57795	15.94153	9.42083	9.09123	8.80951	8.32628	7.66124	6.29789	5.25674	31.43114	22.55721	15.78216
29360	3.15923	2.91611	2.48713	13.95923	12.54922	11.39934	24.65544	15.95740	9.42327	9.09095	8.81056	8.32621	7.66339	6.29388	5.25863	31.41662	22.55659	15.78167
29530	3.15820	2.91152	2.48485	13.95255	12.54493	11.39424	24.54386	15.94740	9.41714	9.08668	8.80746	8.32305	7.66129	6.29751	5.26063	31.41979	22.56037	15.78375
29690	3.15848	2.91542	2.48894	13.95753	12.54773	11.39819	24.59304	15.95229	9.42013	9.08983	8.80852	8.32388	7.65741	6.29738	5.25943	31.41825	22.55012	15.77798	32.97	5.9	0.00	-2.04	0.01727	0.01195	0.01512	0.01823	0.01889	0.01477	0.00542	0.01504	0.01997	0.01862	0.01290	0.01643	0.01698	0.01757	0.01372	0.00570	0.01606	0.02145
29860	3.15899	2.91744	2.48920	13.95764	12.54855	11.39968	24.58636	15.94403	9.42202	9.09248	8.81243	8.32677	7.66257	6.29870	5.26325	31.40692	22.55607	15.78339
30020	3.16025	2.91510	2.48599	13.95929	12.54607	11.39956	24.53619	15.94599	9.41836	9.08995	8.80956	8.32501	7.65930	6.29393	5.26026	31.41372	22.55173	15.78013
30190	3.15557	2.91389	2.48657	13.95327	12.54491	11.39695	24.62339	15.94779	9.42173	9.08971	8.80838	8.32379	7.66148	6.29563	5.26078	31.41871	22.55353	15.77796
30350	3.15575	2.91369	2.48741	13.95064	12.54155	11.39311	24.62841	15.94767	9.42409	9.08457	8.80463	8.32120	7.65961	6.29386	5.26062	31.38565	22.54758	15.77849
30520	3.15847	2.91362	2.48933	13.94987	12.53790	11.39169	24.54228	15.94419	9.42138	9.08408	8.80358	8.31838	7.66228	6.29601	5.25652	31.41916	22.53965	15.77173
30680	3.15679	2.91702	2.48598	13.94430	12.53570	11.39181	24.52928	15.94759	9.41849	9.08343	8.80141	8.31751	7.66137	6.29745	5.26130	31.39605	22.54560	15.77242
30850	3.15609	2.91293	2.48672	13.94227	12.53168	11.38484	24.54338	15.93722	9.41742	9.07964	8.79819	8.31409	7.66071	6.29825	5.26688	31.37300	22.54814	15.77222
31010	3.16017	2.91454	2.48638	13.94670	12.53447	11.38869	24.61280	15.94493	9.42155	9.08248	8.79837	8.31462	7.66339	6.29789	5.26159	31.42415	22.54392	15.76952
31180	3.15708	2.90114	2.46415	13.94011	12.53251	11.38384	23.58349	15.80877	9.37259	9.07908	8.79821	8.31332	7.62089	6.26063	5.21751	31.39424	22.54070	15.76609
31340	3.13614	2.89068	2.47497	13.94023	12.53072	11.38230	24.16887	15.89454	9.41103	9.07720	8.79584	8.31181	7.65365	6.29080	5.25274	31.38415	22.53698	15.76438	32.97	6.2	0.00	-2.04	0.01727	0.01195	0.01512	0.01823	0.01889	0.01477	0.00542	0.01504	0.01997	0.01862	0.01290	0.01643	0.01698	0.01757	0.01372	0.00570	0.01606	0.02145
31510	3.15641	2.90859	2.47958	13.93634	12.52704	11.37696	24.65210	15.96241	9.42388	9.07252	8.79271	8.30794	7.67052	6.30715	5.27097	31.42129	22.53921	15.76850
31670	3.16584	2.92219	2.49285	13.93738	12.52996	11.38075	24.70708	15.96319	9.42676	9.07418	8.79553	8.31009	7.66799	6.29732	5.26524	31.39229	22.53624	15.76151
31840	3.16382	2.92290	2.49521	13.94018	12.53282	11.38364	24.72679	15.96735	9.42610	9.07751	8.79715	8.31162	7.66691	6.30176	5.26497	31.40814	22.53277	15.76434
32000	3.15900	2.91936	2.49152	13.93702	12.52838	11.37997	24.72538	15.95955	9.42381	9.07335	8.79453	8.30957	7.66366	6.29735	5.26433	31.38822	22.53290	15.76106
32170	3.15691	2.91706	2.48902	13.93578	12.52674	11.37925	24.67310	15.95222	9.41999	9.07303	8.79205	8.30938	7.66316	6.29901	5.26116	31.39139	22.53277	15.76133
32330	3.15904	2.91675	2.48943	13.93723	12.52855	11.37793	24.61999	15.94497	9.42111	9.07369	8.79486	8.30936	7.65884	6.29692	5.26105	31.40542	22.53228	15.76197
32500	3.15782	2.91328	2.48647	13.93443	12.52592	11.37728	24.60968	15.94227	9.42030	9.07086	8.79154	8.30725	7.66027	6.29827	5.26136	31.41267	22.52906	15.75887
32660	3.15694	2.91526	2.48772	13.93296	12.52507	11.37728	24.65434	15.95182	9.42087	9.07207	8.79227	8.30783	7.66056	6.29712	5.26271	31.39591	22.53580	15.76215
32830	3.15801	2.91711	2.48943	13.93625	12.52662	11.37959	24.63254	15.95143	9.42182	9.07455	8.79422	8.30946	7.66533	6.29813	5.26208	31.39682	22.53203	15.76018
32990	3.15916	2.91424	2.48868	13.93692	12.52782	11.37831	24.63581	15.95410	9.42084	9.07403	8.79461	8.30870	7.66072	6.29740	5.26181	31.40901	22.53879	15.76635	33.02	6.0	0.00	-2.04	0.01727	0.01195	0.01512	0.01823	0.01889	0.01477	0.00542	0.01504	0.01997	0.01862	0.01290	0.01643	0.01698	0.01757	0.01372	0.00570	0.01606	0.02145
33160	3.15722	2.91502	2.48893	13.93932	12.53151	11.38062	24.56180	15.94595	9.42071	9.07690	8.79785	8.31186	7.66129	6.29528	5.25975	31.41309	22.53074	15.76155
33320	3.15694	2.91615	2.48698	13.93662	12.52924	11.38072	24.59484	15.94701	9.42465	9.07519	8.79690	8.31145	7.66060	6.29530	5.25787	31.43624	22.53483	15.75858
33490	3.15686	2.91694	2.48934	13.93934	12.53194	11.38481	24.59818	15.94803	9.42293	9.07985	8.79876	8.31612	7.66556	6.29732	5.25932	31.37463	22.53266	15.76465
33650	3.15646	2.91416	2.48661	13.94002	12.53308	11.38276	24.55847	15.94075	9.41763	9.07805	8.79639	8.31172	7.66242	6.29613	5.26268	31.38231	22.53687	15.76697
33820	3.15811	2.91494	2.48929	13.94043	12.53270	11.38371	24.64335	15.94490	9.42044	9.07917	8.79909	8.31392	7.66155	6.29505	5.25852	31.38277	22.53495	15.76046
33980	3.15537	2.91309	2.48522	13.93778	12.53128	11.38018	24.52279	15.94000	9.41990	9.07512	8.79821	8.31122	7.65666	6.29459	5.25545	31.39950	22.53044	15.75949
34150	3.15546	2.91230	2.48545	13.93842	12.53169	11.38262	24.60040	15.94752	9.41994	9.07779	8.79795	8.31359	7.65961	6.29254	5.25842	31.40856	22.53761	15.76312
34310	3.15318	2.91154	2.48511	13.93692	12.53073	11.38086	24.61962	15.94407	9.41399	9.07710	8.79825	8.31300	7.65899	6.29409	5.25667	31.40539	22.53650	15.76412
34480	3.15580	2.91241	2.48514	13.94144	12.53366	11.38357	24.58261	15.94772	9.41970	9.07721	8.79762	8.31360	7.65750	6.29258	5.25782	31.39995	22.53031	15.76215
34640	3.15788	2.91597	2.48916	13.94149	12.53434	11.38575	24.56100	15.94665	9.42420	9.07896	8.80038	8.31480	7.65892	6.29030	5.25782	31.39400	22.53402	15.76372	32.97	6.1	0.00	-2.04	0.01727	0.01195	0.01512	0.01823	0.01889	0.01477	0.00542	0.01504	0.01997	0.01862	0.01290	0.01643	0.01698	0.01757	0.01372	0.00570	0.01606	0.02145
34810	3.15565	2.91359	2.48602	13.93916	12.53171	11.38126	24.57237	15.94575	9.41789	9.07756	8.79822	8.31352	7.65529	6.29094	5.25719	31.41302	22.53186	15.76355
34970	3.15337	2.91224	2.48661	13.93798	12.53182	11.38332	24.54742	15.93796	9.41351	9.07932	8.79962	8.31447	7.65590	6.29216	5.25864	31.44117	22.53328	15.76530
35140	3.15595	2.91578	2.48817	13.94074	12.53414	11.38440	24.61910	15.93913	9.41888	9.08013	8.80220	8.31568	7.65757	6.29561	5.26249	31.43253	22.53823	15.76638
35300	3.15737	2.91594	2.48870	13.94468	12.53546	11.38757	24.64003	15.94132	9.42073	9.08198	8.80059	8.31682	7.65850	6.29639	5.25754	31.38676	22.53538	15.76622
35470	3.15507	2.91201	2.48649	13.94036	12.53242	11.38641	24.64506	15.94661	9.41783	9.08074	8.79996	8.31491	7.66064	6.29691	5.26031	31.39581	22.53223	15.76392
35630	3.15819	2.91202	2.48584	13.94036	12.53199	11.38487	24.56488	15.93592	9.41442	9.07852	8.79885	8.31319	7.65830	6.29098	5.26176	31.38812	22.53483	15.76678
35800	3.15769	2.91587	2.48739	13.93912	12.52931	11.38336	24.59765	15.94731	9.41797	9.07971	8.79780	8.31288	7.65829	6.29304	5.26013	31.38450	22.52592	15.76178
35960	3.15439	2.91402	2.48825	13.93401	12.52803	11.38376	24.61603	15.94551	9.41667	9.07971	8.79873	8.31441	7.65837	6.29485	5.25592	31.40396	22.53056	15.76335
36120	3.15625	2.91153	2.48524	13.93514	12.52689	11.38035	24.58431	15.93870	9.41456	9.07718	8.79495	8.31148	7.65738	6.29570	5.25611	31.38450	22.53229	15.76186
36290	3.15650	2.91166	2.48705	13.93549	12.52654	11.38104	24.55205	15.94227	9.41477	9.07567	8.79487	8.30949	7.65575	6.29249	5.25664	31.38892	22.52809	15.75745	33.02	6.0	0.00	-2.04	0.01727	0.01195	0.01512	0.01823	0.01889	0.01477	0.00542	0.01504	0.01997	0.01862	0.01290	0.01643	0.01698	0.01757	0.01372	0.00570	0.01606	0.02145
36450	3.15698	2.91351	2.48718	13.93566	12.52910	11.38238	24.54569	15.94889	9.41946	9.07837	8.79844	8.31239	7.66132	6.29662	5.26260	31.39752	22.53081	15.76125
36620	3.15783	2.91357	2.48790	13.93290	12.52519	11.37633	24.59035	15.93613	9.41498	9.07361	8.79363	8.30863	7.66090	6.29486	5.25906	31.39661	22.52976	15.76205
36780	3.15857	2.91474	2.48823	13.93391	12.52690	11.37980	24.51501	15.93781	9.41738	9.07668	8.79488	8.31102	7.65923	6.29509	5.25964	31.40295	22.52605	15.75842
36950	3.15586	2.91512	2.48781	13.93442	12.52786	11.38218	24.51722	15.95038	9.41768	9.07706	8.79644	8.31127	7.66159	6.29553	5.25893	31.38169	22.53167	15.76076
37110	3.15770	2.91175	2.48561	13.93489	12.52622	11.37685	24.54513	15.94200	9.41633	9.07282	8.79244	8.30832	7.65843	6.29781	5.26030	31.38666	22.52815	15.75937
37280	3.15686	2.91346	2.48603	13.93303	12.52539	11.37849	24.55981	15.93910	9.41309	9.07168	8.79342	8.30948	7.65700	6.29294	5.25620	31.41745	22.52407	15.75539
37440	3.15665	2.91067	2.48472	13.93169	12.52544	11.37585	24.55815	15.93898	9.41464	9.07365	8.79328	8.30926	7.65595	6.29015	5.25751	31.42744	22.53068	15.75453
37610	3.15423	2.91256	2.48579	13.93156	12.52619	11.37669	24.53268	15.94086	9.41384	9.07138	8.79209	8.30774	7.65664	6.29391	5.25831	31.41201	22.52908	15.75534
37770	3.15680	2.91367	2.48647	13.93331	12.52622	11.37545	24.60119	15.94775	9.41785	9.07122	8.79203	8.30774	7.65685	6.29349	5.25849	31.39933	22.53211	15.75742
37940	3.15590	2.91311	2.48483	13.93183	12.52452	11.37314	24.58690	15.93319	9.41507	9.07030	8.79255	8.30705	7.65519	6.29309	5.26039	31.41491	22.52731	15.75750	33.02	6.1	0.00	-2.04	0.01727	0.01195	0.01512	0.01823	0.01889	0.01477	0.00542	0.01504	0.01997	0.01862	0.01290	0.01643	0.01698	0.01757	0.01372	0.00570	0.01606	0.02145
38100	3.15576	2.91424	2.48688	13.93284	12.52635	11.37472	24.52014	15.94207	9.41686	9.07201	8.79383	8.30858	7.66131	6.29584	5.25996	31.40856	22.53386	15.75892
38270	3.15937	2.91419	2.49038	13.93852	12.52902	11.37755	24.57274	15.94254	9.42087	9.07429	8.79539	8.30987	7.66229	6.29961	5.26283	31.42988	22.53597	15.76423
38430	3.16226	2.91876	2.49074	13.94079	12.53334	11.38132	24.56691	15.95030	9.42215	9.07578	8.79868	8.31292	7.66313	6.29752	5.26100	31.42716	22.53361	15.76208
38600	3.15800	2.91392	2.48705	13.93739	12.53172	11.38010	24.59218	15.93448	9.41895	9.07333	8.79705	8.31004	7.65816	6.29363	5.25945	31.41763	22.52267	15.75823
38760	3.15451	2.91419	2.48880	13.93634	12.53032	11.37963	24.64991	15.94689	9.42173	9.07600	8.79864	8.31099	7.65958	6.29903	5.25924	31.39135	22.53405	15.76228
38930	3.15885	2.91435	2.48610	13.93793	12.52879	11.37595	24.58468	15.94704	9.41787	9.07185	8.79313	8.30975	7.65967	6.29745	5.26250	31.41037	22.53009	15.76354
39090	3.16009	2.91618	2.48783	13.94094	12.53133	11.37901	24.54558	15.94191	9.41949	9.07357	8.79663	8.30967	7.65990	6.29439	5.25939	31.38864	22.53374	15.75950
39250	3.15692	2.91550	2.48842	13.93848	12.53273	11.38102	24.59107	15.94438	9.42273	9.07630	8.79803	8.31282	7.66058	6.29675	5.25979	31.37689	22.53467	15.76295
39420	3.15681	2.91202	2.48834	13.94096	12.53007	11.37825	24.60220	15.94454	9.41947	9.07287	8.79523	8.30944	7.66299	6.29685	5.26246	31.42217	22.53658	15.76255
39580	3.15921	2.91453	2.48882	13.94244	12.53680	11.38034	24.55887	15.94297	9.42095	9.07543	8.79716	8.31196	7.66008	6.29439	5.25944	31.40274	22.53275	15.76063	33.02	5.9	0.00	-2.04	0.01727	0.01195	0.01512	0.01823	0.01889	0.01477	0.00542	0.01504	0.01997	0.01862	0.01290	0.01643	0.01698	0.01757	0.01372	0.00570	0.01606	0.02145
39750	3.15693	2.91653	2.49108	13.94394	12.53917	11.38409	24.55249	15.94775	9.42023	9.07867	8.79969	8.31434	7.66272	6.29806	5.26232	31.41044	22.53615	15.76577
39910	3.15731	2.91321	2.48714	13.94507	12.53612	11.38120	24.57995	15.93984	9.42007	9.07652	8.79793	8.31291	7.66341	6.29682	5.26312	31.39459	22.54042	15.76794
40080	3.16038	2.91672	2.48944	13.94635	12.53861	11.38479	24.55776	15.94301	9.41881	9.07858	8.80043	8.31468	7.65940	6.29281	5.26069	31.40772	22.53745	15.76603
40240	3.15913	2.91480	2.48979	13.94935	12.54232	11.38591	24.58967	15.95010	9.42454	9.08079	8.80318	8.31540	7.66423	6.29954	5.26228	31.42723	22.54290	15.76814
40410	3.15815	2.91435	2.48682	13.94687	12.53772	11.38352	24.55166	15.93937	9.41461	9.07723	8.79873	8.31370	7.66003	6.29491	5.26066	31.38826	22.53665	15.76725
40570	3.15519	2.91342	2.48720	13.94646	12.53968	11.38489	24.56746	15.94568	9.41817	9.07674	8.79938	8.31266	7.65920	6.29290	5.25740	31.45405	22.53825	15.76601
40730	3.15793	2.91211	2.48721	13.94310	12.53563	11.38046	24.54363	15.94023	9.41830	9.07579	8.79665	8.31124	7.65629	6.29353	5.25964	31.39007	22.53999	15.76739
40900	3.15631	2.91307	2.48740	13.94492	12.53529	11.38376	24.60108	15.94282	9.42134	9.07757	8.79964	8.31475	7.66046	6.29663	5.26377	31.42133	22.53900	15.76940
41070	3.15846	2.91580	2.48903	13.94289	12.53680	11.38437	24.58384	15.94579	9.42013	9.07954	8.80055	8.31534	7.66229	6.29720	5.26578	31.41135	22.54123	15.77201
41230	3.16016	2.91692	2.49058	13.94808	12.53879	11.38713	24.59379	15.95104	9.42189	9.08215	8.80281	8.31611	7.66383	6.29593	5.26109	31.41006	22.54213	15.77085	33.02	6.1	0.00	-2.04	0.01727	0.01195	0.01512	0.01823	0.01889	0.01477	0.00542	0.01504	0.01997	0.01862	0.01290	0.01643	0.01698	0.01757	0.01372	0.00570	0.01606	0.02145
41400	3.15747	2.91521	2.48892	13.94542	12.53853	11.38788	24.59546	15.93769	9.41988	9.08263	8.80311	8.31714	7.66151	6.29615	5.26155	31.40915	22.53662	15.76941
41560	3.15598	2.91516	2.48911	13.94517	12.53990	11.38746	24.57767	15.94395	9.42321	9.08346	8.80293	8.31809	7.66288	6.29654	5.26045	31.41369	22.54170	15.77204
41730	3.15802	2.91686	2.48864	13.94559	12.53853	11.38613	24.60687	15.93988	9.41523	9.07954	8.79971	8.31600	7.66154	6.29972	5.26556	31.39059	22.54312	15.77386
41890	3.16049	2.91747	2.49114	13.95079	12.54164	11.38878	24.64397	15.94250	9.42103	9.08315	8.80230	8.31831	7.66292	6.29586	5.26365	31.39240	22.54256	15.76927
42060	3.15999	2.91669	2.49093	13.94619	12.53979	11.38992	24.60714	15.93984	9.42136	9.08291	8.80365	8.31817	7.66061	6.29565	5.25852	31.39647	22.53767	15.77051
42220	3.15872	2.91748	2.48960	13.94947	12.54196	11.38956	24.58545	15.94850	9.42190	9.08549	8.80454	8.32102	7.66509	6.29629	5.26239	31.39285	22.54876	15.77147
42390	3.15804	2.91350	2.48686	13.94816	12.53785	11.38798	24.55659	15.93898	9.41671	9.08230	8.80250	8.31676	7.66246	6.30011	5.26675	31.40508	22.54888	15.77658
42550	3.16032	2.91864	2.48997	13.95204	12.54501	11.39241	24.55216	15.95206	9.42295	9.08571	8.80595	8.31900	7.66417	6.29940	5.26251	31.40553	22.54566	15.77379
42720	3.15527	2.91455	2.48829	13.94865	12.54250	11.39097	24.56685	15.93096	9.41547	9.08413	8.80521	8.31941	7.66245	6.29512	5.25844	31.40462	22.54485	15.77457
42880	3.15937	2.91573	2.48766	13.95236	12.54451	11.39187	24.54624	15.94336	9.41983	9.08432	8.80374	8.31903	7.66239	6.29604	5.26458	31.40724	22.54312	15.77158	33.02	6.1	0.00	-2.04	0.01727	0.01195	0.01512	0.01823	0.01889	0.01477	0.00542	0.01504	0.01997	0.01862	0.01290	0.01643	0.01698	0.01757	0.01372	0.00570	0.01606	0.02145
43050	3.15907	2.91387	2.48818	13.94878	12.54238	11.38852	24.49021	15.94426	9.41734	9.08097	8.80270	8.31834	7.66083	6.29496	5.26390	31.42220	22.54405	15.77360
43210	3.15949	2.91595	2.48954	13.94962	12.54289	11.38922	24.52992	15.94419	9.41864	9.08306	8.80440	8.31968	7.66212	6.29489	5.25923	31.39773	22.54535	15.77220
43380	3.15862	2.91915	2.49012	13.95420	12.54599	11.39364	24.52716	15.94368	9.42197	9.08755	8.80959	8.32352	7.66510	6.29847	5.26386	31.41857	22.55024	15.77845
43540	3.15979	2.91664	2.48804	13.95321	12.54638	11.39107	24.58589	15.94207	9.41818	9.08510	8.80563	8.32160	7.66205	6.29671	5.26380	31.41358	22.54702	15.77391
43710	3.15585	2.91592	2.48858	13.95156	12.54392	11.39133	24.57895	15.94254	9.41898	9.08676	8.80790	8.32176	7.66243	6.29572	5.26027	31.39863	22.54362	15.77400
43870	3.15646	2.91367	2.48757	13.95071	12.54270	11.38942	24.55537	15.94113	9.41689	9.08486	8.80393	8.31933	7.66182	6.29945	5.26398	31.41585	22.54752	15.77657
44040	3.15964	2.91346	2.48858	13.95452	12.54471	11.39217	24.61762	15.94630	9.42117	9.08647	8.80677	8.32142	7.65935	6.29767	5.26126	31.38822	22.55278	15.77599
44200	3.15676	2.91787	2.48940	13.95257	12.54553	11.39280	24.56064	15.95151	9.41979	9.08808	8.80861	8.32436	7.66312	6.29616	5.26180	31.43628	22.55117	15.77834
44370	3.15882	2.91472	2.48963	13.95486	12.54471	11.39043	24.56424	15.94195	9.41898	9.08531	8.80412	8.32074	7.66240	6.29731	5.26347	31.43628	22.55346	15.77748
44530	3.15769	2.91982	2.49047	13.95409	12.54537	11.39251	24.59707	15.94157	9.41672	9.08514	8.80566	8.32093	7.65776	6.29588	5.25753	31.43502	22.55052	15.77659	33.02	6.0	0.00	-2.04	0.01727	0.01195	0.01512	0.01823	0.01889	0.01477	0.00542	0.01504	0.01997	0.01862	0.01290	0.01643	0.01698	0.01757	0.01372	0.00570	0.01606	0.02145
44690	3.15870	2.91685	2.48794	13.95510	12.54881	11.39338	24.59067	15.93828	9.42023	9.09009	8.80739	8.32489	7.66283	6.29837	5.25920	31.42321	22.54946	15.77936
44860	3.16111	2.91344	2.48742	13.95835	12.54733	11.39380	24.60848	15.93687	9.41814	9.08683	8.80736	8.32308	7.65879	6.29659	5.26318	31.44092	22.55634	15.78095
45020	3.15870	2.91512	2.48901	13.95822	12.54813	11.39555	24.55820	15.94016	9.41668	9.08924	8.80955	8.32430	7.65921	6.29330	5.25868	31.42820	22.55169	15.77923
45190	3.15810	2.91360	2.48944	13.95863	12.54884	11.39597	24.60068	15.94556	9.42183	9.09084	8.81112	8.32635	7.66413	6.29630	5.25834	31.41459	22.55268	15.78067
45350	3.15800	2.91436	2.48599	13.95642	12.54768	11.39420	24.58567	15.93898	9.41790	9.08890	8.80902	8.32616	7.66049	6.29760	5.26282	31.42866	22.55244	15.78158
45520	3.15811	2.91512	2.48809	13.96077	12.55093	11.39844	24.56208	15.94352	9.41749	9.09135	8.81140	8.32651	7.66064	6.29477	5.26162	31.46004	22.55374	15.78089
45680	3.15950	2.91569	2.48994	13.96022	12.55240	11.39848	24.60291	15.94356	9.41950	9.09159	8.80983	8.32599	7.65913	6.29875	5.26205	31.42593	22.55343	15.78053
45850	3.15662	2.91487	2.48698	13.96037	12.54779	11.39302	24.53191	15.93796	9.41429	9.08749	8.80781	8.32366	7.66213	6.29990	5.26201	31.40825	22.54996	15.78124
46010	3.15784	2.91667	2.48772	13.95876	12.54986	11.39442	24.55072	15.94446	9.41694	9.08934	8.80927	8.32378	7.65916	6.29639	5.25913	31.38742	22.54779	15.77792
46180	3.16109	2.91512	2.49256	13.96221	12.55236	11.39741	24.55008	15.94637	9.41925	9.09045	8.80977	8.32690	7.66529	6.29791	5.26500	31.42859	22.55232	15.78001	32.97	6.0	0.00	-2.04	0.01727	0.01195	0.01512	0.01823	0.01889	0.01477	0.00542	0.01504	0.01997	0.01862	0.01290	0.01643	0.01698	0.01757	0.01372	0.00570	0.01606	0.02145
46340	3.15926	2.91747	2.48861	13.95730	12.54899	11.39418	24.60951	15.93979	9.42061	9.08774	8.80831	8.32177	7.66075	6.29611	5.26171	31.43722	22.54978	15.77687
46510	3.15676	2.91263	2.48682	13.95520	12.54840	11.39484	24.54427	15.94715	9.41657	9.08918	8.80798	8.32297	7.65976	6.29621	5.26345	31.43903	22.54867	15.77746
46670	3.15531	2.91234	2.48695	13.95452	12.54619	11.39152	24.50257	15.93557	9.41738	9.08598	8.80684	8.32020	7.66138	6.29531	5.26078	31.42495	22.54991	15.78148
46840	3.15955	2.91628	2.48946	13.95734	12.55052	11.39381	24.55590	15.94351	9.42137	9.08850	8.80879	8.32458	7.66138	6.29677	5.26176	31.43813	22.54879	15.78132
47000	3.15878	2.91690	2.48928	13.95700	12.54961	11.39681	24.59448	15.94665	9.41905	9.09014	8.81108	8.32674	7.66066	6.29655	5.26043	31.44313	22.55288	15.78245
47170	3.15836	2.91785	2.48918	13.95989	12.54862	11.39329	24.55673	15.93729	9.41905	9.08824	8.80929	8.32438	7.66514	6.29780	5.26549	31.44495	22.55592	15.78540
47330	3.15879	2.91777	2.49036	13.96141	12.55072	11.39757	24.62874	15.94794	9.41992	9.09169	8.81210	8.32559	7.66217	6.29617	5.26376	31.40229	22.55871	15.78349
47500	3.15926	2.91775	2.48865	13.96163	12.55013	11.39849	24.59837	15.94116	9.42289	9.09170	8.81157	8.32623	7.66205	6.29387	5.25739	31.45268	22.55350	15.78458
47660	3.15753	2.91673	2.48957	13.96092	12.55097	11.39912	24.57253	15.94351	9.41947	9.09370	8.81240	8.32759	7.66168	6.29433	5.25885	31.44040	22.55573	15.78609
47830	3.15348	2.91449	2.48904	13.95789	12.54861	11.39713	24.56269	15.94732	9.41618	9.08977	8.80990	8.32573	7.66066	6.29586	5.26366	31.45807	22.56263	15.78727	33.02	6.0	0.00	-2.04	0.01727	0.01195	0.01512	0.01823	0.01889	0.01477	0.00542	0.01504	0.01997	0.01862	0.01290	0.01643	0.01698	0.01756	0.01372	0.00570	0.01606	0.02145
47990	3.15802	2.91595	2.48751	13.96037	12.55153	11.39924	24.52257	15.93906	9.41988	9.09341	8.81369	8.32727	7.66171	6.29499	5.25746	31.43760	22.55661	15.78306
48160	3.15703	2.91523	2.48930	13.96288	12.55470	11.40340	24.60771	15.94642	9.41992	9.09470	8.81520	8.33005	7.66565	6.29727	5.25903	31.42625	22.55940	15.78736
48320	3.15533	2.91435	2.48861	13.96374	12.55256	11.39930	24.58101	15.93557	9.41732	9.09344	8.81320	8.32914	7.65882	6.29727	5.26053	31.41400	22.55903	15.78395
48490	3.15394	2.91205	2.48548	13.96027	12.55131	11.39940	24.64174	15.93080	9.41554	9.09167	8.81316	8.32753	7.65854	6.29491	5.25676	31.46126	22.56313	15.78654
48650	3.15431	2.91372	2.48698	13.96249	12.55210	11.39912	24.60910	15.94301	9.41206	9.09337	8.81365	8.32687	7.65485	6.29577	5.25505	31.41309	22.55215	15.78566
48820	3.15572	2.91524	2.48805	13.96262	12.55215	11.40270	24.55854	15.94317	9.41606	9.09314	8.81316	8.33016	7.65527	6.29265	5.25889	31.41445	22.56009	15.78512
48980	3.15387	2.91265	2.48483	13.96185	12.55106	11.39778	24.59741	15.94743	9.41544	9.09082	8.81075	8.32633	7.65544	6.29252	5.25720	31.39814	22.55705	15.78302
49150	3.15484	2.91201	2.48764	13.96399	12.55272	11.39978	24.49885	15.93483	9.41269	9.09216	8.81266	8.32857	7.66005	6.29623	5.26053	31.38774	22.56120	15.78878
49310	3.15791	2.91347	2.48657	13.96579	12.55693	11.40139	24.55189	15.93780	9.41776	9.09421	8.81549	8.33097	7.65991	6.29382	5.25898	31.42307	22.56617	15.78625
49480	3.15554	2.91168	2.48563	13.96089	12.55197	11.39884	24.55721	15.93393	9.41303	9.09097	8.81223	8.32673	7.65705	6.29007	5.25464	31.40549	22.55378	15.78162	33.02	6.1	0.00	-2.04	0.01727	0.01195	0.01512	0.01823	0.01889	0.01477	0.00542	0.01504	0.01997	0.01862	0.01290	0.01643	0.01698	0.01757	0.01372	0.00570	0.01606	0.02145
49640	3.15337	2.91379	2.48657	13.96102	12.55354	11.39796	24.57912	15.93725	9.41509	9.09127	8.81411	8.32864	7.65740	6.29125	5.25315	31.42681	22.55235	15.78247
49810	3.15427	2.90903	2.48560	13.96074	12.55162	11.39864	24.55942	15.93189	9.41243	9.09031	8.81130	8.32634	7.65804	6.29551	5.25662	31.40504	22.55570	15.78420
49970	3.15431	2.91366	2.48505	13.96301	12.55523	11.39842	24.54779	15.94418	9.41553	9.09216	8.81498	8.33041	7.65675	6.29137	5.25453	31.44407	22.55464	15.78258
50140	3.15423	2.91335	2.49023	13.96717	12.55901	11.40242	24.58718	15.93714	9.41838	9.09453	8.81747	8.33086	7.65634	6.29486	5.25521	31.41456	22.55774	15.78522
50300	3.15557	2.91237	2.48638	13.96293	12.55347	11.39999	24.55748	15.92658	9.41455	9.09229	8.81546	8.32955	7.65789	6.29463	5.25663	31.44998	22.55607	15.78422
50470	3.15402	2.90997	2.48640	13.96357	12.55370	11.39936	24.55388	15.94203	9.40989	9.09284	8.81493	8.32942	7.65517	6.29165	5.25815	31.44271	22.56202	15.78546
50630	3.15554	2.91457	2.48658	13.96507	12.55759	11.40240	24.57662	15.93248	9.41592	9.09440	8.81816	8.33123	7.65373	6.29066	5.25363	31.42817	22.55849	15.78422
50800	3.15562	2.91282	2.48853	13.96696	12.55846	11.40463	24.55305	15.94042	9.41222	9.09713	8.81726	8.33311	7.65733	6.29164	5.25552	31.39961	22.55681	15.78482
50960	3.15448	2.91009	2.48544	13.96389	12.55645	11.40099	24.54502	15.93244	9.41027	9.09304	8.81760	8.33087	7.65737	6.29450	5.25797	31.45499	22.56035	15.78963
51130	3.15735	2.91406	2.48861	13.96831	12.56040	11.40421	24.59579	15.93604	9.41409	9.09624	8.81777	8.33434	7.65510	6.28879	5.25747	31.41888	22.55854	15.78558	33.02	6.1	0.00	-2.04	0.01727	0.01195	0.01512	0.01823	0.01889	0.01477	0.00542	0.01504	0.01997	0.01862	0.01290	0.01643	0.01698	0.01757	0.01372	0.00570	0.01606	0.02145
51290	3.15541	2.90953	2.48622	13.96388	12.55673	11.40415	24.56081	15.92892	9.41048	9.09377	8.81961	8.33165	7.65104	6.28890	5.25374	31.43886	22.55376	15.78192
51460	3.15531	2.91018	2.48617	13.96553	12.55744	11.40437	24.57662	15.93178	9.41541	9.09467	8.81802	8.33110	7.65643	6.29145	5.25655	31.46708	22.55209	15.78476
51620	3.15432	2.90945	2.48368	13.96111	12.55491	11.40135	24.55194	15.93029	9.40747	9.09119	8.81721	8.33060	7.65316	6.28888	5.25313	31.41253	22.55742	15.78613
51790	3.15274	2.91229	2.48718	13.96482	12.55833	11.40187	24.53838	15.92607	9.41014	9.09441	8.81947	8.33236	7.65750	6.29406	5.26252	31.44386	22.56623	15.79092
51950	3.15795	2.91694	2.48888	13.97099	12.56277	11.40527	24.54585	15.93901	9.41629	9.09939	8.82426	8.33632	7.65695	6.29031	5.25677	31.45069	22.56102	15.78866
52120	3.15336	2.91331	2.48521	13.96876	12.55874	11.40447	24.54197	15.93072	9.40952	9.09563	8.82112	8.33317	7.65331	6.28964	5.25241	31.44250	22.55562	15.78598
52280	3.15192	2.91103	2.48707	13.96769	12.56119	11.40513	24.57051	15.93252	9.41397	9.09749	8.82235	8.33611	7.65754	6.29005	5.25620	31.47118	22.55990	15.78855
52450	3.15247	2.91090	2.48306	13.96921	12.55951	11.40435	24.56275	15.93162	9.40575	9.09469	8.81891	8.33271	7.65483	6.29218	5.25670	31.42342	22.55953	15.78835
52610	3.15693	2.91284	2.48552	13.97215	12.56245	11.40479	24.55139	15.94657	9.41461	9.09713	8.82229	8.33473	7.65831	6.28838	5.25392	31.44796	22.56089	15.78671
52780	3.15687	2.91420	2.48812	13.97427	12.56579	11.41051	24.55484	15.93580	9.41606	9.10082	8.82630	8.33856	7.65937	6.29443	5.25867	31.44929	22.56377	15.79194	32.97	6.1	0.00	-2.04	0.01727	0.01195	0.01512	0.01823	0.01889	0.01477	0.00542	0.01504	0.01997	0.01862	0.01290	0.01643	0.01698	0.01756	0.01372	0.00570	0.01606	0.02145
52940	3.15702	2.91310	2.48706	13.97407	12.56276	11.40770	24.58425	15.93005	9.41339	9.09847	8.82321	8.33624	7.65577	6.29083	5.25433	31.44974	22.56160	15.78972
53110	3.15534	2.91138	2.48614	13.96970	12.56108	11.40621	24.55872	15.93322	9.40994	9.09760	8.82190	8.33478	7.65649	6.29480	5.25615	31.43746	22.56489	15.78872
53270	3.15489	2.91365	2.48551	13.97296	12.56318	11.40687	24.56871	15.92716	9.41042	9.09867	8.82254	8.33614	7.65509	6.29028	5.25444	31.39800	22.56017	15.78855
53440	3.15548	2.91129	2.48833	13.97291	12.56354	11.40941	24.55568	15.93967	9.41201	9.10081	8.82360	8.33838	7.65670	6.29220	5.25655	31.42656	22.56098	15.79238
53600	3.15458	2.91273	2.48444	13.97221	12.56137	11.40677	24.58370	15.93764	9.40883	9.09698	8.82151	8.33573	7.65642	6.29522	5.25738	31.44747	22.56383	15.79372
53770	3.15803	2.91369	2.48741	13.97431	12.56641	11.40935	24.57120	15.93658	9.41174	9.10150	8.82467	8.33873	7.65412	6.29052	5.25696	31.40978	22.56793	15.79278
53930	3.15305	2.91110	2.48752	13.97478	12.56504	11.40953	24.55152	15.93377	9.41126	9.10165	8.82633	8.33860	7.65670	6.28942	5.25515	31.42157	22.56104	15.79016
54100	3.15341	2.91220	2.48694	13.97547	12.56736	11.40939	24.56371	15.93944	9.41485	9.10177	8.82721	8.33995	7.65574	6.29074	5.25462	31.44656	22.56427	15.79121
54260	3.15611	2.90958	2.48405	13.97225	12.56401	11.40615	24.55291	15.93122	9.40829	9.09902	8.82505	8.33645	7.65418	6.29085	5.25663	31.46340	22.56327	15.79247
54430	3.15423	2.91315	2.48553	13.97515	12.56526	11.41130	24.52025	15.93858	9.41434	9.10221	8.82552	8.33887	7.65730	6.29244	5.25572	31.43271	22.56763	15.79278	33.02	6.1	0.00	-2.04	0.01727	0.01195	0.01512	0.01823	0.01889	0.01477	0.00542	0.01504	0.01997	0.01862	0.01290	0.01643	0.01698	0.01756	0.01372	0.00570	0.01606	0.02145
54590	3.15475	2.91268	2.48527	13.97513	12.56653	11.40847	24.61567	15.93839	9.41495	9.10275	8.82824	8.33942	7.65691	6.29305	5.25974	31.39870	22.56832	15.79373
54760	3.15578	2.91191	2.48721	13.97777	12.56824	11.41014	24.58145	15.93682	9.41458	9.10289	8.82822	8.34085	7.65515	6.29188	5.25618	31.44317	22.56633	15.79140
54920	3.15498	2.91268	2.48737	13.97622	12.56692	11.41002	24.57340	15.94195	9.41299	9.10321	8.82792	8.33915	7.65766	6.29115	5.25771	31.41637	22.56186	15.79073
55090	3.15533	2.91255	2.48783	13.97807	12.56947	11.41179	24.53434	15.94426	9.41671	9.10494	8.83110	8.34116	7.65792	6.29372	5.25735	31.45819	22.56825	15.79500
55250	3.15342	2.91242	2.48770	13.97498	12.56608	11.41112	24.50536	15.92935	9.41210	9.10257	8.82766	8.34010	7.65815	6.29575	5.25885	31.43317	22.57465	15.79982
55420	3.15697	2.91290	2.48846	13.98041	12.56917	11.41430	24.61902	15.93733	9.41630	9.10638	8.82978	8.34356	7.65846	6.29490	5.25734	31.40595	22.56869	15.79926
55580	3.15390	2.91144	2.48647	13.97762	12.56888	11.41368	24.55898	15.93596	9.41597	9.10430	8.83017	8.34337	7.65332	6.29095	5.25724	31.43635	22.56602	15.79453
55750	3.15553	2.91464	2.48754	13.97895	12.56990	11.41654	24.58506	15.94117	9.41886	9.10772	8.83059	8.34508	7.65838	6.29282	5.25584	31.44044	22.57067	15.79748
55910	3.15271	2.91069	2.48459	13.97807	12.56865	11.41283	24.55094	15.94011	9.41533	9.10485	8.82945	8.34258	7.65546	6.29397	5.26082	31.44635	22.57484	15.80086
56080	3.15699	2.91336	2.48605	13.98174	12.57175	11.41654	24.56563	15.93393	9.41472	9.10679	8.83124	8.34469	7.65813	6.29231	5.25525	31.45328	22.57104	15.79556	33.02	6.1	0.00	-2.04	0.01727	0.01195	0.01512	0.01823	0.01889	0.01477	0.00542	0.01504	0.01997	0.01862	0.01290	0.01643	0.01698	0.01756	0.01372	0.00570	0.01606	0.02145
56240	3.15408	2.90988	2.48621	13.97537	12.56838	11.41346	24.56535	15.92810	9.41438	9.10529	8.83003	8.34219	7.65465	6.29312	5.25613	31.43055	22.56998	15.79778
56410	3.15364	2.90896	2.48542	13.97732	12.56468	11.41181	24.53545	15.93272	9.40739	9.10250	8.82761	8.34101	7.65560	6.29169	5.26267	31.43282	22.57532	15.80224
56570	3.15793	2.91553	2.48733	13.98131	12.56907	11.41638	24.59423	15.93240	9.41291	9.10905	8.83094	8.34613	7.65826	6.29295	5.25829	31.42964	22.56905	15.79733
56740	3.15568	2.91271	2.48748	13.98179	12.56886	11.41565	24.56757	15.93643	9.41477	9.10771	8.83159	8.34613	7.65742	6.29299	5.25514	31.41693	22.57184	15.79958
56900	3.15628	2.91370	2.48805	13.97792	12.56909	11.41603	24.58478	15.94085	9.41330	9.10777	8.83091	8.34575	7.65581	6.29194	5.25574	31.43327	22.57234	15.79762
57070	3.15315	2.91355	2.48711	13.97811	12.56936	11.41632	24.62125	15.94594	9.41687	9.10842	8.83270	8.34619	7.65696	6.28939	5.25744	31.45055	22.56737	15.79844
57230	3.15606	2.90985	2.48718	13.97938	12.56720	11.41386	24.54402	15.94121	9.41359	9.10737	8.83110	8.34323	7.65503	6.29447	5.25861	31.44327	22.57563	15.80218
57400	3.15819	2.91430	2.48934	13.98256	12.57230	11.41885	24.56258	15.95554	9.41593	9.10835	8.83495	8.34702	7.65802	6.29236	5.25723	31.43873	22.56570	15.79767
57560	3.15265	2.91300	2.48755	13.97912	12.57098	11.41883	24.58145	15.94504	9.42017	9.11007	8.83431	8.34800	7.65652	6.29198	5.25530	31.44145	22.57470	15.80044
57730	3.15438	2.91123	2.48819	13.98033	12.57186	11.41638	24.49665	15.93757	9.41142	9.10758	8.83270	8.34538	7.65826	6.29340	5.25932	31.41867	22.57298	15.80280	33.02	6.1	0.00	-2.04	0.01727	0.01195	0.01512	0.01823	0.01889	0.01477	0.00542	0.01504	0.01997	0.01862	0.01290	0.01643	0.01698	0.01756	0.01372	0.00570	0.01606	0.02145
57890	3.15671	2.91283	2.48620	13.98314	12.57112	11.41720	24.60993	15.93941	9.41496	9.10797	8.83341	8.34708	7.65550	6.28921	5.25545	31.40326	22.57000	15.79645
58050	3.15515	2.91224	2.48790	13.98011	12.57045	11.41692	24.58906	15.94129	9.41230	9.10958	8.83255	8.34874	7.65481	6.29245	5.25587	31.45048	22.56994	15.79682
58220	3.15590	2.91066	2.48377	13.97966	12.56891	11.41525	24.59991	15.93401	9.40893	9.10921	8.83432	8.34717	7.65561	6.29146	5.25573	31.44365	22.57460	15.80144
58380	3.15535	2.91503	2.48670	13.98271	12.57180	11.41819	24.59379	15.94054	9.41379	9.11048	8.83590	8.34880	7.65387	6.28929	5.25315	31.40190	22.56715	15.79598
58550	3.15540	2.91373	2.48616	13.98484	12.57284	11.41938	24.58017	15.93663	9.41537	9.11192	8.83722	8.34874	7.65540	6.29390	5.25545	31.43184	22.57112	15.80102
58710	3.15447	2.91374	2.48417	13.98071	12.57027	11.41692	24.60575	15.92795	9.41148	9.10855	8.83406	8.34698	7.65622	6.29151	5.25832	31.43047	22.57280	15.80260
58880	3.15702	2.91376	2.48904	13.98522	12.57280	11.41998	24.50381	15.93635	9.41393	9.11082	8.83476	8.34915	7.66092	6.29330	5.25658	31.41777	22.57100	15.79953
59040	3.15613	2.91330	2.48684	13.98363	12.57439	11.42087	24.51291	15.93272	9.41580	9.11197	8.83579	8.34943	7.65865	6.29216	5.25552	31.44593	22.56876	15.79898
59210	3.15621	2.91531	2.48890	13.98327	12.57459	11.41919	24.57156	15.93745	9.41536	9.11167	8.83706	8.34853	7.65861	6.29132	5.25892	31.40009	22.56690	15.79940
59370	3.15620	2.91264	2.48573	13.98168	12.57250	11.41807	24.53832	15.92830	9.41345	9.10817	8.83374	8.34819	7.65899	6.29231	5.25810	31.43275	22.57112	15.79955	33.02	6.1	0.00	-2.04	0.01727	0.01195	0.01512	0.01823	0.01889	0.01477	0.00542	0.01504	0.01997	0.01862	0.01290	0.01643	0.01697	0.01756	0.01372	0.00570	0.01606	0.02145
59540	3.15678	2.91272	2.48980	13.98468	12.57463	11.41851	24.56241	15.93467	9.41582	9.10967	8.83402	8.34834	7.65859	6.29460	5.25980	31.41233	22.57472	15.80315
59700	3.15775	2.91581	2.49048	13.98795	12.57774	11.42153	24.55188	15.93514	9.41612	9.11123	8.83802	8.35115	7.65788	6.29115	5.25955	31.44274	22.56938	15.79900
59870	3.15669	2.91126	2.48583	13.98475	12.57549	11.41930	24.52285	15.93409	9.41092	9.10969	8.83528	8.34956	7.65624	6.29054	5.25694	31.42548	22.57087	15.79978
60030	3.15501	2.91326	2.48790	13.98380	12.57341	11.41827	24.54302	15.93194	9.41288	9.10962	8.83446	8.34875	7.65711	6.29474	5.25943	31.41686	22.57255	15.80224
60200	3.15850	2.91615	2.48969	13.98849	12.57827	11.42189	24.56879	15.94395	9.41683	9.11301	8.83604	8.35137	7.65819	6.29310	5.25932	31.41822	22.57448	15.79969
60360	3.15711	2.91226	2.48497	13.98458	12.57391	11.41682	24.56380	15.93565	9.41333	9.10982	8.83518	8.34802	7.65710	6.29119	5.25638	31.42003	22.56510	15.79756
60530	3.15420	2.91355	2.48570	13.98488	12.57245	11.41481	24.52174	15.93201	9.41160	9.10904	8.83403	8.34681	7.65925	6.29463	5.26073	31.43229	22.57876	15.80318
60690	3.15667	2.91517	2.48880	13.98853	12.57672	11.42034	24.60965	15.93737	9.41694	9.11289	8.83684	8.35123	7.65559	6.28830	5.25485	31.42503	22.57156	15.80042
60850	3.15882	2.91483	2.49016	13.98771	12.57704	11.42451	24.55825	15.94622	9.42242	9.11531	8.84059	8.35382	7.65819	6.29407	5.25854	31.43683	22.57901	15.80351
61020	3.15534	2.91524	2.48638	13.98861	12.57761	11.42244	24.56291	15.93831	9.41561	9.11310	8.83716	8.35118	7.66060	6.29231	5.25619	31.46420	22.57950	15.80315	33.02	6.1	0.00	-2.04	0.01727	0.01195	0.01512	0.01823	0.01889	0.01477	0.00542	0.01504	0.01997	0.01862	0.01290	0.01643	0.01698	0.01756	0.01372	0.00570	0.01606	0.02145
61180	3.15764	2.91378	2.48682	13.98881	12.57715	11.42149	24.61350	15.94563	9.41426	9.11468	8.84073	8.35305	7.65537	6.28919	5.25316	31.41784	22.57390	15.80082
61350	3.15529	2.91255	2.48695	13.98889	12.57790	11.42217	24.57901	15.94497	9.41769	9.11450	8.84002	8.35350	7.65556	6.28920	5.25591	31.44599	22.57192	15.80381
61510	3.15213	2.90976	2.48416	13.98571	12.57524	11.42165	24.58095	15.92877	9.41418	9.11168	8.83609	8.35001	7.65662	6.28968	5.25324	31.43963	22.57248	15.80277
61680	3.15329	2.91085	2.48856	13.98911	12.57879	11.42121	24.57234	15.94019	9.41557	9.11261	8.83885	8.35090	7.65251	6.29364	5.25565	31.43781	22.57527	15.80439
61840	3.15545	2.91369	2.48692	13.98945	12.57924	11.42274	24.60347	15.94638	9.41746	9.11369	8.84071	8.35393	7.65522	6.29203	5.25736	31.41965	22.57626	15.80393
62010	3.15617	2.91320	2.48856	13.98894	12.57720	11.42103	24.63079	15.93874	9.41500	9.11321	8.83814	8.35161	7.65840	6.29407	5.25975	31.43554	22.57310	15.80544
62170	3.15990	2.91358	2.48745	13.99029	12.58045	11.42318	24.61852	15.94841	9.41612	9.11557	8.84287	8.35499	7.65712	6.29180	5.25400	31.44008	22.56900	15.80357
62340	3.15805	2.91707	2.49151	13.99218	12.58218	11.42735	24.52390	15.94227	9.41939	9.12005	8.84633	8.35956	7.65779	6.29561	5.25830	31.46284	22.57931	15.80966
62500	3.15987	2.91348	2.48846	13.99255	12.58104	11.42658	24.54574	15.93636	9.41900	9.11659	8.84521	8.35674	7.65461	6.29370	5.25330	31.43054	22.57136	15.80461
62670	3.15519	2.91192	2.48893	13.98988	12.58103	11.42586	24.49704	15.94054	9.41844	9.11772	8.84727	8.35785	7.65875	6.29132	5.25714	31.43082	22.57782	15.80688	33.02	6.1	0.00	-2.04	0.01727	0.01195	0.01512	0.01823	0.01889	0.01477	0.00542	0.01504	0.01997	0.01862	0.01290	0.01643	0.01698	0.01756	0.01372	0.00570	0.01606	0.02145
62830	3.15798	2.91287	2.48568	13.99240	12.58048	11.42427	24.54951	15.93847	9.41777	9.11625	8.84458	8.35550	7.65751	6.29215	5.25841	31.43809	22.57894	15.80891
63000	3.15849	2.91447	2.48886	13.99296	12.58219	11.42614	24.60253	15.94214	9.41891	9.11861	8.84655	8.35683	7.65854	6.29087	5.25777	31.46358	22.57838	15.80770
63160	3.15366	2.91336	2.48616	13.99076	12.58191	11.42658	24.53208	15.93933	9.41625	9.11992	8.84797	8.35932	7.65837	6.29222	5.25798	31.46722	22.58030	15.81015
63330	3.15561	2.91440	2.48618	13.99300	12.58100	11.42421	24.54120	15.93103	9.41244	9.11684	8.84275	8.35704	7.65776	6.29551	5.26116	31.44582	22.58273	15.81231
63490	3.16009	2.91744	2.48941	13.99924	12.58550	11.42705	24.59558	15.93807	9.41631	9.11986	8.84720	8.35983	7.66145	6.29435	5.25617	31.44037	22.58198	15.80957
63660	3.15635	2.91417	2.48882	13.99358	12.58498	11.42908	24.61256	15.94630	9.41378	9.11999	8.84783	8.36074	7.66000	6.29571	5.26059	31.44218	22.58267	15.81091
63820	3.15748	2.91257	2.48815	13.99588	12.58532	11.42912	24.62315	15.93815	9.41738	9.12191	8.85144	8.36115	7.66087	6.29182	5.25888	31.45447	22.58049	15.81237
63990	3.15726	2.91286	2.48899	13.99530	12.58437	11.43043	24.57057	15.93522	9.41385	9.12107	8.84918	8.35966	7.65808	6.29637	5.25994	31.42492	22.58285	15.81453
64150	3.15857	2.91407	2.48879	13.99827	12.58793	11.43307	24.56974	15.93647	9.41750	9.12288	8.85115	8.36338	7.65797	6.29512	5.26076	31.45857	22.58385	15.81153
64320	3.16163	2.91706	2.49157	13.99886	12.58498	11.43275	24.57331	15.95044	9.42002	9.12376	8.85105	8.36291	7.66085	6.29736	5.25929	31.43774	22.58050	15.81390	32.97	6.3	0.00	-2.04	0.01727	0.01195	0.01512	0.01823	0.01889	0.01477	0.00542	0.01504	0.01997	0.01862	0.01290	0.01643	0.01698	0.01756	0.01372	0.00570	0.01606	0.02145
64480	3.15922	2.91539	2.48831	13.99536	12.58308	11.42978	24.56887	15.93525	9.41789	9.12096	8.84727	8.35837	7.65889	6.29546	5.25943	31.42366	22.58380	15.81506
64650	3.16063	2.91305	2.49021	13.99833	12.58428	11.43226	24.59053	15.94280	9.41735	9.12221	8.84991	8.36329	7.65966	6.29279	5.25967	31.45458	22.58349	15.81270
64810	3.15698	2.91315	2.48984	13.99478	12.58306	11.43218	24.56998	15.94194	9.41564	9.12254	8.84948	8.36174	7.65706	6.29380	5.25899	31.41006	22.57833	15.81095
64970	3.15651	2.91185	2.48687	13.99340	12.58063	11.42738	24.57581	15.93744	9.41331	9.12017	8.84730	8.35926	7.65766	6.29170	5.25933	31.41550	22.58778	15.81226
65140	3.15511	2.91387	2.48861	13.99458	12.58271	11.43232	24.58748	15.93834	9.41534	9.12392	8.84936	8.36112	7.65856	6.29326	5.25887	31.45640	22.58460	15.81433
65310	3.15799	2.91493	2.48921	13.99521	12.58176	11.43117	24.58442	15.94253	9.41718	9.12373	8.84929	8.36334	7.66058	6.29663	5.26022	31.46277	22.58821	15.81869
65470	3.15859	2.91946	2.49183	13.99955	12.58421	11.43462	24.55390	15.94923	9.42077	9.12551	8.85140	8.36437	7.65957	6.29635	5.25726	31.43365	22.58809	15.81479
65640	3.15860	2.91423	2.48872	13.99396	12.58156	11.42940	24.55778	15.94468	9.41705	9.12363	8.84813	8.36189	7.66096	6.29382	5.25971	31.45093	22.58056	15.81035
65800	3.15785	2.91607	2.48724	13.99194	12.58040	11.42910	24.56970	15.95577	9.41593	9.12196	8.84906	8.36207	7.65795	6.29466	5.26087	31.46186	22.58218	15.81362
65970	3.15821	2.91333	2.48734	13.99247	12.58086	11.42791	24.55221	15.93952	9.41495	9.12064	8.84605	8.36032	7.65968	6.29774	5.26008	31.44877	22.58512	15.81382	33.02	6.1	0.00	-2.04	0.01727	0.01195	0.01512	0.01823	0.01889	0.01477	0.00542	0.01504	0.01997	0.01862	0.01290	0.01643	0.01698	0.01756	0.01372	0.00570	0.01606	0.02145
66130	3.15966	2.91568	2.48702	13.99535	12.58218	11.42926	24.52566	15.94653	9.41682	9.12015	8.84809	8.35948	7.65909	6.29247	5.25483	31.44149	22.57716	15.80933
66300	3.15775	2.91556	2.48868	13.99604	12.58193	11.43269	24.61778	15.94919	9.42189	9.12370	8.85064	8.36183	7.66424	6.29477	5.25908	31.43013	22.58014	15.81220
66460	3.15828	2.91699	2.48936	13.99352	12.58000	11.42681	24.60720	15.94606	9.41650	9.11968	8.84734	8.35932	7.65551	6.29274	5.25413	31.41742	22.57815	15.80806
66630	3.15482	2.91223	2.48851	13.98802	12.57673	11.42527	24.58494	15.93663	9.41216	9.11736	8.84357	8.35788	7.65861	6.29287	5.25886	31.45878	22.58052	15.81024
66790	3.15694	2.91115	2.48888	13.99189	12.57848	11.42679	24.57245	15.94351	9.41685	9.11784	8.84431	8.35867	7.65933	6.29193	5.25315	31.42377	22.57648	15.80557
66950	3.15612	2.91460	2.48801	13.99021	12.57750	11.42673	24.56579	15.93968	9.41964	9.11970	8.84718	8.35832	7.65681	6.29243	5.25865	31.43104	22.57815	15.80906
67120	3.15479	2.91267	2.48683	13.99055	12.57704	11.42427	24.52760	15.94164	9.41283	9.11730	8.84419	8.35683	7.66098	6.29356	5.25780	31.45423	22.57859	15.81300
67290	3.15773	2.91529	2.48806	13.99049	12.57915	11.42880	24.63061	15.94375	9.41812	9.11957	8.84625	8.35943	7.66061	6.29460	5.25782	31.46243	22.58487	15.81100
67450	3.15723	2.91384	2.48960	13.99141	12.57879	11.42525	24.53589	15.93717	9.41607	9.11978	8.84604	8.35722	7.65822	6.29015	5.25838	31.46334	22.57623	15.81037
67620	3.15584	2.91441	2.48840	13.99187	12.57881	11.42783	24.57159	15.93908	9.41289	9.12033	8.84627	8.36016	7.65813	6.29257	5.25467	31.46250	22.58166	15.80927	32.97	6.2	0.00	-2.04	0.01727	0.01195	0.01512	0.01823	0.01889	0.01477	0.00542	0.01504	0.01997	0.01862	0.01289	0.01643	0.01697	0.01756	0.01372	0.00570	0.01606	0.02145
67780	3.15769	2.91056	2.48678	13.99058	12.57583	11.42327	24.56937	15.94116	9.40922	9.11782	8.84326	8.35868	7.65385	6.29287	5.25457	31.44338	22.58091	15.81225
67950	3.15636	2.91218	2.49040	13.99475	12.57999	11.42990	24.59520	15.93924	9.41833	9.12246	8.84845	8.36270	7.65914	6.29399	5.25772	31.44929	22.58545	15.81269
68110	3.15707	2.91242	2.48849	13.99296	12.57915	11.42730	24.52923	15.93181	9.41501	9.12255	8.84615	8.35934	7.65775	6.29727	5.26196	31.42747	22.59192	15.81810
68280	3.15957	2.91746	2.48910	13.99698	12.58308	11.43158	24.55662	15.93991	9.42001	9.12366	8.84882	8.36198	7.65804	6.29439	5.25655	31.45749	22.58595	15.81300
68440	3.15795	2.91388	2.48714	13.99473	12.58045	11.42958	24.54720	15.94864	9.42032	9.11964	8.84572	8.36005	7.65727	6.29343	5.25560	31.45111	22.58408	15.81147
