WetView ver 7.1	07-20-2019	14:56:15
AC9 Absorption and Attenuation Meter
00000311		; Serial number
2	; structure version number
Reserved
0.000000	0.000000		; Depth calibration
19200			; Baud rate
0.100000			; Path length (meters)
23			; number of temperature calibration bins
				12.61517	13.44096	14.46844	15.49904	16.50682	17.50108	18.49752	19.51783	20.49177	21.49009	22.48286	23.50673	24.54012	25.54812	26.49986	27.49321	28.50960	29.48671	30.47471	31.49432	32.50437	33.48679	34.49133	; temperature bins
a650	Blue	18.61587		0.01156	0.01096	0.01010	0.00930	0.00851	0.00774	0.00661	0.00573	0.00499	0.00402	0.00285	0.00203	0.00096	0.00000	-0.00110	-0.00152	-0.00210	-0.00247	-0.00259	-0.00317	-0.00346	-0.00380	-0.00403		; offset and temperature correction info
a676	Green	18.78942		0.00964	0.00899	0.00863	0.00813	0.00730	0.00639	0.00545	0.00448	0.00385	0.00301	0.00233	0.00165	0.00046	0.00000	-0.00106	-0.00167	-0.00251	-0.00280	-0.00316	-0.00329	-0.00377	-0.00392	-0.00441		; offset and temperature correction info
a715	Brown	18.59217		0.01171	0.01109	0.01043	0.00975	0.00878	0.00789	0.00685	0.00572	0.00469	0.00356	0.00255	0.00160	0.00061	0.00000	-0.00063	-0.00113	-0.00152	-0.00183	-0.00226	-0.00293	-0.00364	-0.00404	-0.00473		; offset and temperature correction info
c510	Red	18.18396		-0.00549	-0.00480	-0.00383	-0.00272	-0.00202	-0.00118	-0.00044	-0.00038	-0.00015	-0.00021	0.00013	0.00007	-0.00007	0.00000	-0.00007	-0.00065	-0.00045	-0.00018	0.00007	0.00039	-0.00001	-0.00002	-0.00045		; offset and temperature correction info
c532	Magenta	18.26528		-0.00721	-0.00645	-0.00581	-0.00518	-0.00465	-0.00345	-0.00281	-0.00270	-0.00182	-0.00141	-0.00108	-0.00072	-0.00022	0.00000	0.00044	0.00030	0.00031	-0.00006	-0.00052	-0.00089	-0.00142	-0.00149	-0.00154		; offset and temperature correction info
c555	Black	18.37125		-0.00430	-0.00419	-0.00381	-0.00319	-0.00286	-0.00254	-0.00205	-0.00196	-0.00138	-0.00137	-0.00067	-0.00051	-0.00030	0.00000	0.00067	0.00087	0.00057	0.00027	-0.00015	-0.00089	-0.00127	-0.00137	-0.00150		; offset and temperature correction info
a412	LtBlue	15.33566		-0.06011	-0.05567	-0.05012	-0.04441	-0.03922	-0.03412	-0.02941	-0.02503	-0.02049	-0.01588	-0.01121	-0.00784	-0.00311	0.00000	0.00273	0.00611	0.00757	0.00871	0.01066	0.01299	0.01539	0.01781	0.02175		; offset and temperature correction info
a440	LtGreen	16.05925		-0.01380	-0.01214	-0.01039	-0.00858	-0.00690	-0.00532	-0.00426	-0.00322	-0.00230	-0.00158	-0.00055	0.00006	0.00001	0.00000	0.00017	0.00016	-0.00094	-0.00222	-0.00363	-0.00486	-0.00567	-0.00651	-0.00782		; offset and temperature correction info
a488	Yellow	16.82827		0.00255	0.00293	0.00331	0.00354	0.00373	0.00378	0.00363	0.00350	0.00291	0.00225	0.00215	0.00142	0.00099	0.00000	-0.00092	-0.00169	-0.00295	-0.00396	-0.00479	-0.00542	-0.00582	-0.00604	-0.00663		; offset and temperature correction info
c650	Blue	18.49287		-0.00570	-0.00516	-0.00456	-0.00403	-0.00346	-0.00232	-0.00132	-0.00122	-0.00073	-0.00066	-0.00035	-0.00016	0.00003	0.00000	0.00044	0.00078	0.00108	0.00057	0.00040	-0.00042	-0.00033	-0.00029	-0.00034		; offset and temperature correction info
c676	Green	18.50570		0.00299	0.00293	0.00287	0.00293	0.00278	0.00294	0.00317	0.00251	0.00243	0.00215	0.00139	0.00123	0.00068	0.00000	-0.00041	-0.00106	-0.00205	-0.00268	-0.00325	-0.00413	-0.00495	-0.00610	-0.00674		; offset and temperature correction info
c715	Brown	17.88888		0.00826	0.00812	0.00773	0.00790	0.00766	0.00758	0.00753	0.00650	0.00571	0.00461	0.00359	0.00222	0.00101	0.00000	-0.00146	-0.00284	-0.00385	-0.00448	-0.00463	-0.00513	-0.00623	-0.00715	-0.00838		; offset and temperature correction info
a510	Red	17.18050		0.00353	0.00364	0.00354	0.00361	0.00381	0.00381	0.00356	0.00332	0.00277	0.00229	0.00176	0.00116	0.00036	0.00000	-0.00014	-0.00069	-0.00088	-0.00147	-0.00150	-0.00129	-0.00120	-0.00134	-0.00091		; offset and temperature correction info
a532	Magenta	17.40228		0.00550	0.00548	0.00526	0.00479	0.00464	0.00422	0.00393	0.00328	0.00253	0.00212	0.00136	0.00085	0.00039	0.00000	-0.00059	-0.00146	-0.00188	-0.00262	-0.00330	-0.00393	-0.00491	-0.00540	-0.00605		; offset and temperature correction info
a555	Black	17.72308		0.00849	0.00832	0.00800	0.00760	0.00724	0.00655	0.00580	0.00495	0.00435	0.00347	0.00252	0.00153	0.00049	0.00000	-0.00050	-0.00155	-0.00214	-0.00306	-0.00350	-0.00411	-0.00470	-0.00539	-0.00570		; offset and temperature correction info
c412	LtBlue	16.72802		-0.05949	-0.05458	-0.04744	-0.04134	-0.03547	-0.03064	-0.02511	-0.02047	-0.01574	-0.01163	-0.00761	-0.00442	-0.00204	0.00000	0.00100	0.00051	-0.00043	-0.00239	-0.00475	-0.00629	-0.00827	-0.00955	-0.01337		; offset and temperature correction info
c440	LtGreen	17.42637		-0.02723	-0.02503	-0.02216	-0.01930	-0.01691	-0.01394	-0.01125	-0.00926	-0.00732	-0.00582	-0.00401	-0.00226	-0.00093	0.00000	0.00082	0.00123	0.00133	0.00097	0.00038	-0.00003	-0.00022	-0.00023	-0.00125		; offset and temperature correction info
c488	Yellow	18.03666		-0.00640	-0.00554	-0.00465	-0.00357	-0.00276	-0.00154	-0.00067	-0.00031	-0.00014	-0.00012	0.00046	0.00032	0.00020	0.00000	0.00001	-0.00024	-0.00060	-0.00084	-0.00126	-0.00180	-0.00276	-0.00304	-0.00427		; offset and temperature correction info
0.003500	0.004000	0.015000	0.020000	0.015000	0.020000	2500.000000	2000.000000	1000.000000	; maxANoise	maxCNoise	maxADifference	maxCDifference	minACounts	minCCounts	minRCounts	maxTempSdev	maxDepthSdev
0			; auxilliary capabilities
1			; acquisition binsize
0	1.36897	1.25383	0.88876	6.36882	5.24592	4.35004	20.61607	12.63968	6.50953	2.53638	2.43396	2.06005	5.03924	3.91588	3.04195	21.67849	13.85328	7.80185	31.53	6.0	0.00	-2.04	0.01747	0.01209	0.01529	0.01840	0.01903	0.01489	0.00549	0.01522	0.02023	0.01894	0.01325	0.01689	0.01719	0.01776	0.01387	0.00571	0.01609	0.02159
160	1.36431	1.24939	0.88709	6.36353	5.24384	4.34748	20.57836	12.64440	6.50854	2.53588	2.43171	2.05864	5.04105	3.91629	3.04032	21.68413	13.85328	7.79946
320	1.36435	1.24772	0.88586	6.36184	5.24099	4.34319	20.60649	12.63990	6.50495	2.53099	2.42823	2.05493	5.03929	3.91726	3.04188	21.67832	13.85317	7.79921
490	1.36483	1.24877	0.88612	6.36095	5.24020	4.34119	20.62049	12.64504	6.50706	2.53004	2.42617	2.05274	5.03684	3.91587	3.03954	21.68088	13.84843	7.79460
650	1.36629	1.25164	0.88731	6.36065	5.23844	4.34052	20.64393	12.64276	6.50615	2.52889	2.42475	2.05084	5.04063	3.91353	3.04119	21.66361	13.84807	7.79397
820	1.36486	1.25000	0.88555	6.35878	5.23610	4.33824	20.61275	12.63706	6.50377	2.52738	2.42244	2.04944	5.03960	3.91645	3.04184	21.66276	13.85066	7.79537
980	1.36639	1.24947	0.88769	6.35875	5.23508	4.33866	20.62012	12.63756	6.50446	2.52746	2.42056	2.04860	5.03636	3.91241	3.03954	21.66618	13.84468	7.79058
1150	1.36804	1.25093	0.89015	6.35805	5.23616	4.33914	20.64227	12.63837	6.51092	2.52810	2.42207	2.04899	5.03899	3.91592	3.04180	21.67951	13.84760	7.79271
1310	1.36718	1.24977	0.88581	6.35615	5.23377	4.33613	20.62123	12.64546	6.50495	2.52493	2.41863	2.04778	5.03415	3.91547	3.03977	21.66447	13.84548	7.79118
1480	1.36524	1.25226	0.88626	6.35519	5.23212	4.33485	20.62510	12.64354	6.50548	2.52416	2.41742	2.04613	5.03651	3.91512	3.04003	21.65900	13.84623	7.79024
1650	1.36566	1.24831	0.88882	6.35467	5.23175	4.33556	20.62589	12.64574	6.50558	2.52575	2.41831	2.04890	5.03400	3.91338	3.03823	21.65699	13.84405	7.78987	31.58	5.9	0.00	-2.04	0.01747	0.01209	0.01529	0.01839	0.01903	0.01489	0.00549	0.01522	0.02023	0.01894	0.01325	0.01689	0.01718	0.01776	0.01387	0.00571	0.01609	0.02159
1810	1.36839	1.25193	0.88798	6.35682	5.23536	4.33875	20.65656	12.64949	6.50998	2.52856	2.42162	2.05072	5.03732	3.91700	3.04213	21.67681	13.84607	7.79263
1970	1.36710	1.25073	0.88710	6.35401	5.23117	4.33654	20.60470	12.63990	6.50318	2.52411	2.41840	2.04671	5.03410	3.91115	3.03750	21.66672	13.84301	7.78887
2140	1.36493	1.24721	0.88457	6.34989	5.22622	4.33330	20.61741	12.63792	6.49934	2.52207	2.41680	2.04310	5.03260	3.91185	3.04109	21.64811	13.84107	7.78925
2310	1.36557	1.25027	0.88727	6.34957	5.22693	4.33206	20.63863	12.63373	6.50111	2.52185	2.41626	2.04618	5.03491	3.91336	3.04195	21.67185	13.84617	7.79205
2470	1.36855	1.24999	0.88768	6.35317	5.23065	4.33744	20.61649	12.64435	6.50202	2.52645	2.41995	2.04797	5.03498	3.91215	3.04024	21.65579	13.84674	7.79152
2640	1.36751	1.24693	0.88662	6.35157	5.22891	4.33717	20.62405	12.63812	6.49798	2.52678	2.42007	2.04928	5.03172	3.90975	3.03769	21.65699	13.84140	7.79059
2800	1.36518	1.24737	0.88776	6.35143	5.22991	4.33768	20.62921	12.63075	6.49912	2.52836	2.42147	2.05221	5.03143	3.91132	3.03820	21.67134	13.84166	7.79132
2970	1.36610	1.24944	0.88537	6.35371	5.23121	4.33553	20.63770	12.62528	6.49830	2.52541	2.41858	2.04867	5.03478	3.91320	3.04203	21.66416	13.84604	7.79413
3130	1.36812	1.24954	0.88772	6.35763	5.23481	4.33992	20.60728	12.63637	6.50171	2.53103	2.42485	2.05732	5.03434	3.91338	3.04041	21.67903	13.85081	7.79539
3300	1.36641	1.24876	0.88473	6.36127	5.23846	4.34344	20.62729	12.63890	6.49959	2.53322	2.42597	2.05766	5.03391	3.91177	3.03978	21.66506	13.84815	7.79442	31.53	5.9	0.00	-2.04	0.01747	0.01209	0.01529	0.01840	0.01903	0.01489	0.00549	0.01522	0.02023	0.01894	0.01325	0.01689	0.01718	0.01776	0.01387	0.00571	0.01609	0.02159
3460	1.37050	1.25639	0.89220	6.36301	5.24013	4.34355	20.69914	12.65331	6.50738	2.53589	2.42632	2.05708	5.04025	3.91804	3.04429	21.67668	13.84810	7.79611
3630	1.36948	1.25212	0.88756	6.35844	5.23539	4.33710	20.66186	12.64594	6.49995	2.52834	2.41964	2.04995	5.03426	3.91090	3.03963	21.65976	13.83782	7.78700
3790	1.36775	1.25074	0.88872	6.35341	5.23135	4.33354	20.66463	12.63693	6.50190	2.52428	2.41815	2.04865	5.03307	3.90989	3.03473	21.65566	13.83617	7.78361
3960	1.36622	1.25258	0.88826	6.35274	5.23198	4.33541	20.63431	12.63487	6.50239	2.52422	2.41499	2.04406	5.03485	3.91172	3.03710	21.66950	13.83751	7.78438
4120	1.36662	1.24933	0.88477	6.34638	5.22386	4.32473	20.66260	12.63848	6.49825	2.51915	2.40904	2.03906	5.03531	3.91427	3.03994	21.64816	13.83619	7.78327
4280	1.36699	1.24619	0.88385	6.34729	5.22611	4.32574	20.61881	12.63612	6.49775	2.51985	2.41053	2.04088	5.03228	3.90757	3.03363	21.64765	13.83138	7.77983
4450	1.36488	1.24626	0.88587	6.34762	5.22656	4.32723	20.63412	12.63265	6.49814	2.52226	2.41243	2.04220	5.03128	3.90847	3.03500	21.66677	13.83286	7.78082
4610	1.36345	1.24363	0.88152	6.34479	5.22217	4.32459	20.62084	12.62696	6.49097	2.51782	2.40844	2.03943	5.03167	3.90691	3.03585	21.64748	13.83265	7.78153
4780	1.36123	1.24444	0.88180	6.34418	5.22233	4.32484	20.59745	12.62634	6.49023	2.51834	2.40999	2.03966	5.02674	3.90538	3.03183	21.64816	13.83128	7.78097
4940	1.36067	1.24261	0.88089	6.34716	5.22425	4.32836	20.61494	12.62834	6.49552	2.52010	2.41110	2.04072	5.02586	3.90365	3.02924	21.64877	13.83144	7.77931	31.53	6.1	0.00	-2.04	0.01747	0.01209	0.01529	0.01840	0.01903	0.01489	0.00549	0.01522	0.02023	0.01894	0.01325	0.01689	0.01718	0.01776	0.01387	0.00571	0.01609	0.02159
5110	1.35905	1.24316	0.88130	6.34526	5.22189	4.32561	20.57430	12.62739	6.49017	2.51779	2.41179	2.04003	5.02651	3.90532	3.03478	21.66072	13.83509	7.78545
5270	1.36379	1.24533	0.88304	6.34984	5.22695	4.33167	20.58531	12.62190	6.49437	2.52161	2.41622	2.04487	5.02645	3.90664	3.03014	21.66004	13.83638	7.78270
5430	1.35890	1.24096	0.88048	6.34712	5.22462	4.32806	20.64354	12.62379	6.48675	2.51933	2.41337	2.04245	5.02404	3.90137	3.02740	21.65355	13.83237	7.78007
5600	1.35844	1.23952	0.87881	6.34550	5.22201	4.32704	20.54955	12.61513	6.48697	2.51800	2.41302	2.04191	5.02440	3.90291	3.03279	21.66106	13.83693	7.78481
5760	1.36223	1.24557	0.88205	6.34974	5.22765	4.33148	20.62563	12.61657	6.49010	2.52265	2.41675	2.04622	5.02438	3.90217	3.03103	21.66089	13.83682	7.78217
5930	1.35803	1.24359	0.88179	6.34866	5.22824	4.33152	20.60426	12.62068	6.48997	2.52373	2.41721	2.04780	5.02359	3.90133	3.02789	21.66772	13.83742	7.78450
6090	1.35796	1.23819	0.87754	6.34738	5.22604	4.32997	20.63782	12.61469	6.48475	2.52089	2.41442	2.04407	5.01911	3.89703	3.02829	21.64264	13.83268	7.78102
6250	1.35545	1.23726	0.87760	6.34597	5.22480	4.32761	20.57118	12.61164	6.48242	2.51968	2.41324	2.04259	5.01866	3.89658	3.02700	21.64946	13.83116	7.77983
6420	1.35341	1.23582	0.87477	6.34282	5.22215	4.32438	20.56861	12.60900	6.47983	2.51640	2.41039	2.03936	5.01794	3.89955	3.02922	21.65543	13.83494	7.78283
6580	1.35685	1.23979	0.87837	6.34731	5.22549	4.32810	20.60245	12.61323	6.48262	2.52016	2.41267	2.04270	5.01862	3.89704	3.02572	21.67323	13.83521	7.77983	31.53	6.0	0.00	-2.04	0.01747	0.01209	0.01529	0.01840	0.01903	0.01489	0.00549	0.01522	0.02023	0.01894	0.01325	0.01689	0.01718	0.01776	0.01387	0.00571	0.01609	0.02159
6750	1.35546	1.23949	0.87699	6.34649	5.22629	4.33061	20.57304	12.61705	6.48642	2.52304	2.41512	2.04451	5.01962	3.89805	3.02903	21.67101	13.83565	7.78262
6910	1.35453	1.23717	0.87562	6.34551	5.22318	4.32711	20.57213	12.61292	6.48006	2.51970	2.41245	2.04221	5.02146	3.89906	3.02988	21.64284	13.83648	7.78399
7080	1.35498	1.24179	0.87719	6.34693	5.22550	4.32981	20.58131	12.62249	6.48503	2.52177	2.41333	2.04352	5.01952	3.89791	3.02755	21.64233	13.83405	7.77936
7240	1.35682	1.24231	0.88142	6.34646	5.22745	4.33187	20.60558	12.62016	6.48977	2.52487	2.41318	2.04540	5.02359	3.90169	3.03037	21.64762	13.83477	7.78129
7410	1.35623	1.23879	0.87988	6.34336	5.22314	4.32798	20.55288	12.61223	6.48467	2.52110	2.41094	2.04217	5.01967	3.89550	3.02889	21.64796	13.83185	7.77806
7570	1.35454	1.23829	0.87892	6.33926	5.22074	4.32520	20.55416	12.61206	6.48383	2.52012	2.40893	2.04127	5.02158	3.90035	3.02831	21.65427	13.82936	7.77878
7740	1.35651	1.24007	0.87739	6.34035	5.22187	4.32566	20.55032	12.62224	6.48701	2.51926	2.40974	2.04063	5.01896	3.89856	3.02989	21.64728	13.83309	7.77735
7900	1.35744	1.23954	0.87842	6.34118	5.22240	4.32562	20.61424	12.62069	6.48713	2.51984	2.40971	2.04101	5.02187	3.90048	3.02721	21.65700	13.82965	7.77778
8070	1.35525	1.23835	0.87976	6.33989	5.22366	4.32605	20.59840	12.61966	6.48970	2.52029	2.41257	2.04251	5.02366	3.90101	3.03068	21.65734	13.83405	7.77912
8230	1.35619	1.23810	0.87727	6.34150	5.22320	4.32265	20.55796	12.61302	6.48610	2.51727	2.40902	2.03987	5.02322	3.90160	3.03283	21.65412	13.83581	7.78010	31.58	6.1	0.00	-2.04	0.01747	0.01209	0.01529	0.01840	0.01903	0.01489	0.00549	0.01522	0.02023	0.01894	0.01325	0.01689	0.01718	0.01776	0.01387	0.00571	0.01609	0.02159
8400	1.36010	1.24118	0.88057	6.34608	5.22710	4.32675	20.55283	12.62031	6.48856	2.52011	2.41334	2.04331	5.02325	3.89910	3.02936	21.65002	13.83405	7.77952
8560	1.35664	1.24192	0.87797	6.34597	5.22588	4.32587	20.63429	12.61380	6.48771	2.51889	2.41416	2.04289	5.02250	3.89769	3.03015	21.65446	13.83201	7.77737
8730	1.35747	1.24170	0.88040	6.34720	5.22898	4.32749	20.64575	12.62337	6.49047	2.51964	2.41707	2.04488	5.02380	3.90099	3.02771	21.67256	13.83322	7.78023
8890	1.35821	1.24048	0.87842	6.35059	5.23139	4.33055	20.59100	12.62320	6.48812	2.52057	2.42105	2.04876	5.02385	3.90332	3.03195	21.66231	13.83444	7.78456
9060	1.35900	1.24037	0.88143	6.35572	5.23619	4.33585	20.63282	12.62245	6.49099	2.52524	2.42481	2.05291	5.02126	3.90059	3.03076	21.65599	13.83708	7.78669
9220	1.36023	1.24316	0.88325	6.36061	5.24139	4.34203	20.59615	12.62906	6.49619	2.53175	2.42940	2.05629	5.02570	3.90471	3.03171	21.65360	13.84296	7.79260
9390	1.35766	1.24332	0.88136	6.36231	5.24296	4.34242	20.57410	12.61865	6.49004	2.53180	2.43124	2.05687	5.02300	3.90135	3.03250	21.67034	13.84096	7.79318
9550	1.35837	1.24255	0.88070	6.36759	5.24703	4.34488	20.57336	12.62278	6.49156	2.53501	2.43442	2.06092	5.02432	3.90079	3.03215	21.65924	13.84510	7.79606
9720	1.35821	1.24477	0.88189	6.36994	5.24935	4.34737	20.60111	12.62217	6.48911	2.53873	2.43615	2.06451	5.02423	3.90082	3.03004	21.66248	13.84852	7.80020
9880	1.35820	1.24372	0.88382	6.37301	5.25222	4.35184	20.57314	12.61752	6.49220	2.54094	2.43772	2.06769	5.02622	3.90055	3.02899	21.66408	13.84917	7.79947	31.58	6.2	0.00	-2.04	0.01747	0.01209	0.01529	0.01840	0.01903	0.01489	0.00549	0.01522	0.02023	0.01894	0.01325	0.01689	0.01718	0.01776	0.01387	0.00571	0.01609	0.02159
10050	1.35615	1.24330	0.88280	6.37110	5.24794	4.34944	20.58838	12.61275	6.49132	2.53660	2.42957	2.05815	5.02562	3.90378	3.03483	21.67947	13.85150	7.80205
10210	1.35952	1.24624	0.88452	6.36742	5.24572	4.34582	20.58030	12.62582	6.49327	2.53665	2.42769	2.05798	5.02585	3.90376	3.03167	21.66921	13.84774	7.79566
10380	1.35836	1.24453	0.88194	6.36605	5.24411	4.34413	20.59463	12.62546	6.49305	2.53628	2.42726	2.05857	5.03004	3.90570	3.03637	21.67400	13.84971	7.79927
10540	1.36254	1.24620	0.88625	6.36643	5.24384	4.34392	20.57864	12.62207	6.49415	2.53640	2.42592	2.05743	5.02752	3.90318	3.03378	21.66545	13.84609	7.79446
10710	1.36072	1.24486	0.88450	6.36247	5.24069	4.34102	20.59463	12.61922	6.49625	2.53482	2.42236	2.05466	5.02882	3.90506	3.03200	21.65282	13.84321	7.79054
10870	1.35962	1.24652	0.88290	6.35878	5.23624	4.33454	20.62060	12.62802	6.49204	2.52999	2.41839	2.05179	5.03030	3.90839	3.03685	21.65760	13.84228	7.79275
11040	1.36452	1.24743	0.88672	6.36277	5.23881	4.33960	20.59279	12.62921	6.49758	2.53314	2.42056	2.05408	5.03112	3.90685	3.03383	21.66238	13.84225	7.78906
11200	1.36063	1.24659	0.88427	6.35750	5.23555	4.33537	20.62078	12.62171	6.49797	2.52997	2.41774	2.05038	5.03028	3.90673	3.03306	21.66221	13.83964	7.78720
11360	1.36224	1.24452	0.88441	6.35543	5.23238	4.33175	20.62668	12.61616	6.49384	2.52672	2.41551	2.04744	5.02688	3.90345	3.03219	21.66050	13.83521	7.78561
11530	1.36304	1.24918	0.88712	6.35860	5.23682	4.33752	20.63229	12.62133	6.49239	2.53086	2.42031	2.05151	5.02158	3.89507	3.00659	21.66999	13.84121	7.81192	31.58	6.2	0.00	-2.04	0.01747	0.01209	0.01529	0.01840	0.01903	0.01489	0.00549	0.01522	0.02023	0.01894	0.01325	0.01689	0.01718	0.01776	0.01387	0.00571	0.01609	0.02159
11690	1.34287	1.22253	0.86937	6.37996	5.25848	4.35630	20.18501	12.55427	6.46018	2.54720	2.43660	2.06849	5.00854	3.88920	3.01896	21.68230	13.85385	7.80556
11850	1.35004	1.22738	0.86842	6.37486	5.25369	4.35381	20.62048	12.58892	6.44623	2.56122	2.44745	2.07724	4.85860	3.67626	2.73125	21.69326	13.87001	7.81758
12020	1.18024	1.00460	0.69574	6.38661	5.27696	4.36304	16.76772	12.05785	6.33119	2.55435	2.44897	2.07720	4.96591	3.86229	2.99191	21.69497	13.87313	7.82293
12180	1.33267	1.20395	0.84981	6.38996	5.26944	4.36525	19.38129	12.44040	6.43172	2.55546	2.45043	2.07775	5.01521	3.89660	3.01552	21.69292	13.86545	7.81549
12350	1.28934	1.08160	0.68805	6.38248	5.26156	4.35999	15.97702	11.62443	6.12416	2.55099	2.44666	2.07405	4.66996	3.60844	2.65962	21.67392	13.85982	7.81096
12510	1.09588	0.89489	0.75154	6.39155	5.25636	4.35750	19.90820	12.79286	6.60600	2.54879	2.44369	2.07222	5.17667	4.03246	3.17857	21.67854	13.85831	7.80777
12680	1.43623	1.34952	0.96303	6.38706	5.25347	4.35712	22.49753	12.88363	6.58841	2.54902	2.44242	2.07139	5.15142	4.01104	3.15414	21.69069	13.87043	7.81532
12850	1.42288	1.33266	0.95041	6.37711	5.25317	4.35894	22.15596	12.84749	6.57883	2.55195	2.44799	2.07515	5.13584	3.99948	3.14008	21.68145	13.86892	7.81775
13010	1.41647	1.32127	0.94097	6.38277	5.25918	4.36569	21.90356	12.80642	6.56540	2.55556	2.44769	2.07818	5.11730	3.97968	3.12206	21.68419	13.86080	7.80943
13180	1.40909	1.30863	0.93487	6.37813	5.25685	4.36085	21.72339	12.78482	6.55866	2.55184	2.44630	2.07744	5.10588	3.97277	3.10870	21.68463	13.85878	7.80677	31.58	6.0	0.00	-2.04	0.01747	0.01209	0.01529	0.01840	0.01903	0.01489	0.00549	0.01522	0.02023	0.01894	0.01325	0.01689	0.01718	0.01776	0.01387	0.00571	0.01609	0.02159
13340	1.40153	1.29699	0.92396	6.37670	5.25498	4.35745	21.47950	12.75454	6.54427	2.54891	2.44280	2.07259	5.09103	3.96064	3.09686	21.68070	13.85512	7.80309
13510	1.39199	1.28789	0.91909	6.37042	5.24979	4.35318	21.33111	12.74029	6.53919	2.54552	2.43952	2.07017	5.08398	3.95215	3.08777	21.66531	13.84810	7.79902
13670	1.38969	1.28154	0.91201	6.36517	5.24384	4.34761	21.20207	12.71046	6.52770	2.54043	2.43500	2.06737	5.07458	3.94617	3.08173	21.66650	13.84872	7.79855
13840	1.38553	1.27756	0.90858	6.36386	5.24336	4.34821	21.08703	12.69524	6.52777	2.53941	2.43412	2.06591	5.06763	3.93655	3.07133	21.65336	13.84193	7.79122
14000	1.37952	1.26990	0.90267	6.35717	5.23620	4.34186	20.99778	12.68686	6.51902	2.53402	2.42949	2.06033	5.05968	3.93303	3.06430	21.66240	13.83621	7.78431
14170	1.37768	1.26739	0.90086	6.35234	5.23329	4.33840	20.94849	12.68141	6.51826	2.53197	2.42717	2.05911	5.05804	3.92890	3.06136	21.65233	13.83132	7.78097
14330	1.37352	1.26236	0.89575	6.34791	5.22629	4.33162	20.89718	12.66401	6.50735	2.52553	2.42100	2.05395	5.05264	3.92638	3.05966	21.65097	13.82993	7.77965
14500	1.37440	1.26214	0.89508	6.34743	5.22540	4.33060	20.83161	12.65913	6.50708	2.52475	2.42082	2.05235	5.04707	3.92342	3.05137	21.63699	13.82414	7.77404
14660	1.37233	1.25917	0.89176	6.34312	5.22172	4.32795	20.78407	12.65217	6.50299	2.52275	2.41822	2.05019	5.04244	3.91964	3.04907	21.64091	13.82184	7.77135
14830	1.37100	1.25582	0.89309	6.34172	5.22094	4.32657	20.75830	12.65188	6.50121	2.52340	2.41747	2.05100	5.04187	3.91538	3.04355	21.63780	13.82184	7.77057	31.58	6.2	0.00	-2.04	0.01747	0.01209	0.01529	0.01840	0.01903	0.01489	0.00549	0.01522	0.02023	0.01894	0.01325	0.01689	0.01718	0.01776	0.01387	0.00571	0.01609	0.02159
14990	1.36846	1.25270	0.88908	6.33836	5.21649	4.32311	20.72657	12.63547	6.49628	2.51966	2.41396	2.04747	5.03999	3.91548	3.04605	21.64718	13.82342	7.77141
15160	1.36710	1.25073	0.88900	6.33923	5.21786	4.32465	20.72899	12.62947	6.49782	2.52107	2.41333	2.04782	5.03579	3.90878	3.04050	21.63900	13.81774	7.76624
15320	1.36360	1.24868	0.88692	6.33349	5.21308	4.32116	20.66952	12.62345	6.49316	2.51963	2.41074	2.04598	5.03187	3.90832	3.03660	21.63729	13.81546	7.76354
15490	1.36380	1.24838	0.88573	6.33266	5.21236	4.31987	20.65896	12.62261	6.49083	2.51952	2.41050	2.04492	5.03052	3.90852	3.03961	21.64479	13.81929	7.76465
15650	1.36223	1.24675	0.88661	6.33152	5.21328	4.31924	20.65045	12.62042	6.49261	2.52066	2.40841	2.04563	5.03162	3.90933	3.03543	21.64053	13.82040	7.76535
15820	1.36063	1.24683	0.88517	6.33117	5.21278	4.31964	20.60377	12.60908	6.49247	2.52050	2.41064	2.04618	5.03468	3.90960	3.04175	21.64632	13.82213	7.76925
15980	1.36652	1.24937	0.88695	6.33548	5.21637	4.32193	20.58537	12.62583	6.49472	2.52311	2.41292	2.04878	5.03227	3.90924	3.04001	21.63167	13.82151	7.76752
16150	1.36444	1.24897	0.88673	6.33390	5.21646	4.32360	20.62311	12.62750	6.49549	2.52369	2.41352	2.04870	5.03289	3.90958	3.03723	21.65008	13.82404	7.76965
16310	1.36266	1.24496	0.88360	6.33521	5.21606	4.32083	20.59677	12.61562	6.48777	2.52057	2.41079	2.04612	5.03088	3.90799	3.03780	21.64496	13.82445	7.77092
16480	1.36530	1.24584	0.88535	6.33769	5.21899	4.32408	20.61292	12.61617	6.49216	2.52190	2.41373	2.04854	5.02881	3.90465	3.03379	21.63686	13.82135	7.76794	31.58	6.0	0.00	-2.04	0.01747	0.01209	0.01529	0.01840	0.01903	0.01489	0.00549	0.01522	0.02023	0.01894	0.01325	0.01689	0.01718	0.01776	0.01387	0.00571	0.01609	0.02159
16640	1.36133	1.24582	0.88449	6.33442	5.21593	4.32219	20.60316	12.61856	6.49150	2.52124	2.41322	2.04777	5.02798	3.90663	3.03398	21.63107	13.82016	7.76691
16800	1.36222	1.24423	0.88195	6.33379	5.21547	4.32043	20.56550	12.61848	6.48904	2.52021	2.41189	2.04701	5.02508	3.90473	3.03390	21.65084	13.81742	7.76449
16970	1.36129	1.24660	0.88707	6.33811	5.22006	4.32532	20.58753	12.62669	6.49480	2.52571	2.41676	2.05136	5.02952	3.91046	3.03606	21.64265	13.82210	7.77087
17130	1.36296	1.24265	0.88063	6.33764	5.21786	4.32341	20.59194	12.62206	6.48891	2.52369	2.41533	2.05023	5.02535	3.90904	3.03771	21.64112	13.82132	7.77050
17300	1.36103	1.24166	0.88276	6.33660	5.21842	4.32280	20.57596	12.61587	6.48765	2.52416	2.41593	2.05087	5.02569	3.90491	3.03265	21.64009	13.81853	7.76714
17460	1.35980	1.24383	0.88269	6.33743	5.21978	4.32396	20.59856	12.61856	6.48583	2.52577	2.41763	2.05095	5.02412	3.90465	3.03359	21.63447	13.81817	7.76869
17620	1.36085	1.24139	0.88191	6.33765	5.22000	4.32354	20.59102	12.61507	6.48633	2.52444	2.41698	2.05089	5.02194	3.90170	3.03109	21.63345	13.81951	7.76907
17790	1.36127	1.24325	0.88191	6.33814	5.22136	4.32342	20.57834	12.61670	6.48893	2.52537	2.41747	2.05144	5.02357	3.90168	3.02846	21.64061	13.81763	7.76877
17950	1.36041	1.24100	0.88090	6.33889	5.22304	4.32574	20.56843	12.60813	6.48614	2.52773	2.41946	2.05351	5.01965	3.90131	3.03035	21.65510	13.82047	7.77134
18120	1.36040	1.24133	0.88111	6.34171	5.22484	4.32703	20.55982	12.61010	6.48509	2.52703	2.42128	2.05432	5.02289	3.90239	3.02962	21.64892	13.82133	7.77245	31.64	6.1	0.00	-2.04	0.01747	0.01209	0.01529	0.01840	0.01903	0.01489	0.00549	0.01522	0.02023	0.01894	0.01325	0.01689	0.01718	0.01776	0.01387	0.00571	0.01609	0.02159
18290	1.36108	1.24312	0.88104	6.34380	5.22749	4.33028	20.56844	12.61345	6.48541	2.52909	2.42462	2.05693	5.01927	3.89902	3.02823	21.62728	13.82001	7.77249
18450	1.36130	1.24415	0.88364	6.34947	5.23332	4.33536	20.57835	12.62067	6.48981	2.53295	2.42963	2.06158	5.02718	3.90531	3.03176	21.65352	13.82893	7.77985
18610	1.36273	1.24006	0.88183	6.35035	5.23290	4.33402	20.54865	12.61512	6.48563	2.53060	2.42907	2.05945	5.02013	3.89822	3.02600	21.65045	13.82497	7.77555
18780	1.35961	1.23887	0.87728	6.34814	5.23132	4.33277	20.56257	12.60517	6.48426	2.53072	2.42831	2.05899	5.02077	3.89900	3.02925	21.65574	13.82665	7.77720
18950	1.35924	1.24186	0.87927	6.35109	5.23239	4.33316	20.56330	12.60802	6.48418	2.53107	2.42945	2.05935	5.02135	3.90075	3.03342	21.64653	13.82683	7.78122
19110	1.36025	1.24396	0.88106	6.35516	5.23635	4.33715	20.54828	12.60763	6.48632	2.53404	2.43205	2.06279	5.02009	3.89990	3.02849	21.64755	13.82652	7.77956
19280	1.35826	1.24126	0.87992	6.35370	5.23713	4.33880	20.56899	12.61096	6.48766	2.53658	2.43287	2.06461	5.02260	3.90082	3.03040	21.64414	13.82727	7.78138
19440	1.35866	1.23759	0.88090	6.35422	5.23321	4.33461	20.57027	12.60456	6.48287	2.53219	2.42798	2.05995	5.01873	3.89689	3.02779	21.64090	13.82443	7.77718
19600	1.35811	1.23883	0.87805	6.35131	5.23031	4.33197	20.55945	12.60675	6.48040	2.52944	2.42487	2.05751	5.01972	3.90047	3.02865	21.63766	13.82218	7.77797
19770	1.35781	1.23886	0.87937	6.34975	5.22836	4.33297	20.53376	12.60755	6.48483	2.53208	2.42474	2.05894	5.01933	3.89930	3.02821	21.64200	13.82274	7.77819	31.53	6.0	0.00	-2.04	0.01747	0.01209	0.01529	0.01840	0.01903	0.01489	0.00549	0.01522	0.02023	0.01894	0.01325	0.01689	0.01719	0.01776	0.01387	0.00571	0.01608	0.02159
19930	1.35603	1.24101	0.87860	6.34961	5.22985	4.33499	20.56616	12.60686	6.48326	2.53452	2.42785	2.06257	5.01965	3.89864	3.02747	21.64200	13.82564	7.78224
20100	1.35803	1.24056	0.87974	6.35171	5.22910	4.33533	20.58488	12.61179	6.48176	2.53383	2.42672	2.06113	5.02125	3.90000	3.02906	21.63212	13.82962	7.78620
20270	1.35896	1.24129	0.87971	6.35683	5.23472	4.34075	20.57221	12.61778	6.48185	2.53929	2.43328	2.06809	5.01750	3.89629	3.02687	21.63842	13.82908	7.78765
20430	1.35682	1.24044	0.87886	6.35696	5.23638	4.34157	20.61616	12.61049	6.48276	2.54029	2.43364	2.06838	5.01805	3.89583	3.02490	21.64336	13.83091	7.78738
20600	1.35849	1.24188	0.88054	6.35964	5.24033	4.34649	20.60400	12.61104	6.48417	2.54639	2.43885	2.07382	5.01866	3.90280	3.02714	21.65411	13.83684	7.79338
20760	1.35582	1.23845	0.87837	6.35988	5.23936	4.34680	20.59572	12.60622	6.47809	2.54691	2.43861	2.07351	5.02164	3.90079	3.03088	21.66094	13.84391	7.79866
20930	1.36190	1.23961	0.88148	6.36368	5.24373	4.35158	20.55883	12.60860	6.48049	2.55110	2.44276	2.07615	5.01878	3.89844	3.02733	21.65547	13.84269	7.79655
21090	1.35878	1.23963	0.87929	6.36308	5.24331	4.34926	20.59903	12.60680	6.48004	2.55096	2.44129	2.07719	5.01584	3.89446	3.02896	21.65565	13.84090	7.79590
21260	1.35760	1.24069	0.88144	6.36431	5.24461	4.35250	20.56946	12.60929	6.48415	2.55025	2.43980	2.07709	5.02023	3.90040	3.02798	21.65855	13.84344	7.79371
21420	1.35648	1.23941	0.87849	6.36164	5.24233	4.34801	20.60817	12.60810	6.48206	2.54624	2.43615	2.07122	5.01878	3.89779	3.02920	21.65195	13.83938	7.79408	31.53	6.1	0.00	-2.04	0.01747	0.01209	0.01529	0.01840	0.01903	0.01489	0.00549	0.01522	0.02023	0.01894	0.01325	0.01689	0.01719	0.01776	0.01387	0.00571	0.01608	0.02159
21590	1.35767	1.24017	0.88057	6.36427	5.24454	4.34909	20.57820	12.61018	6.48562	2.54873	2.43992	2.07620	5.01944	3.89809	3.02962	21.65280	13.84228	7.79650
21750	1.35877	1.24055	0.88155	6.36802	5.24844	4.35299	20.58151	12.61259	6.48399	2.55478	2.44571	2.08136	5.01940	3.90105	3.03296	21.67792	13.85534	7.80837
21920	1.35999	1.24149	0.88259	6.37633	5.25854	4.36096	20.57637	12.61598	6.48540	2.56007	2.45265	2.08610	5.02008	3.89903	3.03129	21.67364	13.85508	7.80601
22080	1.35883	1.24234	0.88544	6.37391	5.25688	4.35951	20.61812	12.62061	6.48948	2.55937	2.45007	2.08116	5.02364	3.90620	3.03490	21.67227	13.84969	7.80128
22250	1.36334	1.24190	0.88383	6.36993	5.25075	4.35375	20.57527	12.62241	6.48423	2.54746	2.44063	2.07503	5.02016	3.90222	3.03132	21.66988	13.84886	7.79652
22410	1.36028	1.24246	0.88125	6.36284	5.24533	4.34817	20.63786	12.61204	6.48460	2.54501	2.43820	2.07001	5.02199	3.90290	3.03284	21.67108	13.84655	7.79518
22580	1.36034	1.24075	0.88298	6.35977	5.24387	4.34794	20.63694	12.61437	6.48399	2.54651	2.43823	2.06859	5.02088	3.89999	3.03038	21.64393	13.83294	7.78717
22740	1.35954	1.24397	0.88408	6.35844	5.24083	4.34384	20.58849	12.62871	6.49036	2.54232	2.43709	2.07060	5.02405	3.90115	3.03229	21.65826	13.83669	7.78945
22910	1.36143	1.24213	0.88447	6.35728	5.23822	4.34259	20.58592	12.61614	6.48861	2.54081	2.43620	2.06818	5.01947	3.90137	3.03258	21.64495	13.83428	7.78654
23070	1.35796	1.23783	0.88138	6.35408	5.23423	4.33874	20.60530	12.61861	6.48348	2.53774	2.43382	2.06717	5.01836	3.90005	3.03284	21.64801	13.83275	7.78604	31.64	6.1	0.00	-2.04	0.01747	0.01209	0.01529	0.01840	0.01903	0.01489	0.00549	0.01523	0.02023	0.01894	0.01325	0.01689	0.01719	0.01776	0.01387	0.00571	0.01608	0.02159
23240	1.36116	1.24203	0.88244	6.35383	5.23286	4.33734	20.55572	12.61212	6.48506	2.53683	2.43167	2.06504	5.02012	3.89929	3.02984	21.64852	13.82952	7.78315
23400	1.36000	1.24322	0.88245	6.35407	5.23452	4.34010	20.60401	12.61872	6.48562	2.53810	2.43333	2.06628	5.01798	3.89982	3.03023	21.64187	13.82990	7.78422
23570	1.35718	1.23889	0.87974	6.35136	5.23054	4.33627	20.55847	12.60893	6.47847	2.53408	2.42873	2.06249	5.02000	3.90006	3.03129	21.65773	13.83272	7.78721
23730	1.35995	1.23865	0.88129	6.35311	5.23390	4.34012	20.62133	12.61254	6.48035	2.53719	2.43188	2.06459	5.01797	3.89857	3.02702	21.64937	13.83283	7.78489
23900	1.35734	1.23815	0.87962	6.35028	5.23020	4.33817	20.60107	12.61170	6.48354	2.53446	2.42751	2.06173	5.02004	3.89710	3.03013	21.63641	13.83241	7.78435
24060	1.36054	1.23950	0.88221	6.34919	5.22941	4.33526	20.59298	12.61195	6.48522	2.53274	2.42679	2.06032	5.01914	3.89973	3.02852	21.65585	13.82815	7.78015
24230	1.35863	1.23830	0.88320	6.34622	5.22836	4.33466	20.58930	12.61126	6.48536	2.53240	2.42706	2.05997	5.02056	3.89904	3.02986	21.65398	13.82846	7.78119
24390	1.35817	1.23935	0.88057	6.34462	5.22472	4.33013	20.57222	12.61378	6.48142	2.52782	2.42215	2.05549	5.01898	3.89840	3.02945	21.64698	13.82934	7.77870
24560	1.36056	1.24063	0.88259	6.34474	5.22510	4.33045	20.58085	12.61403	6.48537	2.52817	2.42196	2.05529	5.01868	3.89707	3.02807	21.63232	13.82504	7.77436
24720	1.35803	1.23922	0.87971	6.34022	5.22209	4.32634	20.56578	12.61378	6.48482	2.52519	2.41932	2.05314	5.01901	3.89834	3.02829	21.64012	13.82181	7.77209	31.58	6.1	0.00	-2.04	0.01747	0.01209	0.01529	0.01840	0.01903	0.01489	0.00549	0.01523	0.02023	0.01894	0.01325	0.01689	0.01719	0.01776	0.01387	0.00571	0.01608	0.02159
24880	1.35609	1.23637	0.87866	6.33841	5.22002	4.32321	20.59406	12.60893	6.47846	2.52195	2.41633	2.05092	5.01495	3.89454	3.02575	21.64455	13.81868	7.76657
25050	1.35684	1.23888	0.88113	6.34061	5.22262	4.32650	20.59241	12.61212	6.48745	2.52549	2.42017	2.05353	5.01860	3.89611	3.02606	21.64677	13.82374	7.77226
25210	1.35734	1.23626	0.87969	6.33982	5.22160	4.32385	20.61929	12.60988	6.48110	2.52214	2.41787	2.05146	5.01857	3.89912	3.02583	21.63330	13.82100	7.77173
25380	1.35652	1.23547	0.87873	6.33987	5.22149	4.32408	20.58340	12.61157	6.48057	2.52102	2.41818	2.05134	5.01691	3.89798	3.02376	21.62292	13.81602	7.76685
25540	1.35631	1.23766	0.88027	6.33907	5.22169	4.32488	20.61210	12.60904	6.47793	2.52222	2.41982	2.05192	5.01765	3.89674	3.02711	21.64012	13.81889	7.76879
25700	1.35694	1.23760	0.87933	6.33870	5.22109	4.32333	20.56854	12.60647	6.48318	2.51948	2.41927	2.05114	5.01770	3.89716	3.02887	21.63194	13.81989	7.76776
25870	1.35697	1.23929	0.88148	6.33996	5.22281	4.32424	20.60400	12.61370	6.48047	2.52003	2.41944	2.05001	5.01699	3.89710	3.02863	21.63126	13.81633	7.76584
26030	1.35690	1.23919	0.88073	6.33830	5.22084	4.32226	20.57074	12.60708	6.48270	2.51852	2.41823	2.04979	5.01870	3.89820	3.02905	21.62802	13.81517	7.76668
26200	1.35796	1.23922	0.88060	6.33791	5.22003	4.32233	20.60289	12.61073	6.48164	2.51903	2.41861	2.04903	5.01977	3.89876	3.03100	21.63126	13.81641	7.76766
26370	1.35855	1.24084	0.88104	6.33839	5.22212	4.32352	20.56604	12.61379	6.48281	2.51998	2.42011	2.05070	5.01576	3.89609	3.02803	21.63129	13.81439	7.76605	31.58	5.9	0.00	-2.04	0.01747	0.01209	0.01529	0.01840	0.01903	0.01489	0.00549	0.01523	0.02023	0.01894	0.01325	0.01689	0.01719	0.01776	0.01387	0.00571	0.01608	0.02159
26530	1.35871	1.24122	0.88513	6.34149	5.22571	4.32766	20.63098	12.61488	6.48661	2.52361	2.42364	2.05351	5.02091	3.90132	3.03052	21.62771	13.81941	7.77041
26690	1.35819	1.23578	0.88047	6.34014	5.22183	4.32416	20.61733	12.61066	6.48148	2.51947	2.41959	2.04909	5.01722	3.89705	3.02770	21.63401	13.81230	7.76437
26860	1.35732	1.23742	0.88046	6.33529	5.21796	4.32150	20.58385	12.60681	6.48243	2.51704	2.41672	2.04755	5.01758	3.89825	3.02702	21.62924	13.81277	7.76600
27030	1.35765	1.23839	0.88035	6.33673	5.21809	4.32099	20.61346	12.61066	6.48340	2.51915	2.41767	2.04903	5.01964	3.89961	3.03174	21.62958	13.81814	7.76868
27190	1.36012	1.24008	0.88251	6.33949	5.22229	4.32503	20.59285	12.60917	6.48251	2.52142	2.42033	2.05030	5.01956	3.89859	3.02749	21.63486	13.81331	7.76709
27360	1.35816	1.24105	0.88187	6.33853	5.21952	4.32310	20.60352	12.60828	6.48570	2.52027	2.41910	2.04918	5.02052	3.89811	3.02753	21.62941	13.81241	7.76496
27520	1.35860	1.23971	0.88169	6.33619	5.21899	4.32293	20.58238	12.61432	6.48428	2.52048	2.41854	2.05037	5.01838	3.89636	3.02926	21.62720	13.81550	7.76579
27690	1.35794	1.23718	0.87913	6.33535	5.21487	4.32017	20.57393	12.61399	6.48060	2.51742	2.41463	2.04729	5.02051	3.90212	3.03236	21.61954	13.81362	7.76834
27850	1.36182	1.24001	0.88316	6.33759	5.21706	4.32255	20.57852	12.61050	6.48568	2.51933	2.41645	2.04878	5.02187	3.90034	3.03000	21.63180	13.81398	7.76596
28020	1.36179	1.24063	0.88090	6.33390	5.21459	4.32158	20.59351	12.61315	6.48310	2.51829	2.41483	2.04713	5.01922	3.89641	3.02957	21.62216	13.80921	7.76280	31.58	6.0	0.00	-2.04	0.01747	0.01209	0.01529	0.01840	0.01903	0.01489	0.00549	0.01523	0.02023	0.01894	0.01325	0.01689	0.01719	0.01776	0.01387	0.00571	0.01608	0.02159
28180	1.36130	1.24015	0.88443	6.33594	5.21622	4.32303	20.58340	12.61398	6.48654	2.52076	2.41732	2.04986	5.02204	3.90156	3.03015	21.63101	13.81401	7.76660
28350	1.36150	1.24033	0.88246	6.33548	5.21503	4.32165	20.55974	12.60877	6.48523	2.51959	2.41530	2.04852	5.02067	3.89853	3.03048	21.63442	13.81241	7.76623
28510	1.36065	1.23954	0.88226	6.33359	5.21326	4.32101	20.56707	12.60741	6.48017	2.51873	2.41383	2.04822	5.02238	3.90277	3.03342	21.64038	13.81585	7.76897
28680	1.36023	1.23949	0.88419	6.33680	5.21605	4.32264	20.59094	12.60836	6.48520	2.52071	2.41511	2.04948	5.01998	3.90039	3.03003	21.62386	13.81151	7.76542
28840	1.36334	1.23947	0.88547	6.33702	5.21817	4.32680	20.60381	12.61296	6.48865	2.52811	2.41922	2.05461	5.02478	3.90285	3.03202	21.62829	13.82029	7.77412
29010	1.36115	1.24184	0.88455	6.33915	5.21959	4.32949	20.59682	12.62241	6.48727	2.52940	2.42116	2.05744	5.02435	3.90179	3.03356	21.63050	13.82107	7.77595
29170	1.36118	1.24040	0.88333	6.34265	5.22388	4.33509	20.59572	12.61720	6.48545	2.53467	2.42438	2.06260	5.02177	3.90160	3.02959	21.64175	13.82582	7.77964
29340	1.36032	1.24156	0.88373	6.34524	5.22656	4.33721	20.60786	12.61390	6.48565	2.53743	2.42665	2.06410	5.02343	3.90116	3.03225	21.64158	13.82755	7.78426
29500	1.36394	1.24126	0.88608	6.34829	5.22716	4.33915	20.62131	12.61631	6.48701	2.53854	2.42789	2.06401	5.02084	3.90275	3.03130	21.64106	13.82644	7.77971
29670	1.36195	1.24331	0.88708	6.34520	5.22449	4.33654	20.57376	12.62169	6.48949	2.53523	2.42528	2.06263	5.02410	3.90169	3.03110	21.64150	13.82249	7.77742	31.64	6.3	0.00	-2.04	0.01747	0.01209	0.01529	0.01840	0.01903	0.01489	0.00549	0.01523	0.02023	0.01894	0.01325	0.01689	0.01719	0.01776	0.01387	0.00571	0.01608	0.02159
29830	1.36194	1.24161	0.88443	6.34046	5.21848	4.32932	20.59341	12.61328	6.48546	2.52461	2.41507	2.05211	5.02322	3.90326	3.03068	21.63383	13.81645	7.76933
30000	1.36464	1.24205	0.88557	6.33517	5.21407	4.32283	20.60426	12.62171	6.48753	2.52028	2.41212	2.04989	5.02326	3.90310	3.03004	21.63196	13.81190	7.76489
30160	1.36141	1.24213	0.88436	6.33069	5.20914	4.31945	20.55725	12.61021	6.48678	2.51854	2.40993	2.04716	5.02157	3.89934	3.02925	21.62804	13.81224	7.76420
30320	1.35860	1.23876	0.88143	6.32924	5.20627	4.31625	20.60408	12.60494	6.48305	2.51700	2.40734	2.04530	5.02000	3.89906	3.02511	21.63264	13.80878	7.76073
30490	1.35976	1.24236	0.88517	6.33014	5.20931	4.31895	20.57669	12.61564	6.48857	2.52003	2.41161	2.04907	5.02256	3.89861	3.02875	21.62821	13.81467	7.76632
30650	1.36087	1.24005	0.88162	6.32930	5.20663	4.31651	20.57394	12.60985	6.48524	2.51732	2.40890	2.04636	5.02156	3.90124	3.03009	21.63025	13.81479	7.76775
30820	1.36095	1.24126	0.88281	6.33067	5.20800	4.31928	20.58092	12.61420	6.48453	2.51877	2.41078	2.04720	5.02002	3.89984	3.02802	21.62600	13.81255	7.76543
30980	1.36008	1.24281	0.88689	6.33109	5.20917	4.32107	20.55964	12.61822	6.48814	2.52055	2.41276	2.04951	5.01890	3.90042	3.02900	21.63485	13.81795	7.76848
31150	1.35996	1.23998	0.88511	6.33074	5.20732	4.31858	20.57779	12.60890	6.48034	2.51920	2.41054	2.04771	5.02036	3.90198	3.03068	21.63315	13.81931	7.77374
31310	1.36189	1.23978	0.88417	6.33510	5.21085	4.32230	20.61376	12.61797	6.48375	2.52173	2.41364	2.05050	5.02127	3.89824	3.02943	21.64147	13.81880	7.77036	31.58	6.0	0.00	-2.04	0.01747	0.01209	0.01529	0.01839	0.01903	0.01489	0.00549	0.01523	0.02023	0.01894	0.01325	0.01689	0.01719	0.01776	0.01387	0.00571	0.01608	0.02159
31480	1.35993	1.24346	0.88452	6.33560	5.21230	4.32438	20.61026	12.61498	6.48811	2.52346	2.41563	2.05269	5.02291	3.89942	3.03009	21.64642	13.82216	7.77319
31640	1.36254	1.24325	0.88175	6.33428	5.20859	4.31957	20.60989	12.60782	6.48395	2.51957	2.41052	2.04726	5.02264	3.90324	3.03295	21.62818	13.82128	7.77337
31800	1.36155	1.24277	0.88487	6.33472	5.21045	4.32050	20.62131	12.61902	6.48427	2.52110	2.41202	2.04872	5.02210	3.89950	3.02928	21.62852	13.81888	7.76839
31970	1.36074	1.24092	0.88213	6.33071	5.20746	4.31714	20.55369	12.60633	6.48041	2.51762	2.40938	2.04548	5.01860	3.89892	3.03001	21.63142	13.81451	7.76648
32130	1.35817	1.23598	0.88073	6.32674	5.20325	4.31382	20.56835	12.60771	6.47969	2.51282	2.40514	2.04103	5.01652	3.89750	3.02895	21.63346	13.81537	7.76395
32300	1.36096	1.24171	0.88297	6.32753	5.20513	4.31410	20.55442	12.60769	6.48529	2.51431	2.40525	2.04217	5.02034	3.90207	3.03210	21.62750	13.81289	7.76409
32470	1.36103	1.24106	0.88427	6.32637	5.20391	4.31212	20.57441	12.60999	6.48262	2.51202	2.40448	2.04117	5.02012	3.90265	3.03290	21.63261	13.81531	7.76672
32630	1.36354	1.24258	0.88489	6.33074	5.20828	4.31602	20.59149	12.61570	6.48464	2.51582	2.40822	2.04416	5.01863	3.90103	3.03020	21.62682	13.81568	7.76484
32800	1.35981	1.23907	0.88358	6.32914	5.20708	4.31303	20.61320	12.61098	6.48060	2.51354	2.40754	2.04279	5.01681	3.89710	3.03145	21.63159	13.81188	7.76205
32960	1.35679	1.23927	0.88540	6.32590	5.20625	4.31367	20.59622	12.61345	6.48571	2.51439	2.40787	2.04497	5.02069	3.90055	3.02945	21.64092	13.81337	7.76467	31.58	6.2	0.00	-2.04	0.01747	0.01209	0.01529	0.01839	0.01903	0.01489	0.00549	0.01522	0.02023	0.01894	0.01325	0.01689	0.01719	0.01776	0.01387	0.00571	0.01608	0.02158
33130	1.35772	1.24001	0.88255	6.32779	5.20563	4.31269	20.57362	12.61007	6.48000	2.51271	2.40672	2.04336	5.02046	3.90376	3.03124	21.63428	13.81918	7.76946
33290	1.36248	1.24085	0.88443	6.33358	5.21190	4.31723	20.58519	12.61622	6.48325	2.51664	2.41137	2.04774	5.01974	3.89987	3.02785	21.63462	13.81887	7.76861
33460	1.35896	1.24190	0.88423	6.33580	5.21496	4.32080	20.60358	12.61381	6.48815	2.51993	2.41500	2.05052	5.01883	3.90010	3.02893	21.63734	13.82058	7.77185
33620	1.35880	1.23793	0.88255	6.33592	5.21363	4.31872	20.59861	12.61309	6.48029	2.51598	2.41273	2.04767	5.02066	3.90161	3.03093	21.63666	13.82531	7.77434
33780	1.35953	1.24062	0.88489	6.33965	5.21676	4.32090	20.62292	12.61800	6.48230	2.51864	2.41591	2.04914	5.02026	3.89761	3.02719	21.63257	13.82027	7.76892
33950	1.36030	1.24141	0.88428	6.33703	5.21654	4.31964	20.57821	12.60760	6.48197	2.51663	2.41468	2.04704	5.01704	3.89775	3.02821	21.64348	13.81905	7.77008
34110	1.35656	1.23849	0.88136	6.33460	5.21214	4.31539	20.58005	12.60209	6.48026	2.51292	2.41010	2.04221	5.01803	3.89567	3.02745	21.61998	13.81407	7.76382
34270	1.35968	1.23942	0.88556	6.33461	5.21389	4.31663	20.62108	12.61239	6.48717	2.51440	2.41233	2.04409	5.02036	3.90230	3.03059	21.63479	13.81771	7.76683
34440	1.36008	1.24123	0.88307	6.33325	5.20889	4.31188	20.60063	12.61253	6.48170	2.50993	2.40793	2.03981	5.01974	3.90249	3.02872	21.62100	13.81366	7.76285
34600	1.35688	1.24147	0.88329	6.33128	5.20952	4.31143	20.58766	12.60727	6.48291	2.50919	2.40760	2.03945	5.01920	3.89864	3.03062	21.62060	13.81348	7.76267	31.64	6.2	0.00	-2.04	0.01747	0.01209	0.01529	0.01839	0.01903	0.01489	0.00549	0.01522	0.02023	0.01894	0.01325	0.01689	0.01719	0.01776	0.01387	0.00571	0.01608	0.02158
34770	1.35917	1.24032	0.88321	6.33105	5.20744	4.31023	20.61084	12.61692	6.48419	2.50717	2.40599	2.03859	5.02217	3.90439	3.03487	21.62587	13.81743	7.76744
34930	1.36109	1.24245	0.88704	6.33481	5.21260	4.31457	20.57774	12.61564	6.48776	2.51152	2.41065	2.04181	5.02226	3.90052	3.03139	21.63047	13.81382	7.76350
35100	1.35995	1.24269	0.88557	6.33382	5.21228	4.31463	20.59685	12.61276	6.48675	2.51148	2.41034	2.04274	5.02295	3.90474	3.03332	21.64257	13.81648	7.76674
35260	1.36414	1.24448	0.88753	6.33652	5.21493	4.31638	20.56527	12.61340	6.48824	2.51383	2.41329	2.04465	5.02452	3.90264	3.03207	21.62962	13.81495	7.76546
35430	1.36018	1.24330	0.88655	6.33553	5.21615	4.31712	20.61084	12.61353	6.48856	2.51513	2.41445	2.04720	5.02354	3.90239	3.03239	21.63336	13.81730	7.76811
35590	1.36181	1.24131	0.88389	6.33665	5.21617	4.31713	20.59281	12.60821	6.48371	2.51389	2.41406	2.04512	5.02559	3.90337	3.03262	21.64581	13.82022	7.77084
35760	1.36253	1.24398	0.88635	6.33996	5.21916	4.32018	20.60587	12.61292	6.48523	2.51729	2.41613	2.04915	5.02114	3.89810	3.02871	21.63456	13.82033	7.76958
35920	1.35754	1.24294	0.88584	6.33860	5.21937	4.32169	20.58564	12.61731	6.48519	2.51882	2.41785	2.04998	5.02520	3.90279	3.02957	21.63609	13.82183	7.77125
36080	1.35925	1.24312	0.88525	6.34033	5.21763	4.31849	20.57040	12.60957	6.48535	2.51635	2.41407	2.04700	5.02436	3.90280	3.03200	21.63847	13.81997	7.77171
36250	1.35892	1.24275	0.88647	6.34248	5.21970	4.32016	20.60900	12.61313	6.48653	2.51680	2.41425	2.04655	5.02080	3.90049	3.03106	21.63319	13.81902	7.76739	31.58	6.0	0.00	-2.04	0.01747	0.01209	0.01529	0.01839	0.01903	0.01489	0.00549	0.01522	0.02023	0.01894	0.01325	0.01689	0.01718	0.01776	0.01387	0.00571	0.01608	0.02158
36410	1.36084	1.24611	0.88558	6.34051	5.22005	4.31979	20.59869	12.61335	6.48849	2.51680	2.41468	2.04791	5.02400	3.90110	3.03090	21.63302	13.81765	7.76764
36580	1.35889	1.24297	0.88283	6.33869	5.21655	4.31521	20.61305	12.60822	6.47983	2.51278	2.41124	2.04272	5.02023	3.90053	3.03364	21.62672	13.81979	7.76799
36740	1.36224	1.24342	0.88581	6.33972	5.21735	4.31701	20.57976	12.60786	6.48440	2.51342	2.41187	2.04418	5.02149	3.89816	3.02895	21.64290	13.81357	7.76499
36910	1.35977	1.24407	0.88717	6.34067	5.22045	4.31952	20.57756	12.61188	6.48614	2.51650	2.41471	2.04687	5.02214	3.90219	3.03163	21.63029	13.81966	7.77000
37070	1.36098	1.24156	0.88516	6.33916	5.21862	4.31756	20.58417	12.60542	6.47765	2.51406	2.41244	2.04485	5.01981	3.90147	3.02883	21.64648	13.82225	7.77246
37240	1.36138	1.24203	0.88290	6.34070	5.21997	4.31883	20.57829	12.60024	6.47890	2.51646	2.41489	2.04617	5.01723	3.89513	3.02539	21.64734	13.81739	7.76930
37400	1.35665	1.24312	0.88443	6.34268	5.22340	4.32176	20.55464	12.60243	6.47972	2.51895	2.41841	2.04982	5.01988	3.89635	3.02667	21.64853	13.82284	7.77247
37570	1.35558	1.23995	0.88037	6.34212	5.22174	4.31964	20.61011	12.59858	6.47671	2.51818	2.41585	2.04726	5.01541	3.89535	3.02649	21.63711	13.82261	7.77310
37730	1.35637	1.23910	0.88210	6.34301	5.22233	4.32077	20.58840	12.60703	6.47494	2.51882	2.41773	2.04848	5.01357	3.89429	3.02172	21.64222	13.81749	7.76966
37900	1.35302	1.23301	0.87833	6.33935	5.21813	4.31740	20.59043	12.59493	6.47180	2.51549	2.41420	2.04568	5.01264	3.89149	3.02137	21.63665	13.81953	7.76962	31.64	6.1	0.00	-2.04	0.01747	0.01209	0.01529	0.01839	0.01903	0.01489	0.00549	0.01522	0.02023	0.01894	0.01325	0.01689	0.01718	0.01776	0.01387	0.00571	0.01608	0.02158
38060	1.35457	1.23655	0.87989	6.34223	5.22067	4.32111	20.55923	12.59302	6.47592	2.51960	2.41790	2.04898	5.01601	3.89419	3.02551	21.63648	13.82346	7.77151
38230	1.35633	1.23912	0.88246	6.34376	5.22334	4.32098	20.56619	12.59150	6.47506	2.52051	2.41699	2.04986	5.01899	3.89650	3.02764	21.64330	13.82193	7.77471
38390	1.35678	1.23901	0.88243	6.34492	5.22518	4.32444	20.58969	12.59814	6.47447	2.52273	2.41974	2.05185	5.01382	3.89315	3.02381	21.64961	13.82079	7.77254
38560	1.35504	1.23530	0.87892	6.34295	5.22358	4.32265	20.54769	12.59778	6.47150	2.52210	2.41901	2.05094	5.01121	3.89024	3.02205	21.64347	13.82035	7.77211
38720	1.35267	1.23589	0.88085	6.34308	5.22426	4.32547	20.54897	12.59933	6.47380	2.52483	2.42216	2.05367	5.01210	3.89406	3.02192	21.64568	13.82343	7.77394
38890	1.35336	1.23570	0.87824	6.34297	5.22248	4.32240	20.56216	12.59966	6.47065	2.52292	2.41968	2.05103	5.01406	3.89542	3.02407	21.63324	13.82573	7.77835
39050	1.35485	1.23729	0.87996	6.34691	5.22657	4.32814	20.54659	12.60188	6.47288	2.52719	2.42365	2.05584	5.01068	3.89141	3.02067	21.64057	13.82514	7.77513
39220	1.35389	1.23490	0.87924	6.34436	5.22557	4.32793	20.56436	12.59628	6.47260	2.52774	2.42381	2.05672	5.00909	3.88731	3.02079	21.65865	13.82651	7.77635
39380	1.35313	1.23503	0.87920	6.34690	5.22705	4.33080	20.52868	12.60235	6.47248	2.53034	2.42585	2.05868	5.00861	3.88792	3.02052	21.64193	13.82666	7.77760
39550	1.35061	1.23311	0.87694	6.34462	5.22463	4.32861	20.56540	12.59481	6.46726	2.52725	2.42184	2.05521	5.00876	3.89151	3.02255	21.65530	13.83244	7.78169	31.64	6.1	0.00	-2.04	0.01747	0.01209	0.01529	0.01839	0.01903	0.01489	0.00549	0.01522	0.02023	0.01894	0.01325	0.01689	0.01718	0.01776	0.01387	0.00571	0.01608	0.02158
39710	1.35287	1.23437	0.87914	6.34749	5.22798	4.33166	20.56063	12.59296	6.46995	2.53075	2.42557	2.05895	5.00853	3.88871	3.02193	21.63978	13.82799	7.77859
39880	1.35031	1.23413	0.87920	6.34687	5.22807	4.33329	20.55459	12.59489	6.47246	2.53064	2.42488	2.05896	5.01172	3.89159	3.01903	21.65838	13.83076	7.77949
40040	1.35381	1.23365	0.87785	6.34731	5.22864	4.33448	20.56852	12.59539	6.47125	2.53334	2.42803	2.06209	5.00873	3.89282	3.02031	21.64643	13.82954	7.78192
40210	1.35187	1.23287	0.87895	6.34640	5.22661	4.33180	20.58835	12.59005	6.46763	2.53109	2.42416	2.06004	5.01075	3.89122	3.02244	21.65377	13.83360	7.78442
40370	1.35235	1.23544	0.87895	6.34906	5.22960	4.33447	20.57512	12.59415	6.47271	2.53464	2.42906	2.06278	5.01003	3.88885	3.02200	21.66384	13.83208	7.78293
40540	1.35053	1.23516	0.87927	6.34891	5.22971	4.33554	20.57898	12.59600	6.47081	2.53514	2.42852	2.06319	5.01244	3.89219	3.02275	21.65991	13.83544	7.78621
40700	1.35371	1.23681	0.87986	6.35293	5.23141	4.33790	20.53044	12.59495	6.47303	2.53733	2.42883	2.06475	5.00969	3.89186	3.02132	21.66419	13.83329	7.78668
40870	1.35008	1.23295	0.87800	6.35100	5.23016	4.33669	20.56522	12.58994	6.47031	2.53623	2.42757	2.06454	5.00854	3.88815	3.01699	21.66521	13.83606	7.78528
41030	1.34909	1.23168	0.87857	6.35199	5.23158	4.33701	20.57090	12.59168	6.46955	2.53771	2.42915	2.06534	5.00836	3.89131	3.01833	21.65957	13.83547	7.78696
41200	1.34995	1.23256	0.87764	6.35316	5.23175	4.33660	20.55720	12.59291	6.46791	2.53806	2.42870	2.06400	5.01002	3.88802	3.02045	21.65735	13.83866	7.78784	31.64	6.1	0.00	-2.04	0.01747	0.01209	0.01529	0.01839	0.01903	0.01489	0.00549	0.01522	0.02023	0.01894	0.01325	0.01689	0.01718	0.01776	0.01387	0.00571	0.01608	0.02158
41360	1.35120	1.23381	0.87951	6.35466	5.23227	4.33635	20.53359	12.58907	6.47095	2.53872	2.42897	2.06572	5.00995	3.88909	3.01946	21.65599	13.83649	7.78559
41530	1.35080	1.23549	0.87982	6.35576	5.23562	4.34042	20.54621	12.59731	6.47314	2.54242	2.43265	2.06820	5.01228	3.88906	3.02149	21.66521	13.83833	7.78966
41690	1.35050	1.23364	0.87983	6.35360	5.23192	4.33603	20.55940	12.58799	6.46792	2.53832	2.42922	2.06492	5.00594	3.88723	3.01805	21.65377	13.83514	7.78542
41860	1.34904	1.22996	0.87719	6.35205	5.23061	4.33424	20.54566	12.58904	6.46635	2.53748	2.42751	2.06306	5.00665	3.88826	3.01791	21.64984	13.83468	7.78486
42020	1.35042	1.23382	0.88086	6.35175	5.23054	4.33450	20.54969	12.59443	6.46817	2.53913	2.42874	2.06401	5.00778	3.88775	3.01629	21.65684	13.83359	7.78141
42190	1.35191	1.23404	0.87953	6.35175	5.23174	4.33623	20.57150	12.59164	6.46826	2.54026	2.42833	2.06534	5.00933	3.89047	3.02134	21.65104	13.83256	7.78184
42350	1.35081	1.23146	0.87956	6.34832	5.22806	4.33108	20.55116	12.58716	6.46348	2.53699	2.42584	2.06301	5.00915	3.89183	3.02217	21.65701	13.83820	7.78578
42520	1.35132	1.23320	0.87927	6.35130	5.23154	4.33619	20.53908	12.59712	6.46652	2.54085	2.42906	2.06582	5.00870	3.88883	3.01667	21.65769	13.83432	7.78343
42680	1.35143	1.22932	0.87919	6.35021	5.23089	4.33731	20.57279	12.59269	6.46887	2.54193	2.42987	2.06756	5.00967	3.88834	3.01507	21.65838	13.83577	7.78336
42850	1.35148	1.23463	0.88026	6.35253	5.23447	4.34082	20.58728	12.59077	6.47296	2.54669	2.43329	2.07132	5.00702	3.88913	3.01868	21.64466	13.83867	7.78689	31.58	6.2	0.00	-2.04	0.01747	0.01209	0.01529	0.01839	0.01903	0.01489	0.00549	0.01522	0.02023	0.01894	0.01325	0.01689	0.01718	0.01776	0.01387	0.00571	0.01608	0.02158
43010	1.34995	1.23048	0.87861	6.35301	5.23224	4.33950	20.55480	12.59234	6.46765	2.54584	2.43133	2.06995	5.00752	3.88964	3.02023	21.65677	13.83766	7.78751
43180	1.34978	1.23262	0.87990	6.35264	5.23531	4.34140	20.59022	12.59348	6.46976	2.54977	2.43564	2.07446	5.00521	3.88872	3.02010	21.67215	13.84063	7.78982
43350	1.35188	1.23249	0.87975	6.35382	5.23642	4.34270	20.54949	12.58963	6.46763	2.55134	2.43635	2.07532	5.00697	3.88785	3.02356	21.66821	13.84338	7.79025
43510	1.35397	1.23311	0.87780	6.35573	5.23819	4.34433	20.57773	12.58734	6.46900	2.55318	2.43750	2.07632	5.00857	3.88810	3.01857	21.65131	13.83918	7.78777
43680	1.35203	1.23262	0.88033	6.35371	5.24029	4.34575	20.59114	12.59957	6.47290	2.55597	2.44052	2.08050	5.00958	3.89260	3.02221	21.65250	13.84322	7.79073
43840	1.35164	1.23166	0.88131	6.35464	5.23990	4.34328	20.56800	12.59071	6.46651	2.55377	2.43752	2.07743	5.00600	3.88453	3.01861	21.65506	13.83701	7.78699
44010	1.35186	1.23187	0.87872	6.35231	5.23702	4.34025	20.60181	12.58438	6.46378	2.55179	2.43571	2.07595	5.00568	3.88750	3.01945	21.65899	13.83968	7.78841
44170	1.35152	1.23138	0.87937	6.35452	5.23953	4.34311	20.53412	12.59486	6.46557	2.55457	2.43781	2.07852	5.00474	3.88646	3.01811	21.66633	13.83349	7.78416
44340	1.35183	1.23239	0.88070	6.35572	5.24297	4.34545	20.57259	12.59361	6.46998	2.55737	2.44147	2.08089	5.00625	3.88844	3.02031	21.66463	13.83507	7.78704
44500	1.35162	1.23064	0.87932	6.35602	5.24255	4.34525	20.53051	12.58853	6.46413	2.55704	2.44149	2.08083	5.00507	3.89065	3.01994	21.66580	13.83721	7.78783	31.69	6.1	0.00	-2.04	0.01747	0.01209	0.01529	0.01839	0.01903	0.01489	0.00549	0.01522	0.02023	0.01894	0.01325	0.01689	0.01718	0.01776	0.01387	0.00571	0.01608	0.02158
44670	1.35141	1.22814	0.87798	6.35745	5.24386	4.34709	20.53690	12.58767	6.46292	2.55929	2.44303	2.08249	5.00714	3.88893	3.02043	21.65726	13.84127	7.79211
44830	1.35282	1.23041	0.87957	6.36289	5.24868	4.35129	20.57355	12.58574	6.46507	2.56410	2.44794	2.08693	5.00380	3.88610	3.01916	21.66615	13.84306	7.79135
45000	1.35239	1.23319	0.88186	6.36700	5.25431	4.35604	20.56034	12.59138	6.47047	2.56886	2.45228	2.09103	5.00956	3.88979	3.02095	21.66666	13.84648	7.79676
45160	1.35131	1.23183	0.87877	6.36880	5.25417	4.35686	20.57281	12.58662	6.46826	2.56818	2.45301	2.09128	5.00442	3.88814	3.01933	21.66768	13.84697	7.79686
45330	1.34952	1.22738	0.87785	6.36990	5.25687	4.35694	20.53782	12.58975	6.46560	2.56915	2.45321	2.09260	5.00467	3.88844	3.02014	21.66803	13.84946	7.79993
45490	1.35212	1.22928	0.87861	6.37281	5.25904	4.36119	20.56419	12.58729	6.46752	2.57194	2.45688	2.09531	5.00516	3.88613	3.01781	21.66102	13.84617	7.79867
45660	1.35151	1.23330	0.88066	6.37600	5.26251	4.36429	20.57667	12.58958	6.46740	2.57557	2.46033	2.09832	5.00659	3.88731	3.01938	21.68034	13.85355	7.80167
45820	1.35104	1.23016	0.87995	6.37466	5.26056	4.36328	20.59376	12.58867	6.46528	2.57419	2.45859	2.09779	5.00534	3.88626	3.01779	21.66922	13.85088	7.79974
45990	1.34808	1.22810	0.87875	6.37225	5.26083	4.36363	20.56767	12.58870	6.46814	2.57553	2.45952	2.09879	5.00834	3.88678	3.01764	21.67504	13.85158	7.80174
46150	1.34999	1.22746	0.87734	6.37477	5.26037	4.36207	20.57999	12.58324	6.46449	2.57520	2.45731	2.09703	5.00759	3.88940	3.01853	21.68146	13.85694	7.80617	31.64	6.1	0.00	-2.04	0.01747	0.01209	0.01529	0.01839	0.01903	0.01489	0.00549	0.01522	0.02023	0.01894	0.01325	0.01689	0.01718	0.01776	0.01387	0.00571	0.01608	0.02158
46320	1.35158	1.22963	0.88024	6.37727	5.26499	4.36734	20.55651	12.59007	6.46662	2.57889	2.46076	2.10142	5.00739	3.88760	3.01831	21.68077	13.85528	7.80465
46480	1.34941	1.22952	0.87929	6.37631	5.26538	4.36868	20.55944	12.59073	6.46585	2.58157	2.46271	2.10381	5.00692	3.88723	3.02060	21.66863	13.85878	7.80761
46650	1.34997	1.22650	0.87637	6.37618	5.26383	4.36746	20.57668	12.58788	6.46160	2.58005	2.46232	2.10261	5.00704	3.88973	3.01968	21.68334	13.86197	7.81132
46810	1.35240	1.22678	0.87873	6.38036	5.26880	4.37071	20.55999	12.58832	6.46360	2.58332	2.46606	2.10670	5.00613	3.88473	3.01697	21.68505	13.86049	7.80924
46970	1.34996	1.22862	0.87692	6.38157	5.26998	4.37296	20.52724	12.58202	6.46279	2.58656	2.46790	2.10879	5.00490	3.88418	3.01757	21.68728	13.85909	7.81114
47140	1.34879	1.22715	0.87712	6.38051	5.27012	4.37168	20.52778	12.58318	6.46038	2.58615	2.46841	2.10947	5.00579	3.88688	3.01662	21.68574	13.86438	7.81559
47300	1.34919	1.22947	0.87965	6.38514	5.27434	4.37524	20.53674	12.58152	6.46757	2.58917	2.47114	2.11302	5.00577	3.88741	3.01800	21.69413	13.86400	7.81407
47470	1.35129	1.23070	0.88118	6.38742	5.27656	4.37926	20.54644	12.58755	6.46775	2.59179	2.47365	2.11517	5.00764	3.88772	3.02116	21.68796	13.86423	7.81665
47630	1.34822	1.22853	0.87861	6.38568	5.27546	4.37744	20.56054	12.58650	6.46534	2.58984	2.47211	2.11363	5.01006	3.88873	3.02446	21.67376	13.86516	7.81824
47800	1.35266	1.23227	0.87962	6.38915	5.27824	4.37954	20.58675	12.59020	6.46741	2.59187	2.47482	2.11596	5.01034	3.88773	3.02029	21.69248	13.86480	7.81553	31.64	5.9	0.00	-2.04	0.01747	0.01209	0.01528	0.01839	0.01903	0.01489	0.00549	0.01522	0.02023	0.01894	0.01324	0.01689	0.01718	0.01776	0.01387	0.00571	0.01608	0.02158
47960	1.35288	1.23615	0.88301	6.39174	5.28312	4.38515	20.57353	12.59034	6.47189	2.59646	2.48042	2.12091	5.01307	3.89068	3.02522	21.69214	13.86973	7.82275
48130	1.35316	1.23219	0.87968	6.39219	5.28269	4.38287	20.56986	12.58644	6.46690	2.59436	2.47814	2.11950	5.01092	3.88993	3.01891	21.69163	13.86693	7.81980
48290	1.34918	1.23127	0.87839	6.39229	5.28261	4.38328	20.51260	12.58859	6.46927	2.59521	2.47865	2.12005	5.01177	3.88928	3.02185	21.68974	13.86807	7.82134
48460	1.35065	1.23246	0.88077	6.39511	5.28549	4.38535	20.51734	12.59047	6.47081	2.59775	2.48191	2.12317	5.00934	3.88976	3.02237	21.69951	13.87134	7.82413
48620	1.35069	1.23218	0.88155	6.39823	5.28819	4.38852	20.60902	12.59031	6.47014	2.60029	2.48446	2.12603	5.00912	3.88974	3.02177	21.68392	13.87241	7.82398
48790	1.35036	1.23308	0.88252	6.39933	5.29068	4.39103	20.60220	12.59410	6.47127	2.60356	2.48643	2.12780	5.01010	3.89222	3.02187	21.71513	13.87519	7.82750
48950	1.35312	1.23316	0.87993	6.39960	5.29096	4.38901	20.55996	12.59180	6.46946	2.60337	2.48583	2.12636	5.01133	3.89199	3.02542	21.71204	13.87877	7.83022
49120	1.35404	1.23516	0.88179	6.40255	5.29339	4.39172	20.56234	12.58768	6.47032	2.60517	2.48693	2.12859	5.00980	3.89037	3.02225	21.69762	13.87534	7.82700
49280	1.35152	1.23275	0.88025	6.39955	5.29041	4.38890	20.53177	12.58837	6.46781	2.60387	2.48620	2.12753	5.00798	3.88909	3.02088	21.70774	13.87365	7.82703
49450	1.35186	1.23329	0.88194	6.40074	5.29272	4.39128	20.50093	12.59267	6.47244	2.60761	2.48651	2.12975	5.01325	3.89120	3.02294	21.70524	13.87983	7.83072	31.64	6.2	0.00	-2.04	0.01747	0.01209	0.01528	0.01839	0.01903	0.01489	0.00549	0.01522	0.02023	0.01893	0.01324	0.01688	0.01718	0.01776	0.01387	0.00571	0.01608	0.02158
49610	1.34973	1.23279	0.88201	6.40207	5.29440	4.39233	20.57060	12.59306	6.47091	2.60914	2.48949	2.13132	5.01348	3.89207	3.02559	21.71743	13.88613	7.83545
49780	1.35245	1.23694	0.88240	6.40807	5.29899	4.39759	20.53927	12.59084	6.46939	2.61377	2.49419	2.13524	5.01103	3.89187	3.02512	21.70301	13.88790	7.83701
49940	1.35202	1.23331	0.88293	6.41110	5.30312	4.40061	20.57354	12.59472	6.47323	2.61723	2.49790	2.13934	5.01126	3.89189	3.02207	21.70936	13.89141	7.84041
50110	1.35371	1.23464	0.88334	6.41513	5.30831	4.40408	20.56840	12.59101	6.47453	2.62258	2.50286	2.14366	5.01194	3.89377	3.02408	21.72327	13.89716	7.84611
50270	1.35107	1.23360	0.88075	6.41762	5.30970	4.40424	20.57207	12.59300	6.46965	2.62302	2.50333	2.14428	5.01209	3.89521	3.02674	21.72207	13.90302	7.85230
50440	1.35456	1.23547	0.88415	6.42426	5.31579	4.41104	20.56528	12.59494	6.47169	2.62812	2.50813	2.14971	5.01068	3.89165	3.02429	21.72998	13.90411	7.85034
50600	1.35268	1.23411	0.88198	6.42455	5.31763	4.41199	20.57335	12.59267	6.47024	2.63076	2.51072	2.15191	5.00756	3.88904	3.01922	21.72860	13.90461	7.85251
50770	1.35269	1.23536	0.88262	6.42851	5.32263	4.41613	20.57647	12.59474	6.47077	2.63422	2.51569	2.15615	5.01268	3.89348	3.02323	21.73376	13.90909	7.85658
50930	1.34980	1.23166	0.88009	6.43032	5.32339	4.41673	20.56950	12.59004	6.46811	2.63569	2.51611	2.15702	5.00752	3.89148	3.02238	21.72998	13.91100	7.86037
51100	1.35125	1.23419	0.88174	6.43370	5.32673	4.42007	20.57677	12.58941	6.46837	2.63724	2.51727	2.15763	5.01054	3.89242	3.02282	21.73535	13.91733	7.86500	31.64	5.9	0.00	-2.04	0.01747	0.01209	0.01528	0.01839	0.01903	0.01489	0.00549	0.01522	0.02023	0.01893	0.01324	0.01688	0.01718	0.01776	0.01386	0.00571	0.01608	0.02158
51260	1.35497	1.23444	0.88193	6.44031	5.33201	4.42420	20.58191	12.59999	6.47129	2.64189	2.52211	2.16291	5.00850	3.89156	3.01939	21.74154	13.91399	7.86511
51430	1.35074	1.23313	0.88083	6.44025	5.33267	4.42513	20.56777	12.58814	6.46900	2.64267	2.52325	2.16282	5.00693	3.88970	3.02142	21.73793	13.91738	7.86670
51590	1.35256	1.23200	0.88015	6.44263	5.33452	4.42814	20.56484	12.59033	6.46705	2.64586	2.52676	2.16682	5.00620	3.88969	3.02138	21.74947	13.92018	7.87023
51760	1.35161	1.23158	0.87935	6.44699	5.33681	4.42989	20.54084	12.59243	6.46667	2.64802	2.52764	2.16928	5.00800	3.89018	3.02190	21.75223	13.92380	7.87508
51920	1.35272	1.23282	0.88128	6.45045	5.33974	4.43340	20.55952	12.59257	6.46878	2.65222	2.53189	2.17271	5.00528	3.88767	3.02074	21.73845	13.92628	7.87409
52090	1.35473	1.23341	0.88377	6.45367	5.34499	4.43968	20.56832	12.59553	6.47260	2.65810	2.53807	2.17943	5.01132	3.89205	3.02405	21.76533	13.93342	7.88297
52250	1.35340	1.23103	0.87988	6.45618	5.34457	4.44004	20.57108	12.58607	6.46698	2.65930	2.53969	2.18094	5.00423	3.88443	3.01797	21.76361	13.93289	7.88218
52420	1.34928	1.23136	0.87892	6.45557	5.34603	4.44219	20.56612	12.59213	6.46642	2.66031	2.54191	2.18273	5.00287	3.88692	3.01979	21.75705	13.93527	7.88377
52580	1.35056	1.23001	0.88018	6.45999	5.34903	4.44487	20.56172	12.59135	6.46705	2.66431	2.54501	2.18661	5.00624	3.88799	3.01778	21.74533	13.93613	7.88708
52750	1.34977	1.23100	0.88211	6.46335	5.35338	4.44864	20.53880	12.58257	6.47006	2.66716	2.54898	2.18963	5.00400	3.88824	3.01861	21.76571	13.94120	7.89046	31.64	6.1	0.00	-2.04	0.01747	0.01208	0.01528	0.01839	0.01902	0.01489	0.00549	0.01522	0.02022	0.01893	0.01324	0.01688	0.01718	0.01776	0.01386	0.00571	0.01608	0.02158
52910	1.35133	1.23070	0.87814	6.46465	5.35410	4.44978	20.51140	12.58749	6.46580	2.66920	2.55053	2.19093	5.00522	3.88822	3.02327	21.77935	13.94743	7.89629
53080	1.35337	1.23132	0.88235	6.46925	5.36005	4.45521	20.56225	12.59530	6.46826	2.67444	2.55567	2.19588	5.00745	3.88682	3.02028	21.76692	13.94651	7.89728
53240	1.35361	1.23072	0.88042	6.47180	5.36247	4.45734	20.55968	12.59281	6.46915	2.67670	2.55734	2.19837	5.00670	3.88688	3.01897	21.76191	13.94769	7.89859
53410	1.35221	1.23188	0.88171	6.47519	5.36583	4.46105	20.54027	12.59184	6.47019	2.67951	2.56070	2.20105	5.00817	3.88929	3.02125	21.78783	13.95167	7.90108
53570	1.35204	1.23005	0.87897	6.47443	5.36411	4.45827	20.59052	12.58910	6.46419	2.67760	2.55992	2.20009	5.00647	3.88672	3.01862	21.78748	13.95099	7.90121
53740	1.35328	1.23159	0.88093	6.47669	5.36726	4.46306	20.56371	12.59095	6.46665	2.68080	2.56438	2.20413	5.00826	3.88963	3.01987	21.79371	13.95539	7.90533
53910	1.35269	1.23162	0.87998	6.47967	5.37021	4.46454	20.52838	12.58600	6.46600	2.68293	2.56720	2.20640	5.00976	3.89203	3.02477	21.79440	13.96225	7.91291
54070	1.35565	1.23439	0.88272	6.48698	5.37636	4.47012	20.56115	12.59834	6.47329	2.68860	2.57438	2.21225	5.00841	3.89023	3.02093	21.79960	13.96257	7.91220
54240	1.35241	1.23039	0.88194	6.48669	5.37650	4.47107	20.51031	12.58285	6.46754	2.68887	2.57575	2.21307	5.00634	3.88615	3.02144	21.79008	13.96204	7.91149
54400	1.34960	1.22898	0.88172	6.48540	5.37886	4.47484	20.55100	12.58710	6.46726	2.69152	2.57809	2.21514	5.00703	3.88722	3.02064	21.79465	13.96901	7.91757	31.64	6.2	0.00	-2.04	0.01747	0.01209	0.01528	0.01839	0.01902	0.01489	0.00549	0.01522	0.02022	0.01893	0.01323	0.01687	0.01718	0.01776	0.01386	0.00571	0.01608	0.02158
54570	1.35058	1.22798	0.87680	6.49154	5.38229	4.47732	20.57520	12.58365	6.46387	2.69320	2.58049	2.21785	5.00662	3.89007	3.01886	21.80556	13.97554	7.92471
54730	1.35177	1.23077	0.88034	6.49733	5.38935	4.48371	20.56511	12.59122	6.46816	2.69894	2.58635	2.22261	5.00267	3.88706	3.01887	21.81596	13.97614	7.92454
54900	1.35116	1.23048	0.88019	6.50261	5.39512	4.48960	20.57612	12.60127	6.46939	2.70537	2.59466	2.23019	5.00592	3.88913	3.02221	21.81474	13.98449	7.93260
55060	1.35096	1.22961	0.87900	6.50546	5.39560	4.49134	20.56254	12.58533	6.46894	2.70495	2.59392	2.22974	5.00667	3.88904	3.02124	21.81440	13.98940	7.93672
55220	1.35295	1.23163	0.87887	6.50997	5.39953	4.49408	20.61531	12.59698	6.46914	2.70875	2.59695	2.23271	5.00630	3.88672	3.01716	21.80469	13.98583	7.93402
55390	1.35156	1.23197	0.88104	6.50967	5.39925	4.49503	20.57906	12.59280	6.47000	2.71037	2.59914	2.23425	5.00742	3.89029	3.02022	21.81492	13.98935	7.93512
55550	1.35088	1.22836	0.87661	6.51094	5.39925	4.49524	20.55558	12.59131	6.46519	2.70948	2.59935	2.23491	5.00597	3.88485	3.01636	21.81162	13.98772	7.93515
55710	1.35116	1.23415	0.88042	6.51659	5.40721	4.50329	20.55301	12.60482	6.47637	2.71875	2.60879	2.24379	5.01207	3.89042	3.02138	21.82429	13.99758	7.94741
55880	1.35448	1.22943	0.87922	6.51997	5.40958	4.50631	20.57263	12.59419	6.47081	2.72053	2.61158	2.24652	5.01028	3.88830	3.01969	21.83037	14.00484	7.95252
56040	1.35120	1.23161	0.87895	6.52631	5.41526	4.51112	20.59818	12.59150	6.46883	2.72369	2.61338	2.24797	5.00670	3.88475	3.01814	21.83349	14.00503	7.95403	31.64	6.2	0.00	-2.04	0.01746	0.01208	0.01528	0.01839	0.01902	0.01489	0.00549	0.01522	0.02022	0.01892	0.01323	0.01687	0.01718	0.01776	0.01386	0.00571	0.01608	0.02158
56210	1.34853	1.22653	0.87744	6.52745	5.41628	4.51277	20.57980	12.58987	6.46720	2.72612	2.61519	2.25111	5.00805	3.89241	3.02420	21.83158	14.01662	7.96578
56370	1.35423	1.23197	0.88052	6.53917	5.42716	4.52440	20.57686	12.60009	6.47216	2.73544	2.62468	2.25953	5.01061	3.88752	3.02003	21.84532	14.02038	7.96713
56540	1.35082	1.23073	0.87955	6.53998	5.42929	4.52681	20.58053	12.59477	6.47274	2.73711	2.62763	2.26177	5.01133	3.88781	3.02060	21.85506	14.02431	7.97186
56700	1.35086	1.23134	0.88028	6.54320	5.43198	4.53057	20.57576	12.59806	6.47518	2.74024	2.63060	2.26483	5.00848	3.88826	3.02338	21.85959	14.02814	7.97463
56870	1.34965	1.23254	0.88250	6.54622	5.43598	4.53507	20.56988	12.60399	6.47446	2.74326	2.63434	2.26770	5.01032	3.89087	3.02335	21.85524	14.02967	7.98022
57030	1.34978	1.23174	0.87893	6.54937	5.43630	4.53547	20.54642	12.59399	6.47188	2.74243	2.63468	2.26644	5.00926	3.89141	3.02270	21.85924	14.03521	7.98342
57200	1.35267	1.23219	0.88087	6.55363	5.43963	4.53890	20.57007	12.59322	6.47056	2.74379	2.63694	2.26841	5.00848	3.88897	3.02103	21.85245	14.03128	7.98081
57360	1.34791	1.23317	0.88260	6.55205	5.43836	4.53988	20.58163	12.60153	6.47254	2.74530	2.63960	2.27143	5.00929	3.88956	3.02258	21.86290	14.03896	7.98513
57530	1.35305	1.23099	0.88163	6.55409	5.43830	4.53852	20.54313	12.59618	6.47211	2.74322	2.63705	2.26897	5.01014	3.89189	3.02355	21.87337	14.04091	7.98827
57690	1.35216	1.23215	0.87929	6.55578	5.44119	4.54025	20.57809	12.58996	6.46986	2.74340	2.63559	2.26714	5.01109	3.88941	3.01858	21.87728	14.04045	7.98583	31.69	6.0	0.00	-2.04	0.01746	0.01208	0.01528	0.01839	0.01902	0.01489	0.00549	0.01522	0.02022	0.01892	0.01323	0.01686	0.01718	0.01776	0.01386	0.00571	0.01608	0.02158
57850	1.35141	1.23321	0.88228	6.55669	5.44269	4.54277	20.54874	12.59948	6.47211	2.74548	2.63859	2.26899	5.01044	3.88934	3.02206	21.87484	14.04510	7.99081
58020	1.35074	1.23273	0.87741	6.55716	5.44037	4.54131	20.53465	12.59436	6.46857	2.74529	2.63708	2.26827	5.00893	3.88904	3.01982	21.87903	14.04320	7.99135
58180	1.34968	1.23075	0.87882	6.56011	5.43998	4.54105	20.55387	12.59217	6.46653	2.74400	2.63721	2.26765	5.00620	3.88710	3.01967	21.87396	14.04244	7.99108
58350	1.34801	1.22978	0.87898	6.55800	5.43849	4.54026	20.55003	12.59051	6.46865	2.74324	2.63582	2.26714	5.00695	3.89082	3.02152	21.88007	14.04928	7.99572
58510	1.35079	1.23265	0.87993	6.56335	5.44284	4.54425	20.56157	12.58849	6.47200	2.74608	2.63771	2.26957	5.00617	3.88754	3.02202	21.87187	14.04656	7.99276
58670	1.35050	1.23189	0.88174	6.56251	5.44308	4.54456	20.56120	12.59904	6.47386	2.74684	2.63826	2.27069	5.01084	3.88946	3.02247	21.88077	14.04825	7.99523
58840	1.34892	1.23143	0.87792	6.56135	5.43980	4.54184	20.56010	12.58982	6.46785	2.74349	2.63474	2.26781	5.00736	3.88864	3.02264	21.88584	14.04984	7.99454
59000	1.35074	1.23086	0.87920	6.56014	5.43891	4.54051	20.53154	12.59325	6.46946	2.74360	2.63454	2.26664	5.00422	3.88631	3.01834	21.88199	14.04532	7.99052
59170	1.35022	1.23159	0.88128	6.55829	5.43785	4.54062	20.55589	12.60253	6.47224	2.74330	2.63441	2.26722	5.00646	3.88889	3.02097	21.88951	14.04770	7.99186
59330	1.35016	1.22978	0.87872	6.55615	5.43493	4.53805	20.51802	12.58956	6.46683	2.73955	2.63023	2.26336	5.00674	3.88733	3.02050	21.89083	14.04848	7.99314	31.64	6.1	0.00	-2.04	0.01746	0.01208	0.01528	0.01839	0.01902	0.01489	0.00549	0.01522	0.02022	0.01892	0.01322	0.01686	0.01718	0.01776	0.01386	0.00571	0.01608	0.02158
59500	1.34967	1.23133	0.88016	6.55708	5.43457	4.53795	20.56009	12.58986	6.46833	2.73917	2.63064	2.26421	5.00805	3.88918	3.02299	21.87668	14.05322	7.99515
59660	1.35164	1.23265	0.88236	6.55956	5.43696	4.53967	20.55423	12.59028	6.47077	2.74111	2.63103	2.26554	5.00993	3.89127	3.01957	21.89100	14.05004	7.99377
59830	1.35148	1.23047	0.87984	6.55781	5.43524	4.53819	20.53922	12.59069	6.47014	2.74136	2.63068	2.26420	5.00956	3.88869	3.02061	21.88087	14.04914	7.99426
59990	1.34966	1.22799	0.87687	6.55509	5.43127	4.53391	20.54287	12.58690	6.46883	2.73505	2.62594	2.25925	5.00490	3.88470	3.02100	21.87441	14.04510	7.99252
60150	1.34947	1.22850	0.87880	6.55320	5.42954	4.53409	20.55056	12.59152	6.46728	2.73413	2.62400	2.25840	5.00597	3.88600	3.01762	21.87598	14.04531	7.98905
60320	1.34881	1.22962	0.87838	6.54976	5.42657	4.52957	20.62078	12.59307	6.46464	2.73049	2.62112	2.25541	5.00817	3.88966	3.02015	21.88174	14.04909	7.99237
60480	1.35058	1.23171	0.87924	6.55347	5.43060	4.53263	20.58892	12.59523	6.46899	2.73201	2.62227	2.25543	5.00824	3.88828	3.02052	21.88105	14.04248	7.98739
60650	1.35173	1.23184	0.88093	6.55093	5.42861	4.52935	20.55569	12.59310	6.47304	2.73018	2.62151	2.25383	5.01016	3.88763	3.01985	21.85559	14.04227	7.98567
60810	1.35003	1.22870	0.87622	6.54681	5.42319	4.52398	20.55276	12.58886	6.46928	2.72491	2.61639	2.24798	5.00890	3.88712	3.01980	21.87563	14.03715	7.98283
60980	1.35100	1.23124	0.87910	6.54418	5.42169	4.52410	20.53922	12.59328	6.46883	2.72362	2.61547	2.24719	5.00678	3.88540	3.01994	21.86067	14.03572	7.98003	31.64	6.1	0.00	-2.04	0.01746	0.01208	0.01528	0.01839	0.01902	0.01489	0.00549	0.01522	0.02022	0.01892	0.01322	0.01686	0.01718	0.01776	0.01386	0.00571	0.01608	0.02158
61140	1.34962	1.23088	0.87825	6.54363	5.42158	4.52379	20.54746	12.59073	6.46823	2.72341	2.61445	2.24704	5.00856	3.88719	3.02039	21.86852	14.03646	7.98080
61310	1.34936	1.23066	0.87905	6.54433	5.42208	4.52326	20.55625	12.58691	6.46927	2.72323	2.61520	2.24626	5.00722	3.88883	3.02235	21.86015	14.03506	7.98026
61470	1.35077	1.23294	0.88163	6.54433	5.42168	4.52383	20.58525	12.58791	6.47200	2.72335	2.61389	2.24602	5.00766	3.88687	3.02104	21.85701	14.03382	7.97942
61640	1.35140	1.23134	0.88119	6.54437	5.42258	4.52346	20.60604	12.59297	6.47254	2.72276	2.61410	2.24616	5.00699	3.88849	3.02031	21.86137	14.03266	7.97710
61800	1.35045	1.23154	0.88065	6.54048	5.41730	4.51718	20.57533	12.59198	6.46865	2.71669	2.60801	2.24068	5.01040	3.89206	3.02420	21.85580	14.03498	7.97889
61970	1.35199	1.23213	0.88184	6.54013	5.41801	4.51836	20.59720	12.59535	6.46809	2.71764	2.60781	2.24010	5.00761	3.88788	3.02003	21.85876	14.02862	7.97494
62130	1.34977	1.23165	0.88259	6.53588	5.41314	4.51417	20.58782	12.59046	6.47281	2.71212	2.60283	2.23531	5.00638	3.88835	3.02044	21.85458	14.02121	7.96667
62300	1.35140	1.23247	0.88345	6.53442	5.41170	4.51342	20.54197	12.59156	6.47329	2.71120	2.60250	2.23441	5.01089	3.89017	3.01921	21.86555	14.02203	7.96669
62460	1.35349	1.23237	0.88253	6.53000	5.40669	4.50804	20.54178	12.59070	6.47055	2.70560	2.59645	2.22850	5.00695	3.88825	3.02024	21.85162	14.01594	7.96049
62630	1.35046	1.23135	0.88217	6.52506	5.40224	4.50338	20.56649	12.59477	6.47184	2.70201	2.59380	2.22605	5.00792	3.88693	3.01838	21.84365	14.01388	7.95744	31.64	6.2	0.00	-2.04	0.01746	0.01208	0.01528	0.01839	0.01902	0.01489	0.00549	0.01522	0.02022	0.01892	0.01323	0.01686	0.01718	0.01776	0.01386	0.00571	0.01608	0.02158
62790	1.35047	1.22959	0.87904	6.51992	5.39630	4.49802	20.55971	12.59414	6.46948	2.69718	2.58828	2.22127	5.00953	3.88955	3.01853	21.83113	14.01035	7.95481
62960	1.35251	1.23448	0.88017	6.51921	5.39659	4.49681	20.56631	12.59533	6.47052	2.69553	2.58862	2.22112	5.00848	3.88735	3.02155	21.84069	14.00672	7.95072
63120	1.35143	1.23184	0.88383	6.51420	5.39365	4.49427	20.55183	12.60272	6.47903	2.69449	2.58752	2.21932	5.01319	3.89012	3.02188	21.82905	14.00561	7.95029
63290	1.35464	1.23237	0.88144	6.51387	5.39063	4.49007	20.54450	12.59137	6.47430	2.68901	2.58261	2.21420	5.01209	3.89191	3.02618	21.83808	14.00356	7.94844
63450	1.35543	1.23341	0.88427	6.51206	5.38851	4.48910	20.60160	12.60245	6.48130	2.68649	2.57921	2.21246	5.01166	3.89349	3.02292	21.82019	13.99601	7.93990
63610	1.35504	1.23584	0.88647	6.50676	5.38617	4.48673	20.60031	12.60383	6.48077	2.68399	2.57831	2.20973	5.01498	3.89248	3.02538	21.81846	13.99199	7.93721
63780	1.35359	1.23313	0.88167	6.49915	5.37681	4.47910	20.56227	12.60064	6.47366	2.67681	2.57082	2.20285	5.01331	3.89363	3.02418	21.80805	13.98978	7.93193
63940	1.35704	1.23437	0.88481	6.49664	5.37453	4.47717	20.58026	12.60558	6.47890	2.67497	2.56787	2.20027	5.01385	3.89385	3.02694	21.80944	13.98366	7.92522
64110	1.35665	1.23732	0.88731	6.49041	5.36967	4.47349	20.54633	12.60608	6.48154	2.67072	2.56308	2.19585	5.01906	3.89506	3.02950	21.80753	13.97898	7.92131
64270	1.35716	1.23723	0.88533	6.48362	5.36115	4.46585	20.58775	12.60544	6.47938	2.66414	2.55713	2.19084	5.01890	3.89715	3.03209	21.79587	13.97679	7.91722	31.69	6.1	0.00	-2.04	0.01746	0.01208	0.01528	0.01839	0.01902	0.01489	0.00549	0.01522	0.02022	0.01892	0.01323	0.01687	0.01718	0.01776	0.01386	0.00571	0.01608	0.02158
64440	1.36075	1.23828	0.88816	6.47832	5.35698	4.46255	20.60597	12.60572	6.48274	2.66171	2.55329	2.18811	5.01820	3.89892	3.02849	21.78808	13.96646	7.90690
64600	1.36044	1.24124	0.89089	6.47609	5.35645	4.46042	20.63105	12.61123	6.48806	2.65979	2.55205	2.18662	5.02374	3.90095	3.03407	21.79223	13.96365	7.90727
64770	1.35928	1.24111	0.88946	6.47048	5.34840	4.45409	20.59400	12.61378	6.48396	2.65200	2.54333	2.17826	5.02241	3.89776	3.03113	21.78653	13.95378	7.89772
64930	1.35540	1.23926	0.88723	6.46086	5.34011	4.44660	20.55452	12.61001	6.48484	2.64576	2.53725	2.17287	5.01713	3.89467	3.02796	21.77909	13.94760	7.89128
65100	1.35664	1.23913	0.88528	6.45663	5.33728	4.44191	20.58371	12.60275	6.48449	2.64183	2.53295	2.16962	5.01808	3.89600	3.02969	21.77477	13.94504	7.88822
65260	1.35650	1.23854	0.88863	6.45403	5.33312	4.43997	20.59511	12.60355	6.48319	2.63854	2.53052	2.16519	5.01439	3.89389	3.02635	21.75941	13.93855	7.88356
65430	1.35559	1.23851	0.88780	6.45018	5.33122	4.43794	20.54683	12.60796	6.48245	2.63883	2.53051	2.16699	5.01969	3.89881	3.03036	21.75579	13.94093	7.88496
65590	1.35912	1.23933	0.88652	6.45160	5.32968	4.43495	20.57783	12.61251	6.48531	2.63425	2.52690	2.16158	5.02019	3.90143	3.03348	21.75958	13.93790	7.88349
65760	1.36170	1.24025	0.88887	6.45003	5.32799	4.43377	20.59824	12.61306	6.48642	2.63312	2.52341	2.15831	5.01974	3.89854	3.02880	21.75424	13.93134	7.87585
65920	1.35768	1.23944	0.88919	6.44171	5.32190	4.42881	20.58833	12.61546	6.48872	2.62872	2.52053	2.15500	5.02287	3.89736	3.03140	21.75114	13.92323	7.86972	31.69	6.2	0.00	-2.04	0.01746	0.01208	0.01528	0.01839	0.01902	0.01489	0.00549	0.01522	0.02022	0.01893	0.01323	0.01687	0.01718	0.01776	0.01386	0.00571	0.01609	0.02158
66090	1.35729	1.23936	0.88737	6.43420	5.31275	4.41906	20.62832	12.60778	6.47929	2.61790	2.50858	2.14512	5.02006	3.89994	3.03331	21.73375	13.91486	7.86463
66250	1.35743	1.24086	0.88735	6.43079	5.31061	4.41506	20.57768	12.61441	6.48178	2.61514	2.50522	2.14193	5.01831	3.89549	3.02843	21.72928	13.90573	7.85483
66420	1.35766	1.23874	0.88611	6.42441	5.30498	4.41037	20.57584	12.60872	6.48349	2.61137	2.50129	2.13797	5.01965	3.89705	3.03091	21.71570	13.90055	7.85108
66580	1.35863	1.23472	0.88454	6.41759	5.29753	4.40276	20.55877	12.60102	6.47707	2.60279	2.49326	2.13041	5.01813	3.89875	3.03162	21.72103	13.89604	7.84730
66740	1.35738	1.23762	0.88553	6.41498	5.29541	4.39942	20.52382	12.60105	6.47796	2.60005	2.48968	2.12759	5.01375	3.89273	3.02706	21.69855	13.88855	7.83902
66910	1.35748	1.23590	0.88644	6.40946	5.29089	4.39541	20.54723	12.60401	6.48348	2.59719	2.48609	2.12418	5.01853	3.89472	3.02578	21.71347	13.88322	7.83512
67070	1.35409	1.23572	0.88385	6.40161	5.28454	4.38959	20.54943	12.60382	6.47798	2.59033	2.48118	2.12028	5.01426	3.89514	3.02756	21.69906	13.87958	7.83410
67240	1.35505	1.23508	0.88415	6.40504	5.28715	4.39291	20.60453	12.60265	6.47631	2.59272	2.48608	2.12551	5.01679	3.89590	3.02639	21.70386	13.88220	7.83662
67400	1.35375	1.23444	0.88208	6.40652	5.28615	4.39261	20.58355	12.60107	6.47427	2.59209	2.48619	2.12400	5.01555	3.89807	3.03080	21.69512	13.88748	7.84447
67570	1.35739	1.23639	0.88504	6.41349	5.29329	4.39946	20.55801	12.60461	6.47762	2.59875	2.49200	2.12920	5.01798	3.89759	3.02868	21.70469	13.88739	7.84092	31.69	6.1	0.00	-2.04	0.01746	0.01208	0.01528	0.01839	0.01902	0.01489	0.00549	0.01522	0.02022	0.01893	0.01324	0.01688	0.01718	0.01776	0.01386	0.00571	0.01609	0.02158
67730	1.35310	1.23488	0.88440	6.41109	5.29116	4.39610	20.57709	12.59963	6.47572	2.59754	2.49053	2.12687	5.01392	3.89438	3.02560	21.70023	13.88424	7.83692
67900	1.35278	1.23520	0.88595	6.41088	5.29264	4.39791	20.59106	12.60140	6.47623	2.59700	2.49057	2.12783	5.01308	3.89495	3.02707	21.68772	13.88200	7.83704
68060	1.35336	1.23394	0.88391	6.40738	5.28661	4.39187	20.54353	12.60176	6.47452	2.59195	2.48229	2.11894	5.01369	3.89724	3.02921	21.70040	13.88099	7.83707
68230	1.35306	1.23678	0.88572	6.40800	5.28946	4.39311	20.58407	12.60084	6.47889	2.59504	2.48789	2.12527	5.01643	3.90004	3.03166	21.70761	13.89571	7.84442
68390	1.35827	1.23732	0.88635	6.41728	5.29936	4.40375	20.55874	12.60716	6.47882	2.60175	2.49413	2.13020	5.01551	3.89665	3.02988	21.71207	13.89426	7.84411
68560	1.35489	1.23752	0.88418	6.41364	5.29483	4.39783	20.57580	12.60558	6.47686	2.59893	2.48794	2.12394	5.01189	3.89526	3.02727	21.71619	13.89014	7.84499
68720	1.35386	1.23519	0.88543	6.41429	5.29739	4.40004	20.55177	12.60201	6.48049	2.60276	2.49275	2.12922	5.01632	3.89659	3.02604	21.73217	13.89746	7.84863
68890	1.35716	1.23362	0.88604	6.41239	5.29368	4.39732	20.59124	12.59530	6.47880	2.60084	2.49149	2.12466	5.01427	3.90056	3.03254	21.71310	13.89314	7.84504
69050	1.35748	1.23711	0.88689	6.41147	5.29287	4.39316	20.55397	12.59638	6.47992	2.59410	2.48440	2.11866	5.01519	3.89772	3.02857	21.72031	13.88557	7.83712
69220	1.35686	1.23707	0.88566	6.40826	5.28975	4.39022	20.54666	12.59885	6.48020	2.59126	2.48324	2.11856	5.01248	3.89587	3.02697	21.69882	13.88046	7.82863	31.69	6.0	0.00	-2.04	0.01746	0.01208	0.01528	0.01839	0.01902	0.01489	0.00549	0.01522	0.02022	0.01893	0.01324	0.01688	0.01718	0.01776	0.01386	0.00571	0.01609	0.02158
69380	1.35745	1.23569	0.88803	6.40411	5.28698	4.38675	20.57656	12.60486	6.48262	2.59247	2.48388	2.12048	5.01437	3.89913	3.02772	21.71203	13.88852	7.83847
69550	1.35515	1.23377	0.88391	6.40247	5.28302	4.38442	20.54959	12.59993	6.47784	2.58853	2.47988	2.11655	5.01713	3.90004	3.03353	21.71186	13.89461	7.84253
69710	1.35884	1.23892	0.88831	6.40330	5.28487	4.38694	20.57380	12.60653	6.48048	2.59190	2.48073	2.11682	5.01985	3.89990	3.03330	21.71186	13.89058	7.83967
69880	1.35727	1.23634	0.88572	6.40151	5.28352	4.38623	20.57454	12.60661	6.48099	2.58821	2.47765	2.11505	5.01535	3.89600	3.02883	21.70448	13.88683	7.84087
70040	1.35709	1.23722	0.88776	6.40391	5.28881	4.39059	20.56371	12.60339	6.48209	2.59432	2.48262	2.11982	5.01788	3.90084	3.03030	21.71495	13.89063	7.83736
70210	1.35728	1.23621	0.88591	6.40237	5.28504	4.38585	20.58795	12.59647	6.47588	2.58447	2.47495	2.11163	5.01845	3.90123	3.03071	21.71272	13.89034	7.83811
70370	1.35783	1.23688	0.88576	6.40090	5.28460	4.38694	20.55894	12.59985	6.47617	2.58876	2.47605	2.11270	5.01491	3.89732	3.02518	21.71735	13.89130	7.83787
70540	1.35767	1.23697	0.88850	6.40766	5.29266	4.39370	20.57307	12.60495	6.47857	2.59545	2.48494	2.12129	5.02027	3.89974	3.02790	21.73489	13.89776	7.84397
70700	1.35524	1.23481	0.88588	6.40660	5.28914	4.38962	20.56939	12.60240	6.47559	2.59181	2.47974	2.11821	5.01536	3.89499	3.02610	21.71461	13.89182	7.83782
70870	1.35665	1.23466	0.88586	6.40092	5.28732	4.38712	20.55863	12.60153	6.47515	2.59016	2.47838	2.11466	5.01473	3.89793	3.02917	21.70332	13.89444	7.84165	31.69	6.1	0.00	-2.04	0.01746	0.01208	0.01528	0.01839	0.01903	0.01489	0.00549	0.01522	0.02022	0.01893	0.01324	0.01688	0.01718	0.01775	0.01386	0.00571	0.01609	0.02158
71030	1.35793	1.23679	0.88835	6.40566	5.28773	4.38784	20.58305	12.60108	6.47951	2.58979	2.47794	2.11513	5.01716	3.89852	3.02917	21.70350	13.89033	7.83724
71190	1.35550	1.23529	0.88695	6.40078	5.28305	4.38490	20.56872	12.60108	6.48159	2.58787	2.47583	2.11207	5.01581	3.89775	3.02969	21.72272	13.87995	7.82830
71360	1.35755	1.23359	0.88533	6.39422	5.27669	4.37737	20.55753	12.60158	6.47278	2.58127	2.46904	2.10743	5.01747	3.89806	3.03056	21.72117	13.88383	7.83258
71520	1.35697	1.23590	0.88724	6.39506	5.27853	4.38121	20.60034	12.59394	6.47459	2.58695	2.47571	2.11133	5.01526	3.89935	3.02785	21.72478	13.88679	7.83408
71690	1.35507	1.23444	0.88683	6.39674	5.27656	4.37795	20.54672	12.59519	6.47593	2.58315	2.47227	2.10909	5.01712	3.89806	3.02664	21.70607	13.87845	7.82776
71850	1.35549	1.23454	0.88294	6.39381	5.27636	4.37831	20.58066	12.59333	6.47178	2.58440	2.47414	2.11286	5.01582	3.89597	3.02626	21.69990	13.88674	7.83328
72020	1.35361	1.23490	0.88601	6.39912	5.28230	4.38239	20.54141	12.59735	6.47363	2.58809	2.47629	2.11265	5.01155	3.89358	3.02539	21.70521	13.88292	7.83381
72180	1.35611	1.23543	0.88569	6.40483	5.28773	4.39064	20.58562	12.60200	6.47576	2.59417	2.48143	2.12008	5.01554	3.89554	3.02587	21.71551	13.88788	7.83304
72350	1.35505	1.23439	0.88185	6.40214	5.28415	4.38514	20.57202	12.59222	6.47517	2.58540	2.47163	2.10837	5.01513	3.89610	3.02914	21.72289	13.89304	7.83731
72510	1.35352	1.23611	0.88570	6.40669	5.28757	4.39186	20.55499	12.59849	6.47533	2.59298	2.47957	2.11723	5.01685	3.89654	3.02540	21.71794	13.89297	7.83665	31.64	6.1	0.00	-2.04	0.01746	0.01208	0.01528	0.01839	0.01903	0.01489	0.00549	0.01522	0.02022	0.01893	0.01324	0.01688	0.01717	0.01775	0.01386	0.00571	0.01609	0.02158
72680	1.35335	1.23414	0.88517	6.40697	5.29041	4.39226	20.54125	12.59168	6.47315	2.59302	2.48087	2.11875	5.01164	3.89364	3.02595	21.72842	13.89099	7.83811
72840	1.35402	1.23653	0.88659	6.41252	5.29396	4.39408	20.61621	12.59824	6.47880	2.59237	2.48158	2.12201	5.01311	3.89185	3.02518	21.72121	13.89440	7.84308
73010	1.35326	1.23387	0.88272	6.40975	5.29105	4.38949	20.56526	12.59854	6.47163	2.59177	2.47988	2.11636	5.01340	3.89693	3.02692	21.72533	13.89609	7.84371
73170	1.35494	1.23302	0.88494	6.41204	5.28940	4.38787	20.56856	12.59517	6.47392	2.58214	2.47043	2.10820	5.01341	3.89311	3.02189	21.70850	13.88696	7.83211
73340	1.35359	1.23568	0.88290	6.39944	5.28111	4.38453	20.54272	12.59854	6.47306	2.58667	2.47338	2.11074	5.01447	3.89663	3.02487	21.72310	13.89034	7.83343
73500	1.35534	1.23535	0.88513	6.39621	5.28141	4.38621	20.59374	12.59935	6.47413	2.58723	2.47318	2.11095	5.01636	3.89322	3.02285	21.71520	13.88665	7.83316
73670	1.35173	1.23062	0.88245	6.39904	5.27903	4.37975	20.59208	12.59533	6.47307	2.58129	2.46888	2.10621	5.01375	3.89375	3.02112	21.71502	13.88439	7.83129
73830	1.35189	1.23377	0.88284	6.39889	5.28058	4.38218	20.57058	12.58877	6.47388	2.58580	2.47342	2.11037	5.01497	3.89511	3.02819	21.71829	13.88764	7.83600
74000	1.35380	1.23488	0.88607	6.40276	5.28123	4.38074	20.57958	12.59309	6.47804	2.58223	2.47201	2.11030	5.01466	3.89315	3.02436	21.71142	13.89112	7.83511
74160	1.35292	1.23249	0.88215	6.39682	5.27596	4.38026	20.53937	12.59164	6.47085	2.58153	2.46856	2.10883	5.01212	3.89088	3.02398	21.71616	13.88561	7.83299	31.69	6.1	0.00	-2.04	0.01746	0.01208	0.01528	0.01839	0.01903	0.01489	0.00549	0.01522	0.02022	0.01893	0.01324	0.01688	0.01717	0.01775	0.01386	0.00571	0.01609	0.02158
74330	1.35176	1.23078	0.88137	6.39885	5.27941	4.38427	20.60271	12.59474	6.47199	2.58441	2.47291	2.11294	5.01049	3.89023	3.02318	21.72406	13.89433	7.83737
74490	1.35148	1.23159	0.88152	6.39965	5.28103	4.38610	20.59663	12.59446	6.47338	2.58668	2.47287	2.11151	5.01038	3.88886	3.02412	21.71170	13.89829	7.84081
74660	1.34955	1.23400	0.88355	6.40304	5.28276	4.38793	20.58026	12.58671	6.47250	2.58605	2.47010	2.10873	5.01128	3.88875	3.02334	21.69250	13.88455	7.83234
74820	1.35064	1.23317	0.88311	6.39599	5.27744	4.38155	20.53809	12.58976	6.47261	2.58100	2.46814	2.10701	5.01120	3.89275	3.02240	21.70672	13.88881	7.83129
74990	1.35046	1.23213	0.88092	6.39191	5.27446	4.38072	20.57585	12.58563	6.46870	2.58230	2.47044	2.10962	5.01314	3.89370	3.02495	21.71977	13.89404	7.83615
75150	1.35217	1.23406	0.88495	6.40356	5.28319	4.38708	20.55237	12.58887	6.47187	2.58661	2.47410	2.11301	5.01113	3.89201	3.02412	21.72939	13.89422	7.83897
75320	1.35086	1.23378	0.88446	6.40370	5.28295	4.38696	20.53132	12.59073	6.47205	2.58653	2.47508	2.11422	5.01145	3.89148	3.02050	21.72458	13.89560	7.83974
75480	1.35052	1.23521	0.88478	6.40782	5.28723	4.39191	20.58320	12.58978	6.47229	2.59079	2.47767	2.11581	5.01316	3.89242	3.02575	21.71170	13.90157	7.84682
75650	1.35008	1.23146	0.88278	6.40760	5.28633	4.39020	20.56833	12.59092	6.47261	2.58939	2.47711	2.11105	5.01503	3.89596	3.02596	21.71513	13.89219	7.83713
75810	1.35316	1.23533	0.88806	6.40183	5.27702	4.37889	20.53883	12.59727	6.47420	2.58256	2.47183	2.10954	5.01506	3.89351	3.02436	21.70868	13.88824	7.83447	31.69	6.1	0.00	-2.04	0.01746	0.01208	0.01528	0.01839	0.01903	0.01489	0.00549	0.01522	0.02022	0.01893	0.01324	0.01688	0.01718	0.01775	0.01386	0.00571	0.01609	0.02158
75980	1.35166	1.23363	0.88392	6.39982	5.27910	4.38370	20.58653	12.59534	6.47198	2.58352	2.47210	2.10650	5.01148	3.89616	3.02574	21.71297	13.89189	7.83849
76140	1.35316	1.23497	0.88483	6.39957	5.27355	4.37866	20.55074	12.59273	6.47277	2.58131	2.46946	2.10801	5.01130	3.89505	3.02596	21.71949	13.88741	7.82941
76310	1.35073	1.23419	0.88472	6.39265	5.27211	4.37933	20.56302	12.59293	6.47233	2.58008	2.46429	2.10296	5.01357	3.89306	3.02472	21.71554	13.88765	7.83168
76470	1.34969	1.23049	0.88124	6.39479	5.27230	4.37792	20.58671	12.58764	6.46662	2.57668	2.46424	2.10531	5.00967	3.89269	3.02327	21.73049	13.89738	7.84046
76640	1.35256	1.23375	0.88210	6.40374	5.27989	4.38977	20.55880	12.58086	6.46582	2.58993	2.47602	2.11645	5.00798	3.89110	3.02194	21.71812	13.89868	7.84263
76800	1.34880	1.23062	0.88175	6.39903	5.27488	4.38136	20.52621	12.58933	6.46403	2.57845	2.46408	2.10453	5.00560	3.88604	3.02025	21.70319	13.88518	7.82914
76960	1.34743	1.22892	0.87895	6.38751	5.26519	4.37110	20.53865	12.57810	6.45832	2.57152	2.45990	2.10149	5.00567	3.89077	3.01970	21.69736	13.88289	7.82890
77130	1.34883	1.22908	0.88303	6.39106	5.26546	4.37435	20.54323	12.58427	6.46277	2.57720	2.46647	2.10388	5.00325	3.88812	3.01878	21.70370	13.89025	7.83523
77300	1.34791	1.23030	0.88246	6.39783	5.27697	4.38729	20.54359	12.58360	6.46566	2.58159	2.46918	2.10901	5.00323	3.88699	3.01819	21.71486	13.89288	7.83994
77460	1.34909	1.22939	0.88079	6.40046	5.27428	4.38415	20.55326	12.57759	6.45934	2.57696	2.46681	2.10361	5.00519	3.88861	3.01933	21.71523	13.89296	7.83922	31.69	6.1	0.00	-2.04	0.01746	0.01208	0.01528	0.01839	0.01903	0.01489	0.00549	0.01521	0.02022	0.01893	0.01324	0.01688	0.01717	0.01775	0.01386	0.00571	0.01609	0.02158
77630	1.35016	1.23114	0.88165	6.39851	5.27334	4.38247	20.52636	12.57734	6.45993	2.57718	2.46976	2.10642	5.00132	3.88600	3.01675	21.70356	13.88170	7.83034
77790	1.34639	1.22839	0.87968	6.39361	5.26887	4.37661	20.53678	12.58151	6.45704	2.56850	2.45903	2.09642	5.00005	3.88102	3.01397	21.68883	13.87578	7.82399
77960	1.34840	1.22945	0.87789	6.38808	5.26517	4.37471	20.52489	12.57778	6.45950	2.56883	2.46132	2.09898	4.99896	3.88213	3.01627	21.69516	13.87191	7.81994
78120	1.34463	1.22642	0.87894	6.38565	5.26114	4.36991	20.54135	12.57681	6.45477	2.56413	2.45744	2.09368	5.00432	3.88457	3.01605	21.68523	13.87225	7.82263
78290	1.34588	1.22807	0.88139	6.38793	5.26272	4.36800	20.52837	12.57629	6.45730	2.56156	2.45357	2.09112	4.99911	3.88196	3.01096	21.69431	13.87004	7.81997
78450	1.34428	1.22610	0.87768	6.38555	5.26062	4.36945	20.53294	12.57026	6.45456	2.56536	2.45778	2.09528	4.99796	3.88008	3.01282	21.69482	13.86999	7.81821
78620	1.34520	1.22653	0.87732	6.38300	5.26121	4.36889	20.51320	12.57781	6.45601	2.56440	2.45804	2.09591	4.99736	3.88017	3.01250	21.69071	13.87043	7.81935
78780	1.34303	1.22444	0.87619	6.38238	5.25904	4.36823	20.51777	12.56874	6.45167	2.56317	2.45917	2.09700	4.99724	3.88034	3.01254	21.68883	13.87048	7.82202
78950	1.34295	1.22602	0.87745	6.38661	5.26513	4.37234	20.52014	12.57214	6.45488	2.56396	2.45832	2.09555	4.99864	3.88139	3.01423	21.69020	13.87225	7.81971
79110	1.34662	1.22863	0.87765	6.38407	5.26015	4.36953	20.55484	12.57485	6.45529	2.56025	2.45228	2.09423	5.00200	3.88235	3.01543	21.69248	13.86981	7.81769	31.75	6.1	0.00	-2.04	0.01746	0.01208	0.01528	0.01839	0.01902	0.01489	0.00549	0.01522	0.02022	0.01893	0.01324	0.01688	0.01718	0.01776	0.01386	0.00571	0.01608	0.02158
79280	1.34644	1.22505	0.87317	6.38082	5.25753	4.36616	20.12728	12.36570	6.33374	2.55951	2.45284	2.08935	4.86460	3.56925	2.21740	21.68785	13.86503	7.81497
