WetView ver 7.1	07-20-2019	14:53:03
AC9 Absorption and Attenuation Meter
00000311		; Serial number
2	; structure version number
Reserved
0.000000	0.000000		; Depth calibration
19200			; Baud rate
0.100000			; Path length (meters)
23			; number of temperature calibration bins
				12.61517	13.44096	14.46844	15.49904	16.50682	17.50108	18.49752	19.51783	20.49177	21.49009	22.48286	23.50673	24.54012	25.54812	26.49986	27.49321	28.50960	29.48671	30.47471	31.49432	32.50437	33.48679	34.49133	; temperature bins
a650	Blue	18.61587		0.01156	0.01096	0.01010	0.00930	0.00851	0.00774	0.00661	0.00573	0.00499	0.00402	0.00285	0.00203	0.00096	0.00000	-0.00110	-0.00152	-0.00210	-0.00247	-0.00259	-0.00317	-0.00346	-0.00380	-0.00403		; offset and temperature correction info
a676	Green	18.78942		0.00964	0.00899	0.00863	0.00813	0.00730	0.00639	0.00545	0.00448	0.00385	0.00301	0.00233	0.00165	0.00046	0.00000	-0.00106	-0.00167	-0.00251	-0.00280	-0.00316	-0.00329	-0.00377	-0.00392	-0.00441		; offset and temperature correction info
a715	Brown	18.59217		0.01171	0.01109	0.01043	0.00975	0.00878	0.00789	0.00685	0.00572	0.00469	0.00356	0.00255	0.00160	0.00061	0.00000	-0.00063	-0.00113	-0.00152	-0.00183	-0.00226	-0.00293	-0.00364	-0.00404	-0.00473		; offset and temperature correction info
c510	Red	18.18396		-0.00549	-0.00480	-0.00383	-0.00272	-0.00202	-0.00118	-0.00044	-0.00038	-0.00015	-0.00021	0.00013	0.00007	-0.00007	0.00000	-0.00007	-0.00065	-0.00045	-0.00018	0.00007	0.00039	-0.00001	-0.00002	-0.00045		; offset and temperature correction info
c532	Magenta	18.26528		-0.00721	-0.00645	-0.00581	-0.00518	-0.00465	-0.00345	-0.00281	-0.00270	-0.00182	-0.00141	-0.00108	-0.00072	-0.00022	0.00000	0.00044	0.00030	0.00031	-0.00006	-0.00052	-0.00089	-0.00142	-0.00149	-0.00154		; offset and temperature correction info
c555	Black	18.37125		-0.00430	-0.00419	-0.00381	-0.00319	-0.00286	-0.00254	-0.00205	-0.00196	-0.00138	-0.00137	-0.00067	-0.00051	-0.00030	0.00000	0.00067	0.00087	0.00057	0.00027	-0.00015	-0.00089	-0.00127	-0.00137	-0.00150		; offset and temperature correction info
a412	LtBlue	15.33566		-0.06011	-0.05567	-0.05012	-0.04441	-0.03922	-0.03412	-0.02941	-0.02503	-0.02049	-0.01588	-0.01121	-0.00784	-0.00311	0.00000	0.00273	0.00611	0.00757	0.00871	0.01066	0.01299	0.01539	0.01781	0.02175		; offset and temperature correction info
a440	LtGreen	16.05925		-0.01380	-0.01214	-0.01039	-0.00858	-0.00690	-0.00532	-0.00426	-0.00322	-0.00230	-0.00158	-0.00055	0.00006	0.00001	0.00000	0.00017	0.00016	-0.00094	-0.00222	-0.00363	-0.00486	-0.00567	-0.00651	-0.00782		; offset and temperature correction info
a488	Yellow	16.82827		0.00255	0.00293	0.00331	0.00354	0.00373	0.00378	0.00363	0.00350	0.00291	0.00225	0.00215	0.00142	0.00099	0.00000	-0.00092	-0.00169	-0.00295	-0.00396	-0.00479	-0.00542	-0.00582	-0.00604	-0.00663		; offset and temperature correction info
c650	Blue	18.49287		-0.00570	-0.00516	-0.00456	-0.00403	-0.00346	-0.00232	-0.00132	-0.00122	-0.00073	-0.00066	-0.00035	-0.00016	0.00003	0.00000	0.00044	0.00078	0.00108	0.00057	0.00040	-0.00042	-0.00033	-0.00029	-0.00034		; offset and temperature correction info
c676	Green	18.50570		0.00299	0.00293	0.00287	0.00293	0.00278	0.00294	0.00317	0.00251	0.00243	0.00215	0.00139	0.00123	0.00068	0.00000	-0.00041	-0.00106	-0.00205	-0.00268	-0.00325	-0.00413	-0.00495	-0.00610	-0.00674		; offset and temperature correction info
c715	Brown	17.88888		0.00826	0.00812	0.00773	0.00790	0.00766	0.00758	0.00753	0.00650	0.00571	0.00461	0.00359	0.00222	0.00101	0.00000	-0.00146	-0.00284	-0.00385	-0.00448	-0.00463	-0.00513	-0.00623	-0.00715	-0.00838		; offset and temperature correction info
a510	Red	17.18050		0.00353	0.00364	0.00354	0.00361	0.00381	0.00381	0.00356	0.00332	0.00277	0.00229	0.00176	0.00116	0.00036	0.00000	-0.00014	-0.00069	-0.00088	-0.00147	-0.00150	-0.00129	-0.00120	-0.00134	-0.00091		; offset and temperature correction info
a532	Magenta	17.40228		0.00550	0.00548	0.00526	0.00479	0.00464	0.00422	0.00393	0.00328	0.00253	0.00212	0.00136	0.00085	0.00039	0.00000	-0.00059	-0.00146	-0.00188	-0.00262	-0.00330	-0.00393	-0.00491	-0.00540	-0.00605		; offset and temperature correction info
a555	Black	17.72308		0.00849	0.00832	0.00800	0.00760	0.00724	0.00655	0.00580	0.00495	0.00435	0.00347	0.00252	0.00153	0.00049	0.00000	-0.00050	-0.00155	-0.00214	-0.00306	-0.00350	-0.00411	-0.00470	-0.00539	-0.00570		; offset and temperature correction info
c412	LtBlue	16.72802		-0.05949	-0.05458	-0.04744	-0.04134	-0.03547	-0.03064	-0.02511	-0.02047	-0.01574	-0.01163	-0.00761	-0.00442	-0.00204	0.00000	0.00100	0.00051	-0.00043	-0.00239	-0.00475	-0.00629	-0.00827	-0.00955	-0.01337		; offset and temperature correction info
c440	LtGreen	17.42637		-0.02723	-0.02503	-0.02216	-0.01930	-0.01691	-0.01394	-0.01125	-0.00926	-0.00732	-0.00582	-0.00401	-0.00226	-0.00093	0.00000	0.00082	0.00123	0.00133	0.00097	0.00038	-0.00003	-0.00022	-0.00023	-0.00125		; offset and temperature correction info
c488	Yellow	18.03666		-0.00640	-0.00554	-0.00465	-0.00357	-0.00276	-0.00154	-0.00067	-0.00031	-0.00014	-0.00012	0.00046	0.00032	0.00020	0.00000	0.00001	-0.00024	-0.00060	-0.00084	-0.00126	-0.00180	-0.00276	-0.00304	-0.00427		; offset and temperature correction info
0.003500	0.004000	0.015000	0.020000	0.015000	0.020000	2500.000000	2000.000000	1000.000000	; maxANoise	maxCNoise	maxADifference	maxCDifference	minACounts	minCCounts	minRCounts	maxTempSdev	maxDepthSdev
0			; auxilliary capabilities
1			; acquisition binsize
0	1.28523	1.16897	0.81410	5.96031	4.84435	3.94772	20.52138	12.53935	6.41529	2.15481	2.04448	1.67951	4.95110	3.83212	2.96281	21.24488	13.43234	7.38957	31.13	6.1	0.00	-2.04	0.01751	0.01211	0.01532	0.01840	0.01903	0.01490	0.00551	0.01527	0.02029	0.01897	0.01328	0.01693	0.01723	0.01781	0.01390	0.00571	0.01607	0.02159
160	1.28634	1.16914	0.81506	5.96108	4.84554	3.94959	20.53285	12.53427	6.41365	2.15698	2.04671	1.68296	4.95381	3.83274	2.96669	21.26671	13.43625	7.39379
330	1.28773	1.17027	0.81704	5.96485	4.84904	3.95360	20.50266	12.54462	6.41520	2.16216	2.05053	1.68703	4.95480	3.83206	2.96512	21.25702	13.43727	7.39393
490	1.28916	1.16964	0.81721	5.96752	4.85246	3.95722	20.50266	12.54561	6.41681	2.16534	2.05318	1.69013	4.95334	3.83323	2.96338	21.25850	13.43772	7.39587
660	1.28951	1.17074	0.81745	5.96963	4.85503	3.96115	20.51247	12.54404	6.42080	2.16870	2.05643	1.69195	4.95544	3.83756	2.96670	21.26704	13.44297	7.39970
820	1.28902	1.16898	0.81653	5.97072	4.85539	3.96233	20.52775	12.53789	6.41408	2.16832	2.05724	1.69255	4.95128	3.83151	2.96394	21.26359	13.43951	7.39993
990	1.28722	1.16890	0.81737	5.97198	4.85634	3.96381	20.50666	12.54080	6.41512	2.17000	2.05900	1.69476	4.95503	3.83227	2.96429	21.27641	13.44486	7.40366
1150	1.28972	1.16889	0.81632	5.97378	4.85766	3.96500	20.51393	12.53847	6.41572	2.17024	2.05942	1.69482	4.95558	3.83738	2.96508	21.28793	13.44920	7.40771
1320	1.29128	1.17202	0.81889	5.97848	4.86010	3.96754	20.52921	12.53455	6.41438	2.17241	2.06227	1.69748	4.95575	3.83570	2.96675	21.27608	13.44895	7.40734
1480	1.28641	1.17122	0.82031	5.97675	4.86168	3.97049	20.50411	12.54687	6.41669	2.17587	2.06451	1.70024	4.95848	3.83865	2.96870	21.27246	13.45072	7.41119
1650	1.28918	1.16979	0.81677	5.97888	4.86098	3.96916	20.53332	12.53839	6.41553	2.17461	2.06435	1.70057	4.96064	3.84280	2.96949	21.28079	13.45595	7.41583	31.13	6.1	0.00	-2.04	0.01751	0.01211	0.01532	0.01840	0.01903	0.01490	0.00551	0.01527	0.02029	0.01897	0.01328	0.01693	0.01723	0.01781	0.01390	0.00571	0.01607	0.02159
1810	1.29288	1.17477	0.82179	5.98356	4.86478	3.97307	20.50186	12.53803	6.41870	2.17802	2.06643	1.70328	4.95989	3.83907	2.96829	21.28968	13.45371	7.41105
1970	1.29071	1.17514	0.82127	5.98069	4.86319	3.97235	20.51949	12.53677	6.42037	2.17732	2.06711	1.70290	4.96249	3.83959	2.96953	21.27783	13.45122	7.41115
2140	1.29221	1.17370	0.82018	5.97849	4.86047	3.97075	20.49514	12.54039	6.42116	2.17528	2.06509	1.70160	4.95719	3.83655	2.96683	21.27388	13.44905	7.40749
2300	1.29353	1.17752	0.82258	5.98240	4.86553	3.97832	20.53915	12.55129	6.42621	2.18065	2.07192	1.70712	4.96384	3.84352	2.97155	21.27109	13.45455	7.41351
2470	1.29458	1.17396	0.82024	5.98030	4.86102	3.97451	20.54243	12.54789	6.42261	2.17755	2.06881	1.70426	4.96647	3.84442	2.97301	21.27224	13.45376	7.41454
2630	1.29748	1.17583	0.82401	5.98066	4.86216	3.97442	20.50222	12.54594	6.42126	2.17803	2.06880	1.70374	4.95833	3.84126	2.96631	21.26484	13.44937	7.40949
2790	1.29316	1.17125	0.82193	5.97707	4.85936	3.97221	20.52604	12.54141	6.41775	2.17586	2.06698	1.70270	4.95734	3.83958	2.96694	21.27273	13.44720	7.40792
2960	1.29201	1.17397	0.81976	5.97639	4.85787	3.97016	20.52240	12.53685	6.41709	2.17476	2.06609	1.70153	4.95848	3.83586	2.96853	21.26862	13.44250	7.40436
3120	1.29242	1.17539	0.82349	5.97842	4.86005	3.97327	20.50512	12.54239	6.42280	2.17742	2.06940	1.70518	4.96220	3.83851	2.96955	21.26862	13.44942	7.40991
3290	1.29174	1.17307	0.82021	5.97724	4.85845	3.97011	20.51301	12.52898	6.41678	2.17249	2.06452	1.70004	4.96341	3.83881	2.97280	21.27018	13.44941	7.40865	31.13	6.1	0.00	-2.04	0.01751	0.01211	0.01532	0.01840	0.01903	0.01490	0.00551	0.01527	0.02029	0.01897	0.01328	0.01693	0.01723	0.01781	0.01390	0.00571	0.01607	0.02159
3450	1.29180	1.17371	0.81998	5.97631	4.85835	3.96888	20.50592	12.53973	6.41575	2.17197	2.06442	1.69987	4.95685	3.83504	2.96590	21.26656	13.44306	7.40350
3610	1.29497	1.17483	0.82449	5.97513	4.85738	3.96892	20.51264	12.53369	6.41692	2.17119	2.06405	1.69951	4.95772	3.83697	2.96607	21.27001	13.44286	7.40239
3780	1.29190	1.17163	0.81860	5.97097	4.85205	3.96348	20.53375	12.53273	6.41052	2.16614	2.06038	1.69453	4.95428	3.83310	2.96467	21.25211	13.43798	7.39852
3940	1.29109	1.17036	0.81969	5.96827	4.85044	3.96265	20.49811	12.52541	6.40925	2.16493	2.05932	1.69331	4.95373	3.83188	2.96266	21.26607	13.43475	7.39657
4110	1.28728	1.17234	0.82342	5.96680	4.85194	3.96656	20.51683	12.54173	6.41309	2.16913	2.06302	1.69817	4.95994	3.83585	2.96722	21.25342	13.43912	7.40107
4270	1.29406	1.17221	0.81852	5.96910	4.85017	3.96286	20.51628	12.53589	6.40987	2.16522	2.05918	1.69543	4.95741	3.83734	2.97026	21.25129	13.43549	7.39901
4440	1.29425	1.17429	0.82272	5.96838	4.84995	3.96100	20.58343	12.53389	6.41599	2.16367	2.05659	1.69268	4.95921	3.83616	2.96846	21.24030	13.42905	7.39226
4600	1.29308	1.17368	0.82158	5.96384	4.84598	3.95896	20.50592	12.53792	6.41606	2.16337	2.05685	1.69341	4.95764	3.83497	2.96801	21.24604	13.42806	7.39205
4760	1.29231	1.17072	0.82023	5.96347	4.84276	3.95611	20.49866	12.53924	6.41407	2.15850	2.05143	1.68841	4.95619	3.83474	2.96722	21.24374	13.42308	7.38560
4930	1.29491	1.17528	0.82693	5.96478	4.84546	3.95851	20.55728	12.54322	6.42197	2.16262	2.05667	1.69381	4.96332	3.84263	2.97479	21.24388	13.42744	7.39213	31.13	6.2	0.00	-2.04	0.01751	0.01211	0.01532	0.01840	0.01903	0.01490	0.00551	0.01527	0.02029	0.01897	0.01328	0.01693	0.01723	0.01781	0.01390	0.00571	0.01607	0.02159
5090	1.29666	1.17321	0.82203	5.96393	4.84226	3.95528	20.51028	12.54550	6.42145	2.15927	2.05334	1.68994	4.96127	3.84144	2.97360	21.24158	13.42463	7.38951
5260	1.29817	1.17446	0.82265	5.96300	4.84118	3.95380	20.53102	12.53795	6.41867	2.15742	2.05219	1.68745	4.95774	3.83777	2.96962	21.24798	13.42122	7.38544
5420	1.29541	1.17260	0.82321	5.95980	4.83874	3.95223	20.54104	12.53918	6.41886	2.15712	2.05173	1.68642	4.95561	3.83801	2.97118	21.24027	13.42058	7.38590
5580	1.29380	1.17344	0.82175	5.95799	4.83573	3.94805	20.51901	12.54380	6.41982	2.15098	2.04721	1.68148	4.95811	3.84038	2.97179	21.24142	13.41881	7.38246
5750	1.29666	1.17360	0.82424	5.95678	4.83321	3.94530	20.51755	12.54899	6.41935	2.14829	2.04387	1.67987	4.96016	3.83998	2.97366	21.23667	13.41377	7.37946
5910	1.29764	1.17679	0.82476	5.95303	4.83038	3.94241	20.51246	12.54874	6.42373	2.14593	2.04211	1.67712	4.96291	3.84068	2.97494	21.23650	13.41499	7.37778
6080	1.29681	1.17547	0.82511	5.95093	4.82909	3.93952	20.56112	12.54745	6.42005	2.14178	2.03906	1.67313	4.96095	3.84114	2.97284	21.23224	13.41079	7.37356
6250	1.29666	1.17495	0.82442	5.94795	4.82542	3.93583	20.52611	12.54857	6.42317	2.13934	2.03748	1.67252	4.96155	3.83897	2.96954	21.22880	13.40558	7.37024
6410	1.29825	1.17528	0.82526	5.94890	4.82664	3.93713	20.52538	12.55118	6.42738	2.14066	2.03882	1.67343	4.96361	3.84210	2.97493	21.23159	13.40513	7.37264
6580	1.29613	1.17431	0.82342	5.94535	4.82174	3.93335	20.53069	12.54655	6.42494	2.13651	2.03462	1.66962	4.96362	3.83734	2.96929	21.21927	13.40007	7.36563	31.13	6.2	0.00	-2.04	0.01751	0.01211	0.01532	0.01840	0.01903	0.01490	0.00551	0.01527	0.02029	0.01897	0.01328	0.01694	0.01723	0.01781	0.01390	0.00571	0.01607	0.02159
6740	1.29367	1.17194	0.82093	5.94044	4.81769	3.92989	20.54363	12.54158	6.42029	2.13587	2.03319	1.66962	4.95826	3.83805	2.97227	21.21714	13.40108	7.36678
6910	1.29536	1.17585	0.82366	5.93924	4.81552	3.92742	20.52232	12.54388	6.41970	2.13272	2.02960	1.66609	4.96230	3.84110	2.97194	21.21780	13.39811	7.36634
7070	1.29882	1.17803	0.82432	5.93977	4.81665	3.92984	20.52650	12.54888	6.42611	2.13523	2.03027	1.66803	4.95982	3.83911	2.97149	21.22598	13.39429	7.36312
7240	1.29705	1.17446	0.82240	5.93633	4.81320	3.92626	20.51159	12.54619	6.42289	2.13262	2.02769	1.66529	4.95925	3.84070	2.96893	21.21420	13.39399	7.35906
7400	1.29325	1.17524	0.82580	5.93330	4.81159	3.92496	20.49978	12.55322	6.42407	2.13343	2.02892	1.66509	4.96111	3.84030	2.97392	21.20929	13.39322	7.36068
7570	1.29680	1.17639	0.82303	5.93237	4.80902	3.92067	20.51032	12.54751	6.41920	2.12874	2.02215	1.65991	4.96048	3.84348	2.97599	21.21616	13.39283	7.36172
7730	1.30047	1.17738	0.82710	5.93170	4.81026	3.92063	20.53561	12.55075	6.42447	2.12930	2.02174	1.66086	4.96236	3.83823	2.96936	21.21142	13.39094	7.35641
7900	1.29598	1.17521	0.82344	5.92800	4.80691	3.91856	20.50850	12.54284	6.42234	2.12853	2.01985	1.65848	4.95999	3.83630	2.96854	21.20113	13.38592	7.35250
8060	1.29709	1.17668	0.82505	5.92706	4.80637	3.91710	20.48581	12.54117	6.42234	2.12814	2.01913	1.65839	4.96073	3.83817	2.96883	21.19754	13.38864	7.35226
8230	1.29292	1.17275	0.82337	5.92409	4.80200	3.91181	20.53710	12.53985	6.41967	2.12424	2.01507	1.65483	4.96186	3.83746	2.97210	21.21161	13.38843	7.35196	31.13	6.1	0.00	-2.04	0.01751	0.01211	0.01532	0.01840	0.01903	0.01490	0.00551	0.01527	0.02029	0.01897	0.01328	0.01694	0.01723	0.01781	0.01390	0.00571	0.01607	0.02159
8390	1.29384	1.17349	0.82556	5.92453	4.80303	3.91222	20.50581	12.53694	6.42157	2.12479	2.01691	1.65540	4.95963	3.83707	2.96646	21.19414	13.38321	7.34736
8560	1.29183	1.17253	0.82214	5.92127	4.80089	3.91047	20.51108	12.53681	6.41830	2.12382	2.01401	1.65446	4.95592	3.83473	2.96744	21.19283	13.38014	7.34630
8720	1.29196	1.17194	0.82277	5.92095	4.80115	3.91069	20.53801	12.53708	6.41792	2.12434	2.01444	1.65350	4.95433	3.83380	2.96513	21.20949	13.37917	7.34293
8890	1.28956	1.17072	0.82159	5.91808	4.79729	3.90704	20.51708	12.53436	6.41148	2.12083	2.01253	1.65168	4.95507	3.83301	2.96852	21.20752	13.37905	7.34365
9050	1.29092	1.17035	0.82219	5.91781	4.79817	3.90789	20.48839	12.52809	6.41464	2.12220	2.01357	1.65268	4.95321	3.83358	2.96317	21.18859	13.37729	7.34119
9220	1.29026	1.17221	0.82284	5.92130	4.80159	3.91185	20.45182	12.53585	6.41613	2.12664	2.01810	1.65651	4.95409	3.83272	2.96547	21.19577	13.37999	7.34529
9380	1.28972	1.17089	0.81876	5.91988	4.79970	3.90916	20.48458	12.53190	6.41019	2.12478	2.01465	1.65414	4.94962	3.83027	2.96364	21.17637	13.37596	7.34096
9550	1.28530	1.16743	0.81812	5.91609	4.79790	3.90924	20.50508	12.53346	6.40875	2.12440	2.01584	1.65504	4.94878	3.83144	2.96316	21.19920	13.37734	7.34198
9710	1.28603	1.16738	0.81665	5.91629	4.79774	3.90771	20.46629	12.52639	6.40573	2.12165	2.01274	1.65327	4.94533	3.82836	2.96034	21.19920	13.37811	7.34388
9880	1.28618	1.16667	0.81839	5.91807	4.80017	3.91011	20.52663	12.52920	6.40766	2.12406	2.01634	1.65610	4.94520	3.82813	2.95946	21.20296	13.37801	7.34211	31.19	6.0	0.00	-2.04	0.01751	0.01212	0.01532	0.01840	0.01903	0.01490	0.00551	0.01527	0.02029	0.01897	0.01328	0.01694	0.01723	0.01781	0.01390	0.00571	0.01607	0.02159
10040	1.28720	1.16724	0.81837	5.91617	4.80079	3.91147	20.52827	12.53784	6.41048	2.12665	2.01866	1.65782	4.94710	3.82924	2.95715	21.20100	13.37793	7.34160
10210	1.28760	1.16499	0.81693	5.91562	4.79671	3.90566	20.49246	12.52287	6.40644	2.12100	2.01267	1.65173	4.94934	3.83262	2.96728	21.19333	13.37588	7.34126
10370	1.28723	1.16821	0.81891	5.91462	4.79643	3.90668	20.48376	12.52783	6.40627	2.12022	2.01221	1.65220	4.94418	3.82956	2.96223	21.19055	13.37242	7.33570
10540	1.28865	1.16621	0.81667	5.90862	4.79281	3.90281	20.55689	12.52460	6.40534	2.11848	2.00972	1.65051	4.94498	3.82606	2.95828	21.18061	13.36802	7.33132
10700	1.28903	1.16505	0.81691	5.90901	4.79258	3.90285	20.47724	12.52756	6.40338	2.11885	2.00928	1.65092	4.94597	3.82671	2.96187	21.18452	13.36784	7.33280
10870	1.28843	1.16817	0.81745	5.90688	4.78940	3.89999	20.48847	12.52186	6.40617	2.11494	2.00609	1.64836	4.94505	3.82862	2.96111	21.18501	13.36614	7.33016
11030	1.28848	1.16607	0.81736	5.90470	4.78806	3.89796	20.51117	12.52446	6.40407	2.11476	2.00595	1.64694	4.94496	3.82966	2.96260	21.19186	13.36723	7.33147
11200	1.28904	1.16748	0.81842	5.90467	4.78748	3.89787	20.47036	12.52153	6.40624	2.11408	2.00508	1.64608	4.94584	3.82776	2.96162	21.19072	13.36251	7.32603
11360	1.29212	1.16841	0.82063	5.90351	4.78819	3.89881	20.51298	12.53364	6.40814	2.11423	2.00561	1.64739	4.94967	3.82862	2.96111	21.18892	13.36530	7.32903
11530	1.29013	1.16580	0.81821	5.90302	4.78557	3.89740	20.52217	12.52840	6.40622	2.11293	2.00409	1.64629	4.94724	3.82440	2.95928	21.17444	13.36115	7.32626	31.13	6.1	0.00	-2.04	0.01751	0.01211	0.01532	0.01840	0.01903	0.01490	0.00551	0.01527	0.02029	0.01897	0.01329	0.01694	0.01723	0.01781	0.01390	0.00571	0.01607	0.02159
11690	1.28818	1.16343	0.81631	5.90033	4.78347	3.89435	20.50163	12.52292	6.40338	2.11204	2.00290	1.64462	4.94557	3.82661	2.96124	21.18601	13.36337	7.32714
11860	1.28756	1.16505	0.81736	5.90110	4.78584	3.89599	20.51889	12.52415	6.40266	2.11392	2.00489	1.64732	4.94513	3.82572	2.96153	21.18014	13.36671	7.33056
12020	1.28831	1.16519	0.81865	5.90559	4.78881	3.90114	20.46176	12.52459	6.40330	2.11793	2.00844	1.65047	4.94466	3.82408	2.95844	21.18568	13.36550	7.33043
12190	1.28625	1.16223	0.81358	5.90361	4.78568	3.89898	20.49600	12.51711	6.40077	2.11576	2.00494	1.64774	4.94247	3.82400	2.95671	21.19041	13.36340	7.32863
12350	1.28478	1.16179	0.81456	5.90306	4.78550	3.89745	20.48874	12.51517	6.39583	2.11542	2.00485	1.64791	4.94136	3.82646	2.96084	21.19269	13.36750	7.33321
12520	1.28807	1.16293	0.81621	5.90596	4.78889	3.90266	20.51162	12.52133	6.40160	2.11840	2.00744	1.64990	4.94117	3.82368	2.95679	21.19008	13.36560	7.33056
12680	1.28346	1.16093	0.81421	5.90051	4.78331	3.89891	20.52908	12.51503	6.39581	2.11532	2.00382	1.64683	4.93688	3.81867	2.95583	21.18959	13.36253	7.32696
12850	1.28203	1.15969	0.81207	5.89821	4.78137	3.89483	20.47751	12.50742	6.38889	2.11220	2.00045	1.64287	4.93673	3.82265	2.95278	21.18046	13.36436	7.32903
13010	1.28444	1.15909	0.81189	5.89949	4.78309	3.89737	20.45815	12.50813	6.39375	2.11402	2.00209	1.64424	4.93381	3.81704	2.95155	21.19204	13.36051	7.32407
13180	1.28314	1.16057	0.81387	5.89891	4.78362	3.89940	20.47734	12.51188	6.39448	2.11492	2.00276	1.64620	4.93401	3.81878	2.95172	21.18035	13.36280	7.32649	31.19	6.2	0.00	-2.04	0.01751	0.01212	0.01532	0.01840	0.01903	0.01490	0.00551	0.01527	0.02029	0.01897	0.01329	0.01694	0.01723	0.01781	0.01390	0.00571	0.01607	0.02159
13340	1.27840	1.15493	0.80993	5.89654	4.77961	3.89577	20.48967	12.50466	6.38886	2.11179	2.00066	1.64343	4.93318	3.81705	2.95223	21.18573	13.36485	7.32894
13500	1.27992	1.15651	0.81192	5.89880	4.78218	3.89727	20.47589	12.50575	6.38720	2.11259	2.00140	1.64494	4.92989	3.81409	2.94770	21.16423	13.35967	7.32489
13670	1.27757	1.15535	0.80923	5.89675	4.78092	3.89874	20.50636	12.50285	6.38910	2.11371	2.00208	1.64504	4.92789	3.81405	2.94522	21.17758	13.36085	7.32665
13830	1.27576	1.15189	0.80676	5.89560	4.77943	3.89659	20.47426	12.50499	6.38414	2.11293	2.00164	1.64401	4.92740	3.80893	2.94523	21.17921	13.36369	7.32793
14000	1.27665	1.15393	0.80636	5.89791	4.78221	3.89902	20.49075	12.50373	6.38483	2.11442	2.00329	1.64555	4.92803	3.81125	2.94351	21.18329	13.36273	7.32764
14160	1.27469	1.15646	0.80903	5.89722	4.78201	3.89940	20.45491	12.50594	6.38500	2.11444	2.00425	1.64700	4.92560	3.81273	2.94667	21.17840	13.36597	7.32937
14330	1.27539	1.15287	0.80738	5.89780	4.78192	3.89961	20.47245	12.50075	6.38390	2.11377	2.00337	1.64581	4.92610	3.81380	2.94773	21.17661	13.36577	7.33085
14490	1.27631	1.15542	0.80939	5.90046	4.78432	3.90010	20.42730	12.50105	6.38315	2.11559	2.00506	1.64826	4.92893	3.81330	2.94338	21.17107	13.36434	7.33032
14660	1.27870	1.15664	0.81051	5.90193	4.78693	3.90332	20.45690	12.50408	6.38597	2.11801	2.00842	1.64979	4.92942	3.81428	2.94971	21.19487	13.36920	7.33424
14820	1.27704	1.15376	0.80953	5.90134	4.78512	3.90259	20.47655	12.49656	6.38125	2.11614	2.00520	1.64840	4.92816	3.81195	2.94553	21.18192	13.36501	7.33023	31.19	6.1	0.00	-2.04	0.01751	0.01212	0.01532	0.01840	0.01903	0.01490	0.00551	0.01527	0.02029	0.01898	0.01329	0.01694	0.01723	0.01781	0.01390	0.00571	0.01607	0.02159
14990	1.27493	1.15377	0.80919	5.89982	4.78477	3.90157	20.50175	12.50230	6.38283	2.11700	2.00570	1.64956	4.92693	3.81399	2.94485	21.17785	13.36697	7.33257
15150	1.27557	1.15464	0.80806	5.90118	4.78348	3.89878	20.46804	12.49453	6.38427	2.11512	2.00347	1.64734	4.92837	3.81271	2.94359	21.18551	13.36499	7.33209
15320	1.27708	1.15400	0.80834	5.90039	4.78311	3.89931	20.46152	12.49686	6.38367	2.11464	2.00320	1.64700	4.92577	3.81154	2.94156	21.18127	13.36331	7.32867
15480	1.27405	1.15547	0.80827	5.89751	4.78424	3.90106	20.48887	12.50295	6.38397	2.11501	2.00541	1.64855	4.92809	3.81045	2.94592	21.20101	13.36763	7.33140
15650	1.27532	1.15321	0.80597	5.90040	4.78412	3.89789	20.48017	12.49309	6.37852	2.11311	2.00289	1.64633	4.92444	3.80826	2.94102	21.19122	13.36447	7.32854
15810	1.27464	1.15100	0.80564	5.89814	4.78229	3.89543	20.46587	12.49694	6.37769	2.11156	2.00172	1.64442	4.92172	3.80918	2.94439	21.19530	13.36499	7.32925
15980	1.27475	1.15211	0.80626	5.90003	4.78410	3.89719	20.48162	12.49107	6.37946	2.11247	2.00324	1.64528	4.92167	3.80866	2.94196	21.18698	13.36521	7.32830
16140	1.27324	1.15231	0.80815	5.90004	4.78459	3.89679	20.45610	12.49134	6.37705	2.11168	2.00267	1.64578	4.92058	3.80872	2.94284	21.18209	13.36252	7.32819
16310	1.27132	1.14967	0.80433	5.89834	4.78216	3.89471	20.48325	12.48855	6.37654	2.10947	2.00029	1.64384	4.92117	3.80929	2.94305	21.18616	13.36588	7.33064
16470	1.27512	1.15225	0.80767	5.90252	4.78688	3.89721	20.45204	12.49424	6.38068	2.11252	2.00445	1.64625	4.92260	3.80873	2.94210	21.18811	13.36510	7.32873	31.13	6.0	0.00	-2.04	0.01751	0.01212	0.01532	0.01840	0.01903	0.01490	0.00551	0.01527	0.02029	0.01897	0.01329	0.01694	0.01723	0.01781	0.01390	0.00571	0.01607	0.02159
16640	1.27414	1.15367	0.80731	5.90234	4.78618	3.89698	20.49404	12.49416	6.37770	2.11265	2.00490	1.64639	4.92116	3.80759	2.94108	21.18371	13.36439	7.32847
16800	1.27527	1.15402	0.80913	5.90365	4.78828	3.89862	20.43092	12.49189	6.37922	2.11398	2.00633	1.64793	4.92327	3.80962	2.94104	21.18224	13.36738	7.33031
16970	1.27490	1.15335	0.80858	5.90100	4.78699	3.89609	20.43759	12.49547	6.37586	2.11100	2.00243	1.64492	4.92467	3.81190	2.94566	21.19317	13.37148	7.33326
17130	1.27863	1.15665	0.80908	5.90476	4.78868	3.89754	20.48280	12.49574	6.38172	2.11235	2.00424	1.64546	4.92539	3.80999	2.94392	21.19807	13.36463	7.32834
17300	1.27569	1.15399	0.80920	5.90268	4.78631	3.89630	20.47809	12.49878	6.37873	2.11062	2.00379	1.64503	4.92298	3.80693	2.94322	21.19301	13.36706	7.32915
17460	1.27557	1.15250	0.80652	5.90436	4.78910	3.89981	20.47827	12.49566	6.38181	2.11453	2.00760	1.64867	4.92189	3.80740	2.94206	21.18942	13.37254	7.33523
17630	1.27483	1.15030	0.80709	5.90733	4.79229	3.90342	20.45583	12.49894	6.38066	2.11927	2.01433	1.65345	4.92407	3.80836	2.94353	21.19121	13.37388	7.33795
17790	1.27528	1.15332	0.80777	5.91048	4.79543	3.90486	20.45529	12.49367	6.37818	2.11902	2.01219	1.65190	4.92570	3.80825	2.94305	21.19692	13.37309	7.33633
17960	1.27676	1.15611	0.80865	5.90876	4.79366	3.90383	20.42389	12.49741	6.38078	2.11910	2.01244	1.65315	4.92150	3.80581	2.94244	21.20803	13.37126	7.33491
18120	1.27272	1.15399	0.80924	5.91017	4.79737	3.90361	20.45291	12.49582	6.38081	2.11962	2.01135	1.65186	4.92282	3.80665	2.94445	21.20148	13.37160	7.33254	31.13	6.2	0.00	-2.04	0.01751	0.01212	0.01532	0.01840	0.01903	0.01490	0.00551	0.01527	0.02029	0.01897	0.01329	0.01694	0.01723	0.01781	0.01390	0.00571	0.01607	0.02159
18290	1.27373	1.15133	0.80606	5.90585	4.79209	3.89848	20.48947	12.49467	6.37900	2.11382	2.00579	1.64599	4.92246	3.80833	2.94512	21.19006	13.36945	7.33242
18450	1.27526	1.15164	0.80738	5.90567	4.79137	3.89823	20.51126	12.49735	6.37853	2.11669	2.00554	1.64819	4.92114	3.80553	2.94179	21.19952	13.36456	7.32821
18620	1.27524	1.15470	0.80904	5.90526	4.79277	3.90238	20.45363	12.49576	6.38600	2.11927	2.00789	1.64976	4.92537	3.80462	2.94090	21.19593	13.36871	7.32941
18780	1.27301	1.15007	0.80572	5.90159	4.78711	3.89511	20.46882	12.49136	6.37499	2.11193	2.00353	1.64472	4.91782	3.80399	2.93777	21.19185	13.36335	7.32545
18950	1.27015	1.14806	0.80237	5.89824	4.78436	3.89292	20.48929	12.49718	6.37257	2.10842	2.00082	1.64260	4.91833	3.80352	2.94205	21.18859	13.36397	7.32586
19110	1.27260	1.15110	0.80361	5.90052	4.78585	3.89507	20.44550	12.49579	6.37865	2.10991	2.00205	1.64393	4.91856	3.80423	2.93846	21.17669	13.36231	7.32460
19280	1.26955	1.15085	0.80602	5.90041	4.78631	3.89474	20.47950	12.49784	6.37845	2.11111	2.00192	1.64541	4.91893	3.80502	2.93787	21.17946	13.36360	7.32693
19440	1.26844	1.14835	0.80384	5.89843	4.78305	3.89323	20.44857	12.48765	6.37179	2.10895	2.00066	1.64292	4.91962	3.80364	2.94190	21.18696	13.36523	7.32845
19610	1.27281	1.14957	0.80486	5.90184	4.78681	3.89682	20.42350	12.48984	6.37807	2.11375	2.00451	1.64752	4.92017	3.80496	2.93908	21.19773	13.36542	7.32801
19770	1.27138	1.14944	0.80621	5.90185	4.78874	3.89693	20.45808	12.49171	6.37631	2.11399	2.00546	1.64767	4.91860	3.80287	2.93890	21.19224	13.36526	7.32831	31.13	6.0	0.00	-2.04	0.01751	0.01212	0.01532	0.01840	0.01903	0.01490	0.00551	0.01527	0.02029	0.01897	0.01329	0.01694	0.01723	0.01781	0.01390	0.00571	0.01607	0.02159
19940	1.27232	1.15163	0.80372	5.90380	4.79167	3.90012	20.46531	12.49100	6.37694	2.11658	2.00778	1.65040	4.92046	3.80489	2.94102	21.18783	13.36949	7.33161
20100	1.27025	1.14784	0.80406	5.90417	4.79054	3.89919	20.47581	12.49070	6.37377	2.11572	2.00649	1.65028	4.92072	3.80279	2.93674	21.19681	13.36998	7.33153
20270	1.27043	1.14845	0.80538	5.90411	4.78997	3.90012	20.44326	12.48745	6.37641	2.11635	2.00847	1.65091	4.92113	3.80416	2.93847	21.18522	13.37214	7.33442
20430	1.27005	1.14896	0.80493	5.90518	4.79022	3.90007	20.42469	12.49242	6.37639	2.11705	2.00757	1.65129	4.91998	3.80549	2.94084	21.20579	13.37359	7.33674
20600	1.27296	1.14991	0.80498	5.90713	4.79282	3.90284	20.45988	12.49392	6.37908	2.11839	2.00944	1.65235	4.91961	3.80195	2.94100	21.19925	13.37303	7.33579
20760	1.27074	1.14911	0.80345	5.90705	4.79167	3.90238	20.43172	12.49477	6.37750	2.11883	2.00904	1.65312	4.91984	3.80184	2.93862	21.19664	13.37330	7.33582
20930	1.27178	1.14976	0.80672	5.90711	4.79204	3.90367	20.47146	12.49881	6.37765	2.11990	2.00962	1.65403	4.92052	3.80217	2.93965	21.20154	13.37478	7.33637
21090	1.27042	1.14906	0.80429	5.90625	4.79023	3.90153	20.48958	12.49056	6.37701	2.11755	2.00688	1.65174	4.92110	3.80659	2.94359	21.18832	13.37567	7.33868
21260	1.27343	1.15308	0.80657	5.90814	4.79277	3.90335	20.44453	12.50163	6.37841	2.11899	2.00814	1.65270	4.92055	3.80511	2.94031	21.19093	13.37406	7.33713
21420	1.27127	1.15159	0.80670	5.90700	4.79228	3.90309	20.46272	12.49347	6.37836	2.11870	2.00751	1.65169	4.91983	3.80500	2.93779	21.19653	13.37202	7.33373	31.19	6.0	0.00	-2.04	0.01751	0.01211	0.01532	0.01840	0.01903	0.01490	0.00551	0.01527	0.02029	0.01897	0.01328	0.01694	0.01723	0.01781	0.01390	0.00571	0.01607	0.02159
21590	1.27249	1.15112	0.80627	5.90837	4.79485	3.90550	20.44248	12.49721	6.38042	2.12055	2.01058	1.65414	4.92050	3.80559	2.93729	21.20257	13.37536	7.33759
21750	1.27116	1.14831	0.80257	5.90803	4.79264	3.90241	20.43725	12.49025	6.37279	2.11912	2.00817	1.65264	4.92116	3.80493	2.94116	21.19425	13.37952	7.34178
21920	1.27346	1.15089	0.80703	5.91199	4.79724	3.90782	20.48119	12.49082	6.37921	2.12303	2.01170	1.65635	4.92115	3.80565	2.93927	21.20845	13.37689	7.33945
22080	1.27267	1.15006	0.80617	5.91008	4.79576	3.90672	20.46761	12.49893	6.37747	2.12278	2.01166	1.65606	4.91849	3.80560	2.93852	21.20290	13.37781	7.33876
22250	1.27426	1.15230	0.80617	5.91253	4.79844	3.91044	20.49406	12.50093	6.38304	2.12630	2.01483	1.65880	4.92166	3.80569	2.94125	21.22039	13.37924	7.34331
22410	1.27365	1.15140	0.80457	5.91285	4.79694	3.90834	20.45965	12.49686	6.37725	2.12457	2.01215	1.65772	4.92258	3.80455	2.94100	21.20453	13.38137	7.34534
22580	1.27484	1.15045	0.80675	5.91577	4.80113	3.91213	20.46742	12.49109	6.37697	2.12815	2.01654	1.66051	4.92455	3.80927	2.94503	21.21090	13.38999	7.35095
22740	1.27572	1.15565	0.80994	5.92128	4.80578	3.91806	20.44465	12.50167	6.38234	2.13315	2.02278	1.66705	4.92498	3.80739	2.94103	21.22775	13.38974	7.35126
22910	1.27343	1.15134	0.80332	5.92053	4.80562	3.91683	20.50931	12.49437	6.37830	2.13262	2.02098	1.66541	4.91792	3.80208	2.94030	21.21172	13.38501	7.34959
23070	1.27120	1.15121	0.80499	5.92034	4.80608	3.91902	20.49885	12.49204	6.37890	2.13445	2.02303	1.66735	4.92159	3.80532	2.93793	21.21196	13.38850	7.35098	31.19	6.1	0.00	-2.04	0.01751	0.01212	0.01532	0.01840	0.01903	0.01490	0.00551	0.01527	0.02029	0.01897	0.01328	0.01694	0.01723	0.01781	0.01390	0.00571	0.01607	0.02159
23240	1.27254	1.14854	0.80462	5.92233	4.80669	3.91878	20.45719	12.49051	6.37725	2.13481	2.02346	1.66753	4.91840	3.80290	2.93910	21.22488	13.39177	7.35384
23400	1.27319	1.15110	0.80428	5.92434	4.80842	3.92176	20.46496	12.49747	6.37804	2.13759	2.02561	1.66979	4.91955	3.80313	2.93797	21.23192	13.38969	7.35305
23570	1.27401	1.15197	0.80592	5.92723	4.81032	3.92550	20.46207	12.49627	6.37892	2.13928	2.02833	1.67134	4.92106	3.80349	2.94045	21.22259	13.39390	7.35593
23730	1.27405	1.14852	0.80381	5.92554	4.80810	3.92220	20.46062	12.48505	6.37409	2.13592	2.02433	1.66975	4.92267	3.80784	2.94303	21.22537	13.39247	7.35658
23900	1.27718	1.15252	0.80633	5.92777	4.80920	3.92303	20.47347	12.49239	6.37787	2.13622	2.02602	1.66981	4.92067	3.80625	2.93875	21.19677	13.39130	7.35503
24060	1.27402	1.15178	0.80493	5.92571	4.80805	3.92177	20.47510	12.49329	6.37692	2.13522	2.02356	1.66844	4.91791	3.80383	2.93812	21.21540	13.38910	7.35163
24230	1.27474	1.15391	0.80856	5.92751	4.80935	3.92476	20.44111	12.50094	6.38132	2.13918	2.02736	1.67305	4.92252	3.80742	2.94143	21.22407	13.39031	7.35638
24390	1.27480	1.15332	0.80624	5.92607	4.80796	3.92431	20.42668	12.49157	6.37916	2.13948	2.02592	1.67239	4.92043	3.80629	2.93957	21.21605	13.38989	7.35541
24560	1.27367	1.15094	0.80768	5.92524	4.80752	3.92380	20.43822	12.49717	6.37778	2.13888	2.02625	1.67318	4.92166	3.80323	2.94024	21.21180	13.39217	7.35636
24730	1.27470	1.15313	0.80562	5.92538	4.80724	3.92300	20.45710	12.49420	6.38097	2.13733	2.02476	1.67160	4.92260	3.80630	2.93874	21.21301	13.38812	7.35298	31.13	5.9	0.00	-2.04	0.01751	0.01212	0.01532	0.01840	0.01903	0.01490	0.00551	0.01527	0.02029	0.01897	0.01328	0.01693	0.01723	0.01781	0.01390	0.00571	0.01607	0.02159
24890	1.27661	1.15419	0.80951	5.92875	4.81048	3.92474	20.46958	12.49707	6.38458	2.13893	2.02612	1.67263	4.92758	3.80828	2.94378	21.21840	13.39236	7.35723
25050	1.27532	1.15109	0.80781	5.92625	4.80847	3.92195	20.49405	12.49409	6.38133	2.13695	2.02444	1.67085	4.92141	3.80323	2.93827	21.21971	13.39050	7.35496
25220	1.27260	1.15076	0.80410	5.92399	4.80702	3.92047	20.49514	12.49445	6.37709	2.13538	2.02346	1.66925	4.92164	3.80557	2.93969	21.19765	13.39231	7.35657
25390	1.27510	1.15332	0.80676	5.92630	4.80877	3.92242	20.46542	12.49732	6.37921	2.13766	2.02651	1.67142	4.92384	3.80901	2.94390	21.21137	13.39667	7.36013
25550	1.27663	1.15691	0.80862	5.92832	4.81261	3.92463	20.44590	12.49663	6.38368	2.13917	2.02710	1.67281	4.92447	3.80743	2.94095	21.21562	13.39677	7.35819
25720	1.27745	1.15539	0.80966	5.92853	4.81117	3.92335	20.49405	12.49693	6.38502	2.13796	2.02683	1.67196	4.92446	3.80710	2.94343	21.21284	13.39394	7.35760
25880	1.27546	1.15591	0.81007	5.92765	4.81302	3.92440	20.49223	12.50120	6.38708	2.13964	2.02845	1.67351	4.92790	3.81036	2.94613	21.21415	13.39687	7.35916
26050	1.27776	1.15675	0.81030	5.92893	4.81062	3.92215	20.47049	12.50196	6.38140	2.13748	2.02509	1.67021	4.92585	3.81313	2.94809	21.23002	13.39895	7.36082
26210	1.28117	1.15870	0.81134	5.93102	4.81471	3.92540	20.45330	12.50163	6.38516	2.14044	2.02784	1.67242	4.92558	3.80963	2.94588	21.22119	13.39484	7.35829
26380	1.27943	1.15799	0.80959	5.92884	4.81312	3.92346	20.45003	12.51084	6.38195	2.13853	2.02624	1.67100	4.92535	3.81036	2.94562	21.20729	13.39517	7.35557	31.19	6.0	0.00	-2.04	0.01751	0.01211	0.01532	0.01840	0.01903	0.01490	0.00551	0.01527	0.02029	0.01897	0.01328	0.01693	0.01723	0.01781	0.01390	0.00571	0.01607	0.02159
26540	1.27609	1.15682	0.80889	5.92968	4.81358	3.92438	20.48895	12.50479	6.38886	2.14032	2.02762	1.67166	4.92677	3.81297	2.94654	21.21791	13.39557	7.35677
26710	1.27808	1.15681	0.80814	5.92840	4.81156	3.92184	20.50220	12.50249	6.38053	2.13751	2.02471	1.66932	4.92950	3.81319	2.94759	21.21268	13.39827	7.35960
26870	1.27943	1.15951	0.81106	5.93131	4.81521	3.92488	20.52366	12.50252	6.38625	2.14109	2.02699	1.67196	4.92589	3.81006	2.94606	21.20876	13.39222	7.35491
27040	1.27724	1.15838	0.81171	5.93012	4.81341	3.92366	20.44696	12.50616	6.38470	2.13941	2.02573	1.67059	4.92508	3.80955	2.94341	21.21579	13.39301	7.35547
27200	1.27764	1.15449	0.81082	5.93210	4.81594	3.92470	20.50329	12.50444	6.38941	2.14117	2.02751	1.67264	4.92612	3.81063	2.94477	21.23330	13.39755	7.35865
27370	1.27788	1.15575	0.80964	5.92969	4.81377	3.92253	20.48261	12.49593	6.38485	2.13885	2.02513	1.67020	4.92917	3.81361	2.94771	21.23805	13.40454	7.36261
27530	1.27921	1.15765	0.81149	5.93396	4.81689	3.92592	20.47627	12.50720	6.38360	2.14188	2.02806	1.67294	4.92711	3.81090	2.94535	21.22593	13.40030	7.35945
27700	1.27857	1.15528	0.80961	5.93158	4.81575	3.92619	20.46830	12.50233	6.38651	2.14146	2.02809	1.67458	4.92779	3.81300	2.94521	21.22953	13.40127	7.36218
27860	1.28075	1.15795	0.81171	5.93334	4.81719	3.92779	20.44516	12.50608	6.38865	2.14319	2.03091	1.67591	4.92602	3.81091	2.94466	21.24100	13.40295	7.36214
28030	1.27841	1.15789	0.81091	5.93325	4.81932	3.92958	20.50438	12.50122	6.38768	2.14536	2.03328	1.67840	4.92914	3.81166	2.94640	21.22739	13.40632	7.36472	31.19	6.2	0.00	-2.04	0.01751	0.01211	0.01532	0.01840	0.01903	0.01490	0.00551	0.01527	0.02029	0.01897	0.01328	0.01693	0.01723	0.01781	0.01390	0.00571	0.01607	0.02159
28190	1.27806	1.15658	0.81148	5.93524	4.81918	3.92852	20.46504	12.50491	6.38271	2.14398	2.03222	1.67678	4.93006	3.81249	2.94585	21.23230	13.40870	7.36759
28360	1.28092	1.15822	0.81102	5.93801	4.82158	3.93156	20.49784	12.50357	6.38844	2.14585	2.03477	1.67831	4.92756	3.80904	2.94523	21.23639	13.40589	7.36616
28520	1.27893	1.15848	0.81171	5.93633	4.82177	3.93299	20.48859	12.50921	6.39046	2.14808	2.03728	1.68185	4.92970	3.81170	2.94428	21.23770	13.41083	7.37000
28690	1.28005	1.15579	0.81125	5.93901	4.82084	3.93191	20.50202	12.50059	6.38493	2.14588	2.03470	1.67866	4.92862	3.81430	2.94743	21.24787	13.41083	7.37142
28850	1.28151	1.15772	0.80922	5.94121	4.82264	3.93374	20.45094	12.50330	6.38667	2.14749	2.03538	1.67849	4.92911	3.80919	2.94438	21.23836	13.40890	7.36753
29010	1.28011	1.15939	0.81177	5.93835	4.82195	3.93301	20.49276	12.50346	6.39001	2.14712	2.03542	1.67925	4.92831	3.81139	2.94447	21.22330	13.40532	7.36675
29180	1.27754	1.15597	0.80992	5.93380	4.81688	3.92693	20.45491	12.50833	6.38434	2.14329	2.03180	1.67438	4.92819	3.81390	2.94895	21.22755	13.41009	7.36919
29340	1.28184	1.15742	0.81159	5.93680	4.82042	3.92970	20.45853	12.50792	6.38493	2.14552	2.03371	1.67654	4.92467	3.80741	2.94514	21.21823	13.40721	7.36467
29510	1.28061	1.15902	0.81457	5.93525	4.81922	3.93045	20.46612	12.51068	6.38727	2.14680	2.03403	1.67752	4.93005	3.81188	2.94517	21.24902	13.40934	7.36711
29670	1.27740	1.15522	0.81112	5.93371	4.81713	3.92756	20.47965	12.49660	6.38066	2.14363	2.03135	1.67424	4.92767	3.81288	2.94706	21.22851	13.40984	7.36833	31.25	6.1	0.00	-2.04	0.01751	0.01211	0.01532	0.01840	0.01903	0.01490	0.00551	0.01527	0.02029	0.01897	0.01328	0.01693	0.01723	0.01781	0.01390	0.00571	0.01607	0.02159
29840	1.27966	1.15863	0.81152	5.93519	4.81857	3.92886	20.47240	12.49936	6.38532	2.14423	2.03273	1.67479	4.92453	3.81004	2.94254	21.23588	13.40329	7.36292
30000	1.28098	1.16077	0.81304	5.93611	4.82054	3.93192	20.46589	12.50677	6.39028	2.14755	2.03514	1.67793	4.92928	3.81213	2.94771	21.24490	13.40594	7.36620
30170	1.27993	1.15788	0.81287	5.93501	4.81865	3.92834	20.48509	12.49824	6.38538	2.14443	2.03235	1.67528	4.92393	3.80831	2.94101	21.23588	13.40269	7.36146
30330	1.27944	1.15780	0.81090	5.93161	4.81604	3.92612	20.43896	12.50166	6.38243	2.14190	2.03153	1.67406	4.92397	3.80665	2.94500	21.24047	13.40021	7.36172
30500	1.27836	1.15676	0.81006	5.93362	4.81801	3.92665	20.49633	12.50466	6.38373	2.14272	2.03134	1.67499	4.92296	3.80709	2.94299	21.23064	13.40299	7.36223
30660	1.27847	1.15628	0.81150	5.93364	4.81945	3.92834	20.46245	12.50554	6.38270	2.14331	2.03325	1.67572	4.92352	3.80546	2.94408	21.22966	13.40306	7.36237
30830	1.27761	1.15688	0.81079	5.93225	4.81899	3.92777	20.44636	12.49753	6.38496	2.14334	2.03385	1.67586	4.92415	3.80633	2.94106	21.23064	13.40351	7.36211
30990	1.28002	1.15501	0.80949	5.93334	4.81734	3.92608	20.49107	12.50182	6.38225	2.14178	2.03150	1.67389	4.92535	3.81015	2.94728	21.24080	13.40420	7.36423
31160	1.28042	1.15698	0.81219	5.93495	4.81974	3.92833	20.45992	12.50242	6.38438	2.14314	2.03260	1.67571	4.92264	3.80759	2.94130	21.23818	13.40220	7.36161
31320	1.27902	1.15575	0.81151	5.93239	4.81747	3.92617	20.47221	12.49909	6.38125	2.14130	2.03165	1.67389	4.92408	3.80850	2.94567	21.23522	13.39905	7.35837	31.19	6.0	0.00	-2.04	0.01751	0.01211	0.01532	0.01840	0.01903	0.01490	0.00551	0.01527	0.02029	0.01897	0.01328	0.01693	0.01723	0.01781	0.01390	0.00571	0.01607	0.02159
31490	1.28024	1.15524	0.81278	5.93207	4.81671	3.92519	20.46768	12.50590	6.38506	2.14252	2.03209	1.67395	4.92713	3.81032	2.94697	21.22768	13.39763	7.35810
31650	1.27973	1.15388	0.81018	5.92905	4.81392	3.92274	20.47945	12.49671	6.38194	2.13926	2.02873	1.67237	4.92794	3.81272	2.94815	21.21296	13.40125	7.35998
31820	1.28261	1.16088	0.81236	5.93015	4.81626	3.92496	20.50049	12.49996	6.38479	2.14177	2.03037	1.67322	4.92518	3.80978	2.94531	21.23685	13.39853	7.35821
31980	1.28080	1.15662	0.81205	5.92867	4.81596	3.92491	20.49360	12.50098	6.38193	2.14176	2.03015	1.67400	4.92127	3.80612	2.94163	21.23030	13.39706	7.35760
32150	1.28018	1.15678	0.81246	5.93024	4.81757	3.92632	20.47764	12.50251	6.38460	2.14402	2.03246	1.67619	4.92484	3.80766	2.94281	21.22654	13.40302	7.36079
32310	1.27742	1.15416	0.80894	5.92847	4.81504	3.92393	20.52577	12.49606	6.37980	2.14246	2.02956	1.67503	4.92341	3.80889	2.94309	21.24374	13.40535	7.36468
32480	1.28018	1.15534	0.81007	5.93026	4.81729	3.92765	20.49142	12.49827	6.37885	2.14570	2.03258	1.67771	4.92124	3.80573	2.94132	21.22359	13.40073	7.36085
32640	1.27677	1.15354	0.80926	5.92826	4.81489	3.92662	20.47311	12.49824	6.37827	2.14565	2.03209	1.67849	4.92120	3.80568	2.93828	21.23079	13.40381	7.36099
32810	1.27827	1.15532	0.81038	5.93009	4.81702	3.93055	20.49305	12.50232	6.38068	2.14927	2.03418	1.68126	4.92394	3.80648	2.94366	21.24899	13.40689	7.36564
32970	1.27892	1.15396	0.80727	5.93017	4.81579	3.93045	20.45641	12.49383	6.37585	2.14813	2.03365	1.68049	4.92371	3.80752	2.94377	21.23560	13.40940	7.36888	31.25	6.1	0.00	-2.04	0.01751	0.01211	0.01532	0.01840	0.01903	0.01490	0.00551	0.01527	0.02029	0.01897	0.01328	0.01693	0.01723	0.01781	0.01390	0.00571	0.01607	0.02159
33140	1.27680	1.15336	0.80883	5.93429	4.81878	3.93307	20.48356	12.49184	6.37975	2.15453	2.03599	1.68143	4.92259	3.80715	2.94441	21.23019	13.41117	7.36738
33300	1.28059	1.15451	0.80927	5.93634	4.82268	3.93384	20.49735	12.49375	6.37967	2.15372	2.03839	1.68491	4.92425	3.80575	2.93975	21.24035	13.40657	7.36719
33470	1.27612	1.15020	0.80659	5.93440	4.81993	3.93183	20.44521	12.49465	6.37741	2.15249	2.03744	1.68301	4.91810	3.80371	2.94066	21.22315	13.40280	7.36481
33630	1.27731	1.15156	0.80644	5.93100	4.81747	3.92911	20.46871	12.48911	6.37395	2.15008	2.03389	1.68102	4.92066	3.80480	2.93954	21.22545	13.40290	7.36136
33800	1.27562	1.15369	0.81038	5.92887	4.81549	3.92976	20.46093	12.49247	6.37992	2.14943	2.03198	1.67948	4.92172	3.80212	2.93741	21.22921	13.39581	7.35653
33960	1.27473	1.15225	0.80995	5.92335	4.81132	3.92571	20.47179	12.49564	6.38183	2.15002	2.03102	1.67813	4.92003	3.80743	2.94022	21.21547	13.39110	7.35381
34130	1.27572	1.15387	0.80940	5.92173	4.80747	3.92139	20.48882	12.49692	6.37808	2.14095	2.02499	1.67230	4.92089	3.80666	2.94355	21.20926	13.39266	7.35594
34290	1.27767	1.15567	0.80889	5.92579	4.81071	3.92309	20.46364	12.49585	6.38268	2.14138	2.02709	1.67333	4.92148	3.80554	2.94097	21.22577	13.38967	7.35251
34450	1.27753	1.15615	0.81165	5.92349	4.80916	3.92303	20.46690	12.49861	6.38384	2.14027	2.02730	1.67261	4.92406	3.80487	2.94008	21.22266	13.38991	7.35205
34620	1.27613	1.15397	0.80941	5.92166	4.80629	3.91838	20.48730	12.49612	6.37758	2.13677	2.02470	1.67044	4.92362	3.80970	2.94599	21.20607	13.39247	7.35440	31.25	6.1	0.00	-2.04	0.01751	0.01211	0.01532	0.01840	0.01903	0.01490	0.00551	0.01527	0.02029	0.01897	0.01328	0.01693	0.01723	0.01781	0.01390	0.00571	0.01607	0.02159
34780	1.27659	1.15661	0.80915	5.92338	4.80917	3.92068	20.48313	12.49800	6.38372	2.13967	2.02649	1.67260	4.92406	3.80533	2.94110	21.21686	13.38754	7.34997
34950	1.27678	1.15722	0.81249	5.92448	4.81154	3.92311	20.48494	12.50484	6.38335	2.14203	2.02935	1.67509	4.92576	3.80751	2.94592	21.20558	13.39301	7.35435
35110	1.27796	1.15425	0.80874	5.92397	4.80939	3.92070	20.48821	12.49655	6.37975	2.13838	2.02735	1.67223	4.92521	3.80711	2.94591	21.22128	13.39296	7.35655
35280	1.27946	1.15750	0.80980	5.92721	4.81235	3.92321	20.47045	12.50169	6.38189	2.14110	2.02958	1.67559	4.92137	3.80939	2.94135	21.21555	13.39063	7.35400
35440	1.27642	1.15694	0.81513	5.92875	4.81556	3.92645	20.46430	12.50396	6.38357	2.14381	2.03336	1.67860	4.92462	3.81215	2.94383	21.21424	13.39420	7.35698
35610	1.27732	1.15548	0.81018	5.92793	4.81299	3.92293	20.44875	12.49398	6.37890	2.14014	2.03136	1.67543	4.92475	3.80984	2.94801	21.22013	13.39799	7.35756
35770	1.27905	1.15593	0.81097	5.92943	4.81412	3.92340	20.49873	12.50385	6.38114	2.14110	2.03215	1.67630	4.92171	3.80699	2.94190	21.22619	13.39073	7.35463
35940	1.27720	1.15502	0.81057	5.92923	4.81464	3.92554	20.49655	12.49901	6.38293	2.14165	2.03296	1.67641	4.92239	3.80622	2.94291	21.21261	13.39433	7.35599
36100	1.27638	1.15361	0.81002	5.92692	4.81268	3.92117	20.46014	12.48937	6.37842	2.13764	2.02931	1.67375	4.92102	3.80785	2.94224	21.22324	13.39232	7.35549
36270	1.27832	1.15442	0.81145	5.92826	4.81294	3.92241	20.49646	12.50069	6.38015	2.13891	2.03188	1.67552	4.92386	3.81299	2.94699	21.23191	13.39543	7.35641	31.19	6.1	0.00	-2.04	0.01751	0.01211	0.01532	0.01840	0.01903	0.01490	0.00551	0.01527	0.02029	0.01897	0.01328	0.01693	0.01723	0.01781	0.01390	0.00571	0.01607	0.02159
36430	1.27944	1.15840	0.81355	5.93039	4.81487	3.92342	20.50681	12.50890	6.38236	2.14033	2.03187	1.67628	4.92905	3.81153	2.94492	21.22127	13.39085	7.35280
36590	1.27724	1.15762	0.81542	5.92658	4.81355	3.92339	20.47851	12.50592	6.38396	2.14035	2.03161	1.67593	4.93051	3.81273	2.94347	21.21849	13.39070	7.35286
36760	1.27936	1.15500	0.81115	5.92556	4.81124	3.91929	20.47471	12.49553	6.38153	2.13591	2.02861	1.67214	4.92576	3.81162	2.95003	21.22487	13.39256	7.35458
36920	1.27987	1.15737	0.81252	5.92850	4.81290	3.92147	20.45318	12.49725	6.38126	2.13829	2.02903	1.67389	4.92699	3.80680	2.94162	21.22094	13.38911	7.35130
37090	1.27761	1.15418	0.81329	5.92393	4.81003	3.91816	20.48123	12.50067	6.37921	2.13514	2.02650	1.67140	4.92372	3.80918	2.94397	21.20573	13.38636	7.34888
37250	1.27511	1.15564	0.81195	5.92257	4.80720	3.91555	20.47779	12.49206	6.37758	2.13273	2.02497	1.66956	4.93082	3.81368	2.94925	21.21521	13.38914	7.35283
37420	1.27916	1.15829	0.81328	5.92686	4.81134	3.91851	20.51336	12.49722	6.38681	2.13630	2.02779	1.67207	4.92979	3.81057	2.94678	21.22045	13.38589	7.35012
37580	1.27709	1.15629	0.81274	5.92323	4.80851	3.91700	20.44433	12.49334	6.38262	2.13481	2.02518	1.66988	4.92725	3.81015	2.94496	21.21636	13.38465	7.34788
37750	1.27873	1.15764	0.81356	5.92432	4.81150	3.91797	20.48993	12.49853	6.38367	2.13780	2.02865	1.67206	4.92797	3.81295	2.94605	21.21636	13.38820	7.34980
37910	1.27802	1.15775	0.81046	5.92139	4.80744	3.91496	20.45226	12.49188	6.37889	2.13418	2.02397	1.66934	4.92793	3.81098	2.94638	21.22602	13.39139	7.35166	31.25	6.1	0.00	-2.04	0.01751	0.01211	0.01532	0.01840	0.01903	0.01490	0.00551	0.01527	0.02029	0.01897	0.01328	0.01693	0.01723	0.01781	0.01390	0.00571	0.01607	0.02159
38080	1.28013	1.15418	0.81293	5.92432	4.80983	3.91801	20.46835	12.49289	6.37646	2.13732	2.02630	1.67083	4.92244	3.80768	2.94412	21.20509	13.38458	7.34761
38240	1.27674	1.15461	0.81170	5.92263	4.80919	3.91783	20.46835	12.48754	6.37564	2.13680	2.02664	1.67040	4.92345	3.80637	2.94183	21.20754	13.38190	7.34594
38410	1.27740	1.15342	0.81201	5.92150	4.80947	3.91835	20.48864	12.49319	6.37578	2.13720	2.02577	1.67118	4.92143	3.80698	2.94394	21.20542	13.38163	7.34587
38570	1.27635	1.15322	0.80982	5.91868	4.80687	3.91482	20.45262	12.49057	6.37742	2.13296	2.02174	1.66791	4.91986	3.80726	2.94088	21.20542	13.38114	7.34522
38740	1.27674	1.15411	0.80986	5.91956	4.80790	3.91661	20.45262	12.49354	6.37851	2.13368	2.02494	1.66829	4.92163	3.80734	2.94291	21.21343	13.38012	7.34609
38910	1.27798	1.15134	0.81226	5.91942	4.80784	3.91511	20.47179	12.49387	6.37551	2.13227	2.02287	1.66790	4.92254	3.80819	2.94775	21.20983	13.38510	7.34832
39070	1.27808	1.15444	0.81188	5.92281	4.81130	3.91885	20.44521	12.49365	6.37917	2.13496	2.02602	1.66979	4.92226	3.80911	2.94345	21.21457	13.38279	7.34545
39240	1.27688	1.15282	0.81068	5.92040	4.80915	3.91572	20.44665	12.48568	6.37714	2.13290	2.02409	1.66850	4.92143	3.80576	2.94359	21.19644	13.38079	7.34449
39400	1.27555	1.15242	0.81192	5.92008	4.81104	3.91878	20.42681	12.49076	6.37695	2.13488	2.02727	1.67114	4.92279	3.80836	2.94408	21.20738	13.38331	7.34632
39570	1.27576	1.15103	0.80972	5.92097	4.80923	3.91614	20.40955	12.49151	6.37564	2.13087	2.02461	1.66790	4.92235	3.80711	2.94419	21.20297	13.38699	7.35062	31.25	6.1	0.00	-2.04	0.01751	0.01211	0.01532	0.01840	0.01903	0.01490	0.00551	0.01527	0.02029	0.01897	0.01328	0.01693	0.01723	0.01781	0.01390	0.00571	0.01607	0.02158
39730	1.27706	1.15232	0.81237	5.92516	4.81436	3.91964	20.48197	12.49416	6.37575	2.13434	2.02839	1.67098	4.92142	3.80512	2.94239	21.21179	13.38712	7.34995
39900	1.27471	1.14877	0.80946	5.92341	4.81220	3.91847	20.45808	12.49067	6.37463	2.13257	2.02669	1.66950	4.91849	3.80114	2.93721	21.20428	13.38239	7.34485
40060	1.27362	1.15108	0.81030	5.92435	4.81365	3.92010	20.43622	12.48988	6.37663	2.13483	2.02885	1.67129	4.91789	3.80602	2.93788	21.21931	13.38338	7.34880
40230	1.27179	1.14620	0.80791	5.92222	4.80971	3.91670	20.44687	12.49132	6.37261	2.13248	2.02612	1.66866	4.91923	3.80323	2.94031	21.21572	13.38803	7.35303
40390	1.27382	1.14978	0.81033	5.92792	4.81486	3.92138	20.47527	12.49247	6.37313	2.13680	2.03056	1.67277	4.91728	3.80383	2.93706	21.21621	13.38558	7.34995
40560	1.27203	1.14860	0.80881	5.92563	4.81325	3.91990	20.46169	12.49078	6.37472	2.13563	2.02940	1.67098	4.91726	3.80189	2.93646	21.21555	13.38276	7.34809
40720	1.27232	1.15045	0.80864	5.92535	4.81329	3.92166	20.42883	12.48777	6.37378	2.13558	2.02971	1.67260	4.91716	3.80548	2.93772	21.20591	13.38615	7.34891
40890	1.27331	1.14947	0.80849	5.92299	4.81177	3.91957	20.45175	12.48518	6.37197	2.13397	2.02651	1.67002	4.91847	3.80223	2.94080	21.21130	13.38476	7.35067
41050	1.27438	1.14996	0.80979	5.92469	4.81237	3.91940	20.46405	12.48196	6.37390	2.13462	2.02732	1.67145	4.91862	3.80338	2.93835	21.19611	13.38325	7.34830
41220	1.27191	1.14828	0.80806	5.92355	4.81141	3.91967	20.43626	12.49169	6.37287	2.13395	2.02675	1.67045	4.92053	3.80478	2.94004	21.22854	13.38547	7.34940	31.25	6.0	0.00	-2.04	0.01751	0.01211	0.01532	0.01840	0.01903	0.01490	0.00551	0.01527	0.02029	0.01897	0.01328	0.01693	0.01723	0.01781	0.01390	0.00571	0.01607	0.02158
41380	1.27154	1.14924	0.81030	5.92464	4.81290	3.92105	20.43536	12.48377	6.37528	2.13602	2.02790	1.67057	4.92092	3.80270	2.93897	21.20662	13.38485	7.34745
41550	1.27177	1.14965	0.81016	5.92386	4.81277	3.92013	20.47440	12.48865	6.37236	2.13611	2.02741	1.67082	4.91895	3.80564	2.93974	21.21283	13.38336	7.34861
41710	1.27222	1.14779	0.80804	5.92337	4.81072	3.91732	20.44908	12.48612	6.37022	2.13385	2.02421	1.66800	4.91844	3.80506	2.93879	21.20793	13.38421	7.35014
41880	1.27597	1.15047	0.80875	5.92708	4.81344	3.92054	20.48310	12.48699	6.37200	2.13604	2.02649	1.67103	4.91788	3.80253	2.94047	21.21643	13.38562	7.34794
42040	1.26940	1.14653	0.80939	5.92497	4.81410	3.92043	20.44420	12.48459	6.37523	2.13708	2.02765	1.67195	4.91654	3.80583	2.93672	21.20401	13.38587	7.34939
42200	1.27049	1.14780	0.80626	5.92634	4.81202	3.91952	20.40977	12.48374	6.36762	2.13485	2.02587	1.66935	4.91910	3.80538	2.94170	21.20434	13.38795	7.35042
42370	1.27342	1.14758	0.80775	5.92832	4.81328	3.92085	20.45540	12.48191	6.37143	2.13614	2.02710	1.67093	4.91897	3.80491	2.93834	21.21856	13.38624	7.35075
42530	1.27320	1.14667	0.80984	5.92873	4.81551	3.92069	20.48165	12.48099	6.37192	2.13792	2.02883	1.67351	4.91549	3.80211	2.94008	21.22346	13.39013	7.35162
42700	1.27100	1.14732	0.80609	5.92870	4.81525	3.92163	20.44781	12.48628	6.37048	2.13765	2.02774	1.67188	4.91971	3.80513	2.93917	21.21414	13.39203	7.35375
42860	1.27405	1.15021	0.81047	5.92945	4.81574	3.92252	20.43002	12.48628	6.37551	2.13852	2.02803	1.67278	4.92393	3.80883	2.94425	21.21508	13.38865	7.35134	31.25	6.0	0.00	-2.04	0.01751	0.01211	0.01532	0.01840	0.01903	0.01490	0.00551	0.01527	0.02029	0.01897	0.01328	0.01693	0.01723	0.01781	0.01390	0.00571	0.01607	0.02158
43030	1.27513	1.15512	0.81282	5.93177	4.81862	3.92504	20.46397	12.49983	6.38466	2.14165	2.03003	1.67476	4.92900	3.81310	2.94691	21.23521	13.39262	7.35448
43190	1.27728	1.15307	0.81229	5.92915	4.81408	3.91930	20.45855	12.49756	6.38252	2.13728	2.02601	1.67130	4.92849	3.81297	2.94863	21.22440	13.39301	7.35663
43360	1.28127	1.15756	0.81654	5.93288	4.81770	3.92403	20.48444	12.49888	6.38546	2.14119	2.02902	1.67532	4.92686	3.81315	2.94664	21.21279	13.38845	7.35264
43520	1.27936	1.15501	0.81332	5.92913	4.81501	3.92060	20.44788	12.49489	6.38163	2.13915	2.02639	1.67304	4.92676	3.80860	2.94087	21.22129	13.38645	7.35096
43690	1.27828	1.15424	0.81515	5.92956	4.81574	3.92186	20.50313	12.50158	6.38581	2.14048	2.02724	1.67430	4.92922	3.81192	2.94599	21.21966	13.38816	7.35149
43850	1.27839	1.15543	0.81534	5.92822	4.81378	3.91972	20.43651	12.50371	6.39055	2.13955	2.02512	1.67193	4.93284	3.82001	2.95219	21.22407	13.38870	7.35126
44020	1.28251	1.16186	0.81880	5.92797	4.81378	3.92119	20.52968	12.50664	6.39429	2.14115	2.02689	1.67436	4.93652	3.81945	2.95552	21.21540	13.39019	7.35505
44180	1.28756	1.16267	0.82150	5.93075	4.81701	3.92326	20.45999	12.50344	6.39777	2.14345	2.02939	1.67654	4.93555	3.82002	2.95589	21.21638	13.39046	7.35322
44350	1.28342	1.15812	0.81742	5.92788	4.81408	3.92061	20.47067	12.50019	6.38933	2.14160	2.02754	1.67551	4.93366	3.81629	2.94941	21.20347	13.39016	7.35248
44510	1.28010	1.15738	0.81746	5.92756	4.81377	3.92120	20.47764	12.49729	6.38454	2.14281	2.02726	1.67575	4.93221	3.81300	2.94941	21.22682	13.39547	7.35720	31.19	6.1	0.00	-2.04	0.01751	0.01211	0.01532	0.01840	0.01903	0.01490	0.00551	0.01527	0.02029	0.01897	0.01328	0.01693	0.01723	0.01781	0.01390	0.00571	0.01607	0.02158
44680	1.28056	1.15871	0.81739	5.93026	4.81700	3.92551	20.43985	12.49806	6.38600	2.14651	2.03135	1.67920	4.93193	3.81530	2.94748	21.21406	13.39031	7.35543
44840	1.27871	1.15682	0.81672	5.92903	4.81667	3.92666	20.44689	12.49937	6.38654	2.14829	2.03267	1.68121	4.92885	3.81368	2.94908	21.21177	13.39463	7.35688
45010	1.28086	1.15758	0.81552	5.92917	4.81644	3.92551	20.47311	12.50295	6.38589	2.14724	2.03117	1.67940	4.93317	3.81834	2.95610	21.21945	13.39646	7.36030
45170	1.28234	1.16108	0.81950	5.93185	4.81770	3.92752	20.51230	12.50063	6.39228	2.14895	2.03202	1.68093	4.93160	3.81474	2.95047	21.21667	13.39366	7.35853
45330	1.28335	1.15898	0.81885	5.93385	4.82077	3.93217	20.45701	12.50210	6.39148	2.15363	2.03580	1.68425	4.93500	3.81768	2.95147	21.22305	13.39988	7.36250
45500	1.28187	1.15689	0.81700	5.93404	4.81975	3.93048	20.45629	12.49609	6.38617	2.15107	2.03521	1.68396	4.93504	3.81562	2.95175	21.22862	13.40162	7.36531
45660	1.27990	1.15647	0.81641	5.93665	4.82269	3.93317	20.45285	12.50446	6.38695	2.15547	2.03840	1.68680	4.92974	3.81054	2.94538	21.22125	13.39921	7.36235
45830	1.27762	1.15426	0.81714	5.93785	4.82546	3.93611	20.48634	12.50251	6.38815	2.15741	2.04040	1.68921	4.93106	3.81409	2.95063	21.23107	13.40507	7.36579
45990	1.27990	1.15483	0.81582	5.93608	4.82326	3.93388	20.46859	12.49735	6.38514	2.15528	2.03923	1.68766	4.93218	3.81782	2.95158	21.22878	13.40487	7.36853
46160	1.28247	1.15746	0.81682	5.93876	4.82660	3.93692	20.48433	12.49667	6.38723	2.15789	2.04234	1.69059	4.93151	3.81299	2.95007	21.22708	13.40525	7.36624	31.25	5.9	0.00	-2.04	0.01751	0.01211	0.01532	0.01840	0.01903	0.01490	0.00551	0.01527	0.02029	0.01897	0.01328	0.01693	0.01723	0.01781	0.01390	0.00571	0.01607	0.02158
46320	1.27850	1.16007	0.81809	5.94052	4.82937	3.94076	20.49031	12.50069	6.39117	2.16076	2.04465	1.69313	4.93402	3.81401	2.95180	21.23445	13.40842	7.36930
46490	1.27892	1.15658	0.81469	5.93942	4.82668	3.93837	20.50011	12.49735	6.38569	2.15760	2.04237	1.69050	4.93022	3.81202	2.94759	21.22217	13.40418	7.36618
46650	1.27633	1.15521	0.81506	5.93788	4.82549	3.93719	20.49975	12.49369	6.38160	2.15704	2.04161	1.69004	4.92601	3.80774	2.94419	21.22004	13.40180	7.36547
46820	1.27798	1.15656	0.81440	5.94121	4.83018	3.94157	20.47490	12.50238	6.38462	2.16136	2.04675	1.69539	4.92991	3.81166	2.94762	21.23920	13.40972	7.37104
46980	1.27439	1.15021	0.81170	5.94149	4.82948	3.93953	20.45898	12.49211	6.37994	2.16008	2.04410	1.69278	4.92605	3.80690	2.94224	21.22593	13.40748	7.36931
47140	1.27360	1.15008	0.81003	5.94057	4.82755	3.93887	20.47183	12.49175	6.37698	2.15929	2.04369	1.69378	4.92676	3.80672	2.94679	21.23756	13.41287	7.37471
47310	1.27703	1.15438	0.81381	5.94655	4.83308	3.94403	20.43117	12.49664	6.38160	2.16441	2.04924	1.69783	4.92766	3.81000	2.94545	21.23855	13.41098	7.37349
47470	1.27506	1.15267	0.81327	5.94613	4.83332	3.94605	20.46947	12.49924	6.38090	2.16457	2.05053	1.69896	4.93144	3.81257	2.94452	21.24002	13.41453	7.37517
47640	1.27757	1.15479	0.81321	5.94598	4.83237	3.94372	20.45699	12.49812	6.38658	2.16277	2.04762	1.69716	4.92940	3.81335	2.94845	21.24248	13.41317	7.37470
47800	1.27925	1.15510	0.81582	5.94639	4.83346	3.94385	20.43481	12.50146	6.38603	2.16293	2.04865	1.69694	4.92974	3.81404	2.95054	21.23116	13.41199	7.37469	31.25	6.0	0.00	-2.04	0.01751	0.01211	0.01532	0.01840	0.01903	0.01490	0.00551	0.01527	0.02029	0.01897	0.01328	0.01693	0.01723	0.01781	0.01390	0.00571	0.01607	0.02158
47970	1.28066	1.15769	0.81772	5.94911	4.83589	3.94742	20.48763	12.49764	6.38473	2.16586	2.05069	1.69965	4.93030	3.81311	2.94763	21.24804	13.41328	7.37576
48130	1.27584	1.15396	0.81126	5.94736	4.83313	3.94401	20.43969	12.49002	6.37800	2.16250	2.04702	1.69676	4.92578	3.81109	2.94826	21.23296	13.41492	7.37818
48300	1.27748	1.15349	0.81243	5.94902	4.83450	3.94544	20.48781	12.48890	6.37464	2.16467	2.04908	1.69842	4.92088	3.80580	2.93846	21.24771	13.41497	7.37539
48460	1.27474	1.14868	0.80931	5.94795	4.83394	3.94573	20.42886	12.48398	6.37269	2.16470	2.04986	1.69754	4.91964	3.80194	2.94334	21.25050	13.41196	7.37403
48630	1.27387	1.14782	0.81105	5.94869	4.83492	3.94538	20.46661	12.48860	6.37804	2.16421	2.04967	1.69754	4.92025	3.80741	2.94140	21.23542	13.41492	7.37457
48790	1.27256	1.14793	0.80879	5.94641	4.83063	3.94067	20.44474	12.48901	6.37343	2.16097	2.04620	1.69422	4.92142	3.80744	2.94485	21.24083	13.41576	7.37817
48960	1.27470	1.15032	0.81023	5.95048	4.83483	3.94590	20.49017	12.48914	6.37317	2.16377	2.04736	1.69599	4.91885	3.80339	2.93845	21.24755	13.41293	7.37384
49120	1.27209	1.14893	0.80979	5.94647	4.83191	3.94391	20.45775	12.48914	6.37310	2.16074	2.04582	1.69389	4.91769	3.80243	2.93722	21.24378	13.41012	7.37280
49290	1.27351	1.14983	0.80967	5.94969	4.83330	3.94416	20.46716	12.48991	6.37474	2.16220	2.04689	1.69424	4.91874	3.80442	2.93860	21.23951	13.41286	7.37554
49450	1.27116	1.14680	0.80737	5.94758	4.83127	3.94181	20.44452	12.48694	6.37000	2.15921	2.04457	1.69341	4.91835	3.80201	2.93778	21.25052	13.41397	7.37563	31.25	6.1	0.00	-2.04	0.01751	0.01211	0.01532	0.01840	0.01903	0.01490	0.00551	0.01527	0.02029	0.01897	0.01328	0.01693	0.01723	0.01781	0.01390	0.00571	0.01607	0.02158
49620	1.27223	1.14752	0.80976	5.94919	4.83404	3.94284	20.44759	12.48563	6.37199	2.16029	2.04653	1.69387	4.91944	3.80345	2.94207	21.24264	13.41395	7.37657
49780	1.27443	1.14745	0.80884	5.94979	4.83389	3.94376	20.43676	12.48415	6.37153	2.15962	2.04602	1.69362	4.91699	3.80366	2.93745	21.24363	13.41623	7.37757
49950	1.27380	1.14683	0.80938	5.95001	4.83476	3.94400	20.44398	12.48066	6.37334	2.15928	2.04655	1.69424	4.91712	3.80066	2.93712	21.24396	13.41263	7.37524
50120	1.26898	1.14802	0.80854	5.94893	4.83613	3.94690	20.45374	12.49300	6.37679	2.16331	2.04963	1.69677	4.92088	3.80373	2.94247	21.24461	13.42063	7.38108
50280	1.27293	1.14844	0.80917	5.95331	4.83592	3.94604	20.45627	12.49071	6.37414	2.16153	2.04738	1.69451	4.91957	3.80482	2.93921	21.24396	13.41914	7.37936
50450	1.27031	1.14590	0.80865	5.95037	4.83283	3.94241	20.43424	12.48699	6.37243	2.15834	2.04460	1.69275	4.91939	3.80442	2.93812	21.23674	13.42103	7.37980
50610	1.27284	1.14975	0.80870	5.95170	4.83522	3.94360	20.47744	12.48708	6.37585	2.16091	2.04587	1.69324	4.91933	3.80197	2.94072	21.24281	13.41623	7.37504
50780	1.27245	1.15017	0.80943	5.94932	4.83491	3.94434	20.46441	12.49262	6.37903	2.16089	2.04557	1.69320	4.92198	3.80786	2.94135	21.25380	13.41695	7.37684
50940	1.27342	1.14592	0.80934	5.94838	4.83243	3.94073	20.45663	12.48896	6.37496	2.15882	2.04388	1.69126	4.91787	3.80267	2.93642	21.24117	13.41266	7.37299
51110	1.27014	1.14403	0.80580	5.94445	4.82743	3.93674	20.46433	12.48505	6.36973	2.15396	2.03895	1.68659	4.91728	3.80301	2.93705	21.24830	13.41364	7.37419	31.25	6.1	0.00	-2.04	0.01751	0.01211	0.01532	0.01840	0.01903	0.01490	0.00551	0.01527	0.02029	0.01897	0.01328	0.01693	0.01723	0.01781	0.01390	0.00571	0.01607	0.02158
51270	1.27167	1.14824	0.80897	5.94516	4.82825	3.93756	20.44680	12.49111	6.37081	2.15547	2.04116	1.68766	4.91556	3.80187	2.93661	21.23403	13.41195	7.36908
51440	1.27095	1.14730	0.81055	5.94473	4.82998	3.93924	20.45583	12.48841	6.37320	2.15746	2.04206	1.68967	4.91854	3.80351	2.93602	21.24452	13.41423	7.37176
51600	1.27197	1.14485	0.80725	5.94302	4.82663	3.93665	20.46995	12.47973	6.37155	2.15510	2.03979	1.68756	4.91691	3.80503	2.94041	21.24616	13.41577	7.37492
51770	1.27209	1.14705	0.81013	5.94506	4.82981	3.93942	20.44861	12.49149	6.37474	2.15907	2.04316	1.69187	4.91680	3.80340	2.93796	21.23633	13.41329	7.37150
51930	1.27034	1.14527	0.80881	5.94354	4.82965	3.94026	20.46253	12.48565	6.37292	2.16027	2.04426	1.69224	4.91617	3.80075	2.93826	21.23911	13.41379	7.37163
52100	1.26993	1.14565	0.80978	5.94637	4.83268	3.94271	20.45276	12.48862	6.37445	2.16155	2.04590	1.69348	4.91817	3.80438	2.93833	21.24272	13.41548	7.37315
52260	1.27082	1.14681	0.80870	5.94563	4.83088	3.94214	20.45294	12.48813	6.37227	2.16124	2.04404	1.69267	4.91834	3.80221	2.93957	21.23665	13.41374	7.37312
52430	1.26985	1.14628	0.80771	5.94554	4.83159	3.94068	20.43218	12.48510	6.37289	2.16073	2.04423	1.69138	4.91726	3.80138	2.93803	21.23469	13.41433	7.37268
52590	1.27122	1.14529	0.80897	5.94546	4.83213	3.94118	20.46090	12.48521	6.37324	2.16175	2.04449	1.69283	4.91708	3.80334	2.93798	21.24583	13.41391	7.37458
52760	1.27207	1.14732	0.81079	5.94570	4.83227	3.94208	20.46906	12.48352	6.37360	2.16180	2.04528	1.69411	4.91697	3.79921	2.93669	21.24143	13.41148	7.37069	31.30	6.0	0.00	-2.04	0.01751	0.01211	0.01532	0.01840	0.01903	0.01490	0.00551	0.01527	0.02029	0.01897	0.01328	0.01693	0.01723	0.01781	0.01390	0.00571	0.01607	0.02158
52920	1.27054	1.14809	0.81053	5.94550	4.83380	3.94389	20.51878	12.49136	6.37446	2.16390	2.04796	1.69568	4.92149	3.80515	2.93904	21.25127	13.41403	7.37361
53090	1.27058	1.14681	0.80983	5.94656	4.83101	3.94071	20.45404	12.49051	6.37425	2.16074	2.04490	1.69266	4.91781	3.80140	2.94014	21.24963	13.41272	7.37295
53250	1.26991	1.14607	0.80655	5.94543	4.83104	3.93897	20.49189	12.48467	6.37167	2.16033	2.04482	1.69168	4.91878	3.80166	2.94055	21.23717	13.41493	7.37358
53420	1.27220	1.14707	0.80721	5.94687	4.83259	3.94216	20.49334	12.48775	6.37147	2.16048	2.04518	1.69212	4.91712	3.80016	2.93788	21.23537	13.41170	7.37002
53580	1.27009	1.15041	0.80986	5.94968	4.83790	3.94629	20.47920	12.48860	6.37430	2.16422	2.04844	1.69564	4.92016	3.80360	2.93865	21.23520	13.41441	7.37355
53750	1.27238	1.14712	0.80963	5.94783	4.83500	3.94242	20.49607	12.48428	6.37252	2.16176	2.04615	1.69365	4.91710	3.80157	2.93965	21.23176	13.40937	7.37151
53910	1.27028	1.14611	0.80564	5.94542	4.83227	3.94025	20.50824	12.48303	6.36897	2.15999	2.04498	1.69219	4.91782	3.80134	2.93677	21.23488	13.41016	7.37140
54080	1.27064	1.14845	0.80709	5.94672	4.83295	3.94129	20.46435	12.47727	6.37085	2.16173	2.04654	1.69332	4.91619	3.80062	2.93684	21.23013	13.40678	7.37000
54240	1.26996	1.14815	0.81077	5.94807	4.83562	3.94568	20.48065	12.48729	6.37209	2.16529	2.05002	1.69711	4.92097	3.80333	2.93959	21.23455	13.41202	7.37415
54410	1.27045	1.14635	0.80719	5.94678	4.83306	3.94268	20.45114	12.47939	6.36945	2.16236	2.04711	1.69483	4.91690	3.80128	2.94092	21.23558	13.41599	7.37653	31.25	6.0	0.00	-2.04	0.01751	0.01211	0.01532	0.01840	0.01903	0.01490	0.00551	0.01527	0.02029	0.01897	0.01328	0.01693	0.01723	0.01781	0.01390	0.00571	0.01607	0.02158
54570	1.27312	1.14646	0.80886	5.95108	4.83515	3.94645	20.45620	12.48092	6.37118	2.16648	2.05084	1.69758	4.91729	3.80019	2.93598	21.24361	13.41117	7.37363
54740	1.26980	1.14626	0.81059	5.94865	4.83458	3.94484	20.46017	12.47786	6.37018	2.16565	2.05030	1.69856	4.91617	3.80097	2.93896	21.24411	13.41628	7.37743
54900	1.27039	1.14719	0.81066	5.94996	4.83548	3.94815	20.42407	12.48228	6.37044	2.16722	2.05218	1.69905	4.91715	3.80046	2.93617	21.23345	13.41313	7.37440
55070	1.27069	1.14900	0.80905	5.94853	4.83548	3.94609	20.45638	12.48383	6.37091	2.16650	2.05216	1.69944	4.91709	3.80089	2.93656	21.23689	13.41412	7.37548
55230	1.27035	1.14680	0.80856	5.94791	4.83326	3.94313	20.43543	12.47969	6.36936	2.16242	2.04823	1.69487	4.91590	3.80116	2.93929	21.23607	13.41358	7.37504
55400	1.27065	1.14707	0.81049	5.94832	4.83422	3.94344	20.46813	12.48343	6.37251	2.16276	2.04940	1.69534	4.91734	3.79800	2.93471	21.23132	13.41216	7.37224
55560	1.26843	1.14712	0.80923	5.94603	4.83454	3.94551	20.44337	12.48736	6.37394	2.16408	2.05125	1.69765	4.91798	3.80156	2.93841	21.23935	13.41469	7.37441
55730	1.26993	1.14396	0.80829	5.94824	4.83212	3.94325	20.42911	12.48023	6.37115	2.16098	2.04832	1.69479	4.91865	3.80479	2.94017	21.23149	13.41479	7.37661
55890	1.27075	1.14642	0.80879	5.94919	4.83367	3.94441	20.44535	12.48274	6.37071	2.16238	2.04968	1.69570	4.91689	3.79826	2.93529	21.25444	13.41291	7.37247
56060	1.27085	1.14789	0.81025	5.94937	4.83441	3.94588	20.43808	12.48106	6.37076	2.16378	2.05163	1.69717	4.91713	3.80253	2.93662	21.23290	13.41600	7.37613	31.30	6.2	0.00	-2.04	0.01751	0.01211	0.01532	0.01840	0.01903	0.01490	0.00551	0.01527	0.02029	0.01897	0.01328	0.01693	0.01723	0.01781	0.01390	0.00571	0.01607	0.02158
56220	1.26909	1.14600	0.80668	5.94826	4.83172	3.94256	20.43176	12.48374	6.36855	2.16036	2.04798	1.69387	4.91497	3.80530	2.93663	21.25602	13.41446	7.37741
56380	1.27108	1.14658	0.80977	5.94919	4.83279	3.94292	20.45126	12.47599	6.36919	2.16079	2.04889	1.69548	4.91350	3.80069	2.93362	21.24256	13.41098	7.37235
56550	1.26954	1.14804	0.80973	5.94904	4.83384	3.94497	20.41627	12.48603	6.37094	2.16319	2.05060	1.69702	4.91587	3.80039	2.93694	21.24437	13.41264	7.37544
56710	1.26927	1.14559	0.80747	5.94848	4.83129	3.94223	20.48892	12.47383	6.36644	2.16031	2.04835	1.69617	4.91535	3.79984	2.93574	21.24995	13.41513	7.37634
56880	1.27039	1.14554	0.80634	5.94882	4.83167	3.94367	20.44295	12.47874	6.36639	2.16076	2.04891	1.69578	4.90982	3.79921	2.93457	21.23306	13.41133	7.37212
57040	1.26897	1.14506	0.80754	5.94905	4.83338	3.94594	20.44656	12.48172	6.36981	2.16238	2.05070	1.69739	4.91263	3.80013	2.93217	21.23552	13.41530	7.37572
57210	1.26908	1.14483	0.80756	5.94751	4.83096	3.94165	20.45668	12.47443	6.36545	2.16059	2.04848	1.69493	4.91310	3.79832	2.93600	21.22815	13.41411	7.37656
57370	1.27120	1.14459	0.80716	5.94980	4.83375	3.94449	20.47568	12.48101	6.36820	2.16285	2.05034	1.69800	4.91403	3.79681	2.93179	21.24060	13.41155	7.37320
57540	1.27052	1.14812	0.80971	5.95198	4.83664	3.94667	20.43230	12.47871	6.36793	2.16466	2.05297	1.69919	4.91504	3.79905	2.93210	21.24880	13.41495	7.37585
57700	1.26917	1.14555	0.80837	5.94964	4.83388	3.94359	20.41825	12.47542	6.36631	2.16159	2.05008	1.69602	4.91177	3.79845	2.93020	21.23540	13.41305	7.37252	31.30	6.1	0.00	-2.04	0.01751	0.01211	0.01532	0.01840	0.01903	0.01490	0.00551	0.01527	0.02029	0.01897	0.01328	0.01693	0.01723	0.01781	0.01390	0.00571	0.01607	0.02158
57870	1.26809	1.14309	0.80746	5.94760	4.83140	3.94117	20.42942	12.47185	6.36253	2.15961	2.04828	1.69457	4.91429	3.80050	2.93784	21.24261	13.41631	7.37741
58030	1.27030	1.14641	0.80938	5.95168	4.83525	3.94637	20.50998	12.48085	6.36617	2.16276	2.05201	1.69682	4.91468	3.79772	2.93397	21.24540	13.41459	7.37443
58190	1.26932	1.14552	0.80903	5.94905	4.83367	3.94521	20.44115	12.48080	6.37064	2.16296	2.05210	1.69728	4.91491	3.79866	2.93261	21.23360	13.41370	7.37654
58360	1.26970	1.14321	0.80690	5.94744	4.83151	3.94344	20.44458	12.47670	6.36439	2.16067	2.04872	1.69534	4.91355	3.79827	2.93403	21.24753	13.41469	7.37636
58520	1.26701	1.14251	0.80731	5.94970	4.83350	3.94614	20.47152	12.47439	6.36543	2.16213	2.05090	1.69579	4.90843	3.79463	2.93140	21.24507	13.41181	7.37477
58690	1.26556	1.14101	0.80383	5.94634	4.82966	3.94159	20.46935	12.47098	6.35967	2.15961	2.04793	1.69427	4.91065	3.79780	2.93626	21.23605	13.41598	7.37874
58850	1.27012	1.14270	0.80780	5.95198	4.83476	3.94749	20.43339	12.48172	6.36320	2.16421	2.05247	1.69870	4.90994	3.79537	2.93358	21.23507	13.41370	7.37684
59010	1.26872	1.14417	0.80654	5.95119	4.83518	3.94940	20.44891	12.47493	6.36455	2.16558	2.05457	1.69997	4.90821	3.79771	2.93396	21.23655	13.41206	7.37572
59180	1.26594	1.14173	0.80594	5.94847	4.83181	3.94627	20.43772	12.47212	6.36246	2.16149	2.05052	1.69654	4.90961	3.79867	2.93408	21.23671	13.41333	7.37608
59340	1.26728	1.14476	0.80603	5.95033	4.83229	3.94724	20.45414	12.47386	6.36490	2.16275	2.05175	1.69777	4.91011	3.79397	2.93452	21.24193	13.41132	7.37452	31.25	6.0	0.00	-2.04	0.01751	0.01211	0.01532	0.01840	0.01903	0.01490	0.00551	0.01527	0.02029	0.01897	0.01328	0.01693	0.01723	0.01781	0.01390	0.00571	0.01607	0.02158
59510	1.26621	1.14564	0.80689	5.95013	4.83423	3.94728	20.44727	12.47947	6.36471	2.16395	2.05327	1.69844	4.90992	3.79504	2.93336	21.22866	13.41465	7.37559
59670	1.26845	1.14422	0.80518	5.94924	4.83175	3.94485	20.44294	12.47669	6.36140	2.16157	2.05101	1.69657	4.91012	3.79774	2.93409	21.23406	13.41338	7.37671
59840	1.26829	1.14252	0.80592	5.94967	4.83324	3.94703	20.44185	12.47628	6.36134	2.16279	2.05351	1.69772	4.90890	3.79782	2.93388	21.24045	13.41030	7.37428
60000	1.26851	1.14281	0.80517	5.94822	4.83214	3.94415	20.46083	12.47118	6.36367	2.16114	2.05093	1.69715	4.90891	3.79680	2.93224	21.23914	13.41000	7.37214
60170	1.26918	1.14437	0.80754	5.94820	4.83336	3.94511	20.46589	12.47677	6.36498	2.16302	2.05272	1.69760	4.91063	3.79750	2.93498	21.23128	13.41075	7.37302
60340	1.26679	1.14283	0.80436	5.94515	4.82942	3.94026	20.43752	12.47304	6.36271	2.15938	2.04857	1.69393	4.90590	3.79227	2.93349	21.25128	13.40762	7.36894
60500	1.26713	1.14411	0.80522	5.94173	4.82889	3.93862	20.46535	12.47620	6.36175	2.15790	2.04733	1.69227	4.90839	3.79838	2.93600	21.21966	13.40732	7.37065
60670	1.27024	1.14488	0.80875	5.94343	4.82977	3.93886	20.42472	12.47871	6.36332	2.15801	2.04833	1.69294	4.90983	3.79626	2.93343	21.23423	13.41015	7.37010
60830	1.26940	1.14320	0.80608	5.94220	4.82881	3.93673	20.48618	12.47754	6.36122	2.15570	2.04680	1.69110	4.91032	3.79667	2.93511	21.23373	13.41057	7.37143
61000	1.26989	1.14362	0.80812	5.94293	4.82999	3.93780	20.46627	12.47538	6.36568	2.15571	2.04675	1.69051	4.90993	3.79711	2.93585	21.24395	13.40731	7.36666	31.30	6.1	0.00	-2.04	0.01751	0.01211	0.01532	0.01840	0.01903	0.01490	0.00551	0.01527	0.02029	0.01897	0.01328	0.01693	0.01723	0.01781	0.01390	0.00571	0.01607	0.02158
61160	1.26720	1.13884	0.80633	5.93962	4.82768	3.93518	20.42383	12.46933	6.35833	2.15218	2.04469	1.68895	4.90417	3.79282	2.93205	21.23772	13.40594	7.36418
61330	1.26699	1.14360	0.80859	5.93875	4.82888	3.93519	20.41554	12.48070	6.36304	2.15550	2.04649	1.69020	4.90748	3.79789	2.93348	21.23838	13.40790	7.36818
61490	1.26631	1.13976	0.80520	5.93969	4.82858	3.93416	20.38265	12.47129	6.35915	2.15411	2.04489	1.68917	4.90812	3.79555	2.93448	21.24133	13.41376	7.37077
61660	1.26788	1.14057	0.80490	5.94284	4.83074	3.93638	20.43898	12.46887	6.36092	2.15588	2.04723	1.69096	4.90614	3.79349	2.93061	21.24313	13.40852	7.36656
61820	1.26738	1.14228	0.80629	5.94404	4.83310	3.93891	20.44656	12.47206	6.36296	2.15978	2.05075	1.69326	4.90763	3.79557	2.93109	21.24740	13.41309	7.37092
61990	1.26702	1.13999	0.80378	5.94416	4.83077	3.93738	20.47605	12.47345	6.35871	2.15683	2.04827	1.69131	4.90614	3.79353	2.93102	21.24740	13.41334	7.37140
62150	1.26748	1.13928	0.80406	5.94484	4.83243	3.93816	20.43645	12.47361	6.35740	2.15832	2.04935	1.69382	4.90432	3.79348	2.92573	21.23952	13.41031	7.36834
62310	1.26541	1.14021	0.80365	5.94285	4.83259	3.93895	20.44440	12.47211	6.35928	2.15912	2.05023	1.69405	4.90577	3.79130	2.93033	21.24182	13.41210	7.37024
62480	1.26521	1.13797	0.80386	5.94464	4.83413	3.94021	20.42762	12.46903	6.35716	2.16089	2.05207	1.69599	4.90557	3.79190	2.92702	21.25642	13.41103	7.36978
62640	1.26581	1.14193	0.80582	5.94940	4.83938	3.94657	20.43573	12.48070	6.36294	2.16566	2.05758	1.70051	4.90637	3.79690	2.93262	21.24428	13.41797	7.37467	31.30	6.2	0.00	-2.04	0.01751	0.01211	0.01532	0.01840	0.01903	0.01490	0.00551	0.01527	0.02029	0.01897	0.01328	0.01693	0.01723	0.01781	0.01390	0.00571	0.01607	0.02158
62810	1.26805	1.14054	0.80381	5.94803	4.83512	3.94186	20.45361	12.46996	6.35907	2.16135	2.05396	1.69763	4.90586	3.79558	2.93444	21.24707	13.41561	7.37313
62970	1.26613	1.13888	0.80498	5.94634	4.83507	3.94225	20.42708	12.47454	6.35831	2.16056	2.05276	1.69705	4.90719	3.79125	2.92977	21.24133	13.41002	7.36938
63130	1.26509	1.13895	0.80582	5.94603	4.83572	3.94329	20.43122	12.46429	6.35919	2.16274	2.05443	1.69855	4.90765	3.79463	2.92962	21.24149	13.41084	7.37069
63300	1.26375	1.13966	0.80318	5.94388	4.83176	3.93929	20.47532	12.46715	6.35610	2.15884	2.04952	1.69516	4.90512	3.79244	2.92694	21.23854	13.40511	7.36709
63460	1.26394	1.14038	0.80429	5.94220	4.83261	3.94016	20.40475	12.46576	6.35778	2.15995	2.05075	1.69649	4.90464	3.79255	2.92937	21.23510	13.40861	7.36891
63630	1.26293	1.13896	0.80502	5.94371	4.83172	3.94080	20.47351	12.46925	6.35798	2.15978	2.05055	1.69668	4.90450	3.78977	2.92931	21.23707	13.40918	7.36848
63790	1.26462	1.14194	0.80462	5.94427	4.83319	3.94072	20.44945	12.46601	6.35805	2.16118	2.05155	1.69718	4.90695	3.79172	2.92868	21.23215	13.40576	7.36934
63960	1.26617	1.13960	0.80345	5.94474	4.83219	3.94063	20.41140	12.46748	6.35755	2.15987	2.05093	1.69691	4.90405	3.79255	2.93110	21.24411	13.41209	7.37174
64120	1.26771	1.14073	0.80678	5.94832	4.83516	3.94361	20.42527	12.46906	6.35928	2.16202	2.05265	1.69894	4.90578	3.79252	2.92963	21.23379	13.41117	7.37135
64290	1.26422	1.13991	0.80468	5.94717	4.83324	3.94222	20.43689	12.46951	6.35768	2.16099	2.05206	1.69726	4.90630	3.79099	2.92962	21.23347	13.40850	7.37054	31.30	6.0	0.00	-2.04	0.01751	0.01211	0.01532	0.01840	0.01903	0.01490	0.00551	0.01527	0.02029	0.01897	0.01328	0.01693	0.01723	0.01781	0.01390	0.00571	0.01607	0.02158
64450	1.26444	1.14040	0.80582	5.94797	4.83401	3.94272	20.43905	12.47161	6.36226	2.16070	2.05076	1.69703	4.90497	3.79352	2.93261	21.24019	13.40924	7.37026
64620	1.26497	1.13769	0.80390	5.94645	4.83126	3.94083	20.42318	12.46521	6.35751	2.15858	2.04875	1.69473	4.90596	3.79768	2.93136	21.24315	13.41309	7.37271
64790	1.26569	1.13833	0.80653	5.94787	4.83259	3.94229	20.41220	12.46583	6.35990	2.16032	2.05039	1.69524	4.90574	3.79267	2.93077	21.23446	13.40716	7.37005
64950	1.26365	1.14110	0.80428	5.94703	4.83196	3.94182	20.45893	12.46701	6.35874	2.15870	2.04864	1.69376	4.90571	3.78954	2.92987	21.23429	13.40567	7.36671
65120	1.26515	1.14288	0.80625	5.94679	4.83227	3.94179	20.41832	12.46897	6.36004	2.15929	2.04864	1.69343	4.90543	3.79225	2.93204	21.23397	13.40537	7.36817
65280	1.26419	1.13982	0.80469	5.94199	4.82682	3.93752	20.46254	12.46562	6.35734	2.15405	2.04406	1.68894	4.90294	3.79252	2.93001	21.22250	13.40426	7.36928
65450	1.26608	1.14201	0.80650	5.94281	4.82771	3.93862	20.45784	12.47071	6.36185	2.15496	2.04417	1.69015	4.90471	3.79158	2.92994	21.22856	13.40185	7.36651
65610	1.26238	1.13826	0.80518	5.94083	4.82546	3.93657	20.44429	12.47417	6.35785	2.15288	2.04219	1.68809	4.90425	3.79031	2.92929	21.23184	13.39858	7.36435
65770	1.26206	1.13894	0.80395	5.93653	4.82263	3.93356	20.43743	12.46455	6.35576	2.15090	2.03999	1.68532	4.90416	3.79005	2.92861	21.21858	13.39744	7.36254
65940	1.26379	1.13853	0.80364	5.93573	4.82216	3.93331	20.42533	12.45990	6.35756	2.15137	2.04073	1.68688	4.90346	3.79143	2.93305	21.21912	13.39932	7.36511	31.25	6.0	0.00	-2.04	0.01751	0.01211	0.01532	0.01840	0.01903	0.01490	0.00551	0.01527	0.02029	0.01897	0.01328	0.01693	0.01723	0.01781	0.01390	0.00571	0.01607	0.02158
66110	1.26559	1.14035	0.80479	5.93767	4.82457	3.93544	20.46759	12.47202	6.36156	2.15365	2.04302	1.68766	4.90756	3.79693	2.93242	21.21028	13.40436	7.36823
66270	1.26879	1.14518	0.80850	5.94180	4.82795	3.93990	20.46379	12.46949	6.36362	2.15578	2.04547	1.69208	4.90967	3.79456	2.93099	21.22517	13.40160	7.36517
66440	1.26454	1.14118	0.80521	5.93839	4.82467	3.93558	20.42785	12.46807	6.35922	2.15217	2.04112	1.68733	4.90482	3.79100	2.93097	21.22795	13.39518	7.36085
66600	1.26255	1.13803	0.80568	5.93375	4.82169	3.93476	20.41344	12.46903	6.35967	2.15241	2.04214	1.68802	4.90624	3.79251	2.92927	21.21274	13.39421	7.36089
66770	1.26369	1.13989	0.80370	5.93379	4.81888	3.93105	20.45258	12.46573	6.35639	2.14918	2.03782	1.68459	4.90760	3.79472	2.93329	21.20865	13.39255	7.36100
66930	1.26520	1.14149	0.80598	5.93396	4.81945	3.93168	20.42064	12.47213	6.35762	2.15010	2.03754	1.68468	4.90406	3.79195	2.92515	21.19640	13.38656	7.35313
67100	1.26475	1.14172	0.80769	5.93118	4.81917	3.93194	20.43326	12.46903	6.36016	2.15015	2.03791	1.68535	4.90794	3.79295	2.93355	21.19885	13.38567	7.35589
67260	1.26497	1.13903	0.80406	5.92944	4.81606	3.92787	20.41038	12.46075	6.35489	2.14587	2.03366	1.68020	4.90750	3.79348	2.93347	21.21961	13.38619	7.35505
67420	1.26553	1.14041	0.80538	5.92832	4.81543	3.92837	20.43200	12.46355	6.35798	2.14588	2.03296	1.67976	4.90494	3.79318	2.92926	21.19869	13.37995	7.34950
67590	1.26515	1.14149	0.80752	5.92506	4.81392	3.92654	20.43003	12.46854	6.36003	2.14476	2.03295	1.68082	4.90560	3.79145	2.92963	21.21456	13.38289	7.34790	31.30	6.2	0.00	-2.04	0.01751	0.01211	0.01532	0.01840	0.01903	0.01490	0.00551	0.01527	0.02029	0.01897	0.01328	0.01693	0.01723	0.01781	0.01390	0.00571	0.01607	0.02158
67750	1.26505	1.14137	0.80381	5.92209	4.80995	3.92222	20.45187	12.46614	6.35682	2.14151	2.03012	1.67741	4.90461	3.79019	2.92990	21.20296	13.37599	7.34633
67920	1.26567	1.13872	0.80458	5.92105	4.80989	3.92312	20.39799	12.46511	6.35604	2.14092	2.02980	1.67729	4.90532	3.78989	2.93171	21.19822	13.37658	7.34381
68080	1.26545	1.14023	0.80296	5.91879	4.80674	3.91866	20.43436	12.46287	6.35655	2.13830	2.02668	1.67480	4.90584	3.79299	2.93449	21.19855	13.37950	7.34658
68250	1.26825	1.14202	0.80774	5.92179	4.80819	3.92145	20.43057	12.46957	6.36222	2.14053	2.02798	1.67597	4.90438	3.79429	2.92968	21.19757	13.37547	7.34218
68410	1.26497	1.13964	0.80488	5.91792	4.80481	3.91880	20.41364	12.47115	6.35870	2.13835	2.02664	1.67575	4.90647	3.79199	2.92765	21.18647	13.37364	7.34159
68580	1.26525	1.14306	0.80743	5.91751	4.80496	3.91921	20.42985	12.47593	6.36049	2.13945	2.02781	1.67515	4.90464	3.79263	2.92852	21.20247	13.37290	7.33982
68740	1.26368	1.14124	0.80371	5.91436	4.80130	3.91473	20.42390	12.46677	6.35760	2.13465	2.02323	1.67040	4.90205	3.79338	2.93133	21.19855	13.37267	7.33958
68910	1.26636	1.14338	0.80733	5.91503	4.80294	3.91594	20.46110	12.47347	6.36108	2.13663	2.02513	1.67283	4.90801	3.79353	2.93136	21.18925	13.37502	7.33903
69070	1.26781	1.14145	0.80640	5.91427	4.80145	3.91422	20.43220	12.47252	6.36054	2.13527	2.02240	1.67022	4.90773	3.79541	2.93394	21.21047	13.37416	7.33998
69240	1.26952	1.14295	0.80612	5.91523	4.80258	3.91530	20.47286	12.47412	6.36035	2.13701	2.02212	1.67127	4.90846	3.79426	2.93001	21.21086	13.37255	7.33580	31.30	6.1	0.00	-2.04	0.01751	0.01211	0.01532	0.01840	0.01903	0.01490	0.00551	0.01527	0.02029	0.01897	0.01328	0.01693	0.01723	0.01781	0.01390	0.00571	0.01607	0.02158
69400	1.26626	1.14243	0.80631	5.91173	4.79862	3.91255	20.46869	12.46521	6.35840	2.13347	2.01941	1.66789	4.90407	3.79182	2.93042	21.20416	13.36827	7.33263
69570	1.26621	1.14181	0.80855	5.91203	4.79992	3.91371	20.47268	12.47178	6.36391	2.13507	2.02120	1.66924	4.90906	3.79308	2.93205	21.19453	13.37047	7.33517
69730	1.26467	1.14175	0.80568	5.90758	4.79550	3.90935	20.45061	12.46954	6.35727	2.13044	2.01613	1.66405	4.90777	3.79787	2.93569	21.18947	13.37047	7.33531
69900	1.26779	1.14247	0.80811	5.90805	4.79581	3.91020	20.43256	12.47123	6.36126	2.13082	2.01673	1.66480	4.90522	3.79283	2.93310	21.19404	13.36617	7.33106
70060	1.26537	1.14301	0.80577	5.90350	4.79328	3.90790	20.45929	12.46954	6.36012	2.13018	2.01642	1.66419	4.90668	3.79265	2.93307	21.19453	13.36637	7.32886
70230	1.26564	1.14099	0.80702	5.90274	4.79254	3.90730	20.43923	12.46938	6.35892	2.12895	2.01429	1.66362	4.90640	3.79385	2.93242	21.18311	13.36763	7.32996
70390	1.26624	1.14307	0.80755	5.90151	4.79022	3.90463	20.44483	12.47276	6.35888	2.12688	2.01251	1.66125	4.90833	3.79524	2.93390	21.21021	13.36778	7.33260
70560	1.26843	1.14533	0.80949	5.90275	4.79308	3.90627	20.46055	12.47429	6.36081	2.12931	2.01477	1.66450	4.90729	3.79571	2.93317	21.18539	13.36540	7.33007
70720	1.26690	1.14401	0.80729	5.90349	4.79227	3.90651	20.43292	12.47156	6.35964	2.12943	2.01523	1.66357	4.90685	3.79195	2.93076	21.19795	13.36427	7.32823
70890	1.26568	1.14442	0.80950	5.90148	4.79325	3.90713	20.43465	12.47175	6.36156	2.12978	2.01542	1.66477	4.90589	3.79492	2.93488	21.19780	13.36670	7.32905	31.30	6.2	0.00	-2.04	0.01751	0.01211	0.01532	0.01840	0.01903	0.01490	0.00551	0.01527	0.02029	0.01897	0.01328	0.01693	0.01723	0.01781	0.01390	0.00571	0.01607	0.02158
71060	1.26817	1.14199	0.80645	5.89957	4.78948	3.90185	20.43339	12.46142	6.35467	2.12531	2.01155	1.66099	4.90362	3.79187	2.93070	21.18932	13.36398	7.32675
71220	1.26646	1.14122	0.80934	5.89875	4.78984	3.90176	20.44277	12.47213	6.36114	2.12647	2.01170	1.66172	4.90751	3.79606	2.93249	21.19993	13.36549	7.32889
71390	1.27006	1.14510	0.80904	5.90029	4.79222	3.90316	20.42888	12.47734	6.36391	2.12752	2.01322	1.66194	4.91065	3.79680	2.93568	21.19666	13.36599	7.32813
71550	1.27081	1.14579	0.81068	5.90122	4.79109	3.90244	20.45596	12.46913	6.36395	2.12707	2.01080	1.66136	4.91335	3.80123	2.94044	21.21316	13.36954	7.33242
71720	1.27433	1.15068	0.81547	5.90286	4.79451	3.90643	20.47297	12.48525	6.36920	2.12960	2.01462	1.66380	4.91413	3.80030	2.93738	21.20352	13.36863	7.33008
71880	1.27461	1.14891	0.81336	5.90123	4.79192	3.90318	20.41446	12.48774	6.36763	2.12756	2.01195	1.66109	4.91127	3.80159	2.93690	21.19699	13.36608	7.32777
72050	1.27369	1.14846	0.81494	5.90094	4.79287	3.90367	20.43158	12.47960	6.36867	2.12899	2.01336	1.66271	4.91582	3.80273	2.93837	21.20156	13.36920	7.32978
72210	1.27481	1.14705	0.81231	5.90020	4.79062	3.89999	20.43609	12.48424	6.36733	2.12527	2.01038	1.66006	4.91408	3.80185	2.93817	21.19895	13.36660	7.32823
72380	1.27248	1.14870	0.81210	5.89995	4.78950	3.90046	20.42672	12.47900	6.36782	2.12468	2.01034	1.65943	4.91213	3.79861	2.93704	21.18296	13.36174	7.32495
72540	1.27213	1.14768	0.81163	5.89764	4.78803	3.89976	20.43584	12.48146	6.36793	2.12485	2.00961	1.65962	4.91318	3.80058	2.93569	21.19474	13.36259	7.32540	31.30	6.1	0.00	-2.04	0.01751	0.01211	0.01532	0.01840	0.01903	0.01490	0.00551	0.01527	0.02029	0.01897	0.01328	0.01693	0.01723	0.01781	0.01390	0.00571	0.01607	0.02158
72710	1.26966	1.14389	0.81043	5.89562	4.78649	3.89715	20.46674	12.47347	6.36551	2.12263	2.00856	1.65840	4.91087	3.80010	2.93519	21.19833	13.36627	7.32710
72870	1.27134	1.14654	0.81233	5.89913	4.78920	3.90035	20.44830	12.47516	6.36586	2.12482	2.01015	1.65904	4.91320	3.79630	2.93550	21.18984	13.36261	7.32527
73040	1.26865	1.14750	0.81080	5.89744	4.78871	3.89916	20.41583	12.48192	6.36415	2.12548	2.01026	1.65924	4.91038	3.79905	2.93524	21.18511	13.36437	7.32521
73200	1.27042	1.14428	0.80802	5.89659	4.78554	3.89667	20.43873	12.46954	6.36242	2.12221	2.00658	1.65630	4.90930	3.79805	2.93700	21.19669	13.36291	7.32607
73370	1.27010	1.14466	0.80859	5.89794	4.78709	3.89850	20.45643	12.47674	6.36551	2.12397	2.00856	1.65783	4.90863	3.79535	2.93227	21.18495	13.36199	7.32430
73530	1.26885	1.14188	0.80903	5.89574	4.78578	3.89809	20.44089	12.46902	6.36274	2.12356	2.00818	1.65741	4.90841	3.79322	2.93230	21.17615	13.36031	7.32292
73700	1.26904	1.14469	0.80975	5.89612	4.78708	3.89836	20.44107	12.46592	6.36041	2.12461	2.00840	1.65793	4.90852	3.79452	2.93338	21.17208	13.36019	7.32294
73860	1.26898	1.14328	0.80773	5.89469	4.78550	3.89660	20.43801	12.46755	6.36164	2.12343	2.00760	1.65731	4.90632	3.79514	2.93137	21.18511	13.36027	7.32297
74030	1.26647	1.14430	0.80675	5.89364	4.78483	3.89650	20.42845	12.47390	6.36038	2.12319	2.00615	1.65595	4.90822	3.79382	2.93093	21.18364	13.36118	7.32252
74190	1.26965	1.14318	0.80750	5.89471	4.78441	3.89568	20.42513	12.46970	6.35870	2.12150	2.00575	1.65597	4.90977	3.79517	2.93237	21.18661	13.36377	7.32518	31.30	6.1	0.00	-2.04	0.01751	0.01211	0.01532	0.01840	0.01903	0.01490	0.00551	0.01527	0.02029	0.01897	0.01328	0.01693	0.01723	0.01781	0.01390	0.00571	0.01607	0.02158
74360	1.26854	1.14528	0.80933	5.89570	4.78677	3.89791	20.42008	12.47641	6.36579	2.12372	2.00731	1.65713	4.90752	3.79293	2.93112	21.18221	13.35891	7.32206
74520	1.26998	1.14338	0.80866	5.89288	4.78301	3.89695	20.47554	12.47289	6.35982	2.12269	2.00654	1.65602	4.90850	3.79520	2.93171	21.18025	13.35755	7.32146
74690	1.26956	1.14536	0.80825	5.89368	4.78433	3.89639	20.42531	12.47142	6.36185	2.12356	2.00787	1.65729	4.90895	3.79336	2.93257	21.18922	13.36098	7.32357
74850	1.26912	1.14328	0.80662	5.89318	4.78262	3.89577	20.43469	12.46793	6.35898	2.12200	2.00526	1.65553	4.90667	3.79721	2.93590	21.18188	13.36160	7.32525
75020	1.27025	1.14376	0.80786	5.89545	4.78459	3.89780	20.45364	12.47314	6.36172	2.12319	2.00752	1.65633	4.90953	3.79399	2.93224	21.17618	13.36190	7.32404
75180	1.26788	1.14406	0.80829	5.89443	4.78477	3.89685	20.42982	12.47409	6.36504	2.12268	2.00757	1.65690	4.90944	3.79528	2.93420	21.18074	13.35915	7.32105
75350	1.27161	1.14704	0.81132	5.89700	4.78715	3.89997	20.41324	12.47785	6.36994	2.12526	2.01019	1.65939	4.91368	3.80100	2.93856	21.19004	13.36162	7.32460
75510	1.27156	1.14826	0.81022	5.89583	4.78572	3.89717	20.42711	12.47365	6.36739	2.12334	2.00810	1.65747	4.91442	3.79837	2.93638	21.17781	13.35878	7.32367
75680	1.27255	1.14738	0.81180	5.89600	4.78552	3.89698	20.40209	12.47687	6.36941	2.12335	2.00833	1.65745	4.91583	3.80204	2.93975	21.18612	13.36120	7.32390
75850	1.27519	1.14957	0.81438	5.89575	4.78560	3.89829	20.43656	12.48552	6.37295	2.12354	2.00879	1.65861	4.91829	3.80358	2.93768	21.18608	13.35987	7.32320	31.30	5.9	0.00	-2.04	0.01751	0.01211	0.01532	0.01840	0.01903	0.01490	0.00551	0.01527	0.02029	0.01897	0.01328	0.01693	0.01723	0.01781	0.01390	0.00571	0.01607	0.02158
76010	1.27870	1.15256	0.81788	5.89974	4.79046	3.90288	20.45245	12.49158	6.37963	2.12676	2.01229	1.66162	4.92227	3.80753	2.94311	21.17434	13.36185	7.32681
76170	1.27816	1.15277	0.81578	5.89900	4.78758	3.89890	20.44505	12.48516	6.37653	2.12458	2.00940	1.65940	4.92016	3.80417	2.94362	21.17744	13.35923	7.32200
76340	1.27672	1.14985	0.81371	5.89337	4.78255	3.89532	20.44920	12.48975	6.37259	2.12154	2.00706	1.65649	4.91899	3.80596	2.94319	21.19962	13.36014	7.32193
76500	1.27978	1.15319	0.81633	5.89451	4.78440	3.89559	20.47163	12.49289	6.37782	2.12129	2.00639	1.65734	4.92131	3.80823	2.94601	21.17760	13.36012	7.32425
76670	1.28048	1.15532	0.81617	5.89714	4.78586	3.89898	20.47869	12.48877	6.37901	2.12337	2.00855	1.65764	4.92243	3.80899	2.94361	21.18934	13.35678	7.32102
76830	1.27834	1.15435	0.81790	5.89306	4.78534	3.89937	20.43746	12.48969	6.37870	2.12470	2.00999	1.65964	4.92548	3.80674	2.94401	21.19162	13.35834	7.32268
77000	1.27809	1.15407	0.81451	5.89446	4.78350	3.89596	20.42358	12.49090	6.37485	2.12128	2.00580	1.65649	4.91951	3.80474	2.93953	21.17760	13.35594	7.31919
77160	1.27696	1.15080	0.81504	5.89234	4.78157	3.89535	20.46837	12.48287	6.37380	2.12117	2.00511	1.65585	4.91828	3.80665	2.94162	21.17630	13.35975	7.31985
77330	1.27692	1.15228	0.81392	5.89137	4.78216	3.89567	20.42502	12.48721	6.37711	2.12126	2.00452	1.65490	4.91808	3.80270	2.94044	21.17092	13.35523	7.31825
77500	1.27806	1.15434	0.81682	5.89274	4.78403	3.89762	20.44945	12.48550	6.37497	2.12365	2.00590	1.65659	4.91912	3.80431	2.94358	21.18966	13.35529	7.31914	31.30	6.2	0.00	-2.04	0.01751	0.01211	0.01531	0.01840	0.01903	0.01490	0.00551	0.01527	0.02029	0.01897	0.01328	0.01693	0.01723	0.01781	0.01390	0.00571	0.01607	0.02158
77660	1.27744	1.15253	0.81537	5.89095	4.78063	3.89278	20.45704	12.48108	6.37383	2.12081	2.00314	1.65449	4.91887	3.80727	2.94358	21.18869	13.36117	7.32386
77830	1.28066	1.15422	0.81639	5.89555	4.78464	3.89746	20.49454	12.49170	6.37698	2.12374	2.00714	1.65768	4.92043	3.80617	2.94513	21.19227	13.35909	7.32101
77990	1.27647	1.15262	0.81391	5.89342	4.78285	3.89624	20.41717	12.48632	6.37158	2.12243	2.00522	1.65613	4.91857	3.80318	2.94106	21.17695	13.35440	7.31848
78160	1.27624	1.15105	0.81540	5.89307	4.78456	3.89669	20.44674	12.49299	6.37725	2.12366	2.00786	1.65774	4.91942	3.80439	2.94154	21.17223	13.35398	7.31915
78320	1.27744	1.15300	0.81290	5.89178	4.78261	3.89340	20.45506	12.48316	6.37410	2.12092	2.00574	1.65545	4.92154	3.80668	2.94698	21.18070	13.35808	7.32270
78490	1.28038	1.15518	0.81698	5.89555	4.78665	3.89712	20.45271	12.48949	6.37750	2.12303	2.00748	1.65748	4.92013	3.80589	2.94296	21.17060	13.35442	7.31937
78650	1.27934	1.15539	0.81565	5.89452	4.78653	3.89685	20.47858	12.48982	6.38133	2.12301	2.00708	1.65756	4.92263	3.80801	2.94473	21.17858	13.35603	7.31827
78820	1.28008	1.15745	0.81776	5.89545	4.78710	3.89699	20.44837	12.49203	6.38085	2.12396	2.00736	1.65898	4.92211	3.80773	2.94627	21.17907	13.35467	7.31945
78980	1.27721	1.15480	0.81664	5.89322	4.78434	3.89452	20.43700	12.49449	6.37849	2.12131	2.00653	1.65692	4.92068	3.80593	2.94247	21.18722	13.35359	7.31805
79150	1.27630	1.15614	0.81638	5.89315	4.78612	3.89507	20.43716	12.48358	6.37823	2.12132	2.00675	1.65761	4.91907	3.80598	2.94223	21.18103	13.35469	7.31806	31.36	6.1	0.00	-2.04	0.01751	0.01211	0.01531	0.01840	0.01903	0.01490	0.00551	0.01527	0.02029	0.01897	0.01328	0.01693	0.01723	0.01781	0.01390	0.00571	0.01607	0.02158
79310	1.27805	1.15595	0.81502	5.89338	4.78420	3.89307	20.47965	12.48869	6.37580	2.12030	2.00532	1.65578	4.91929	3.80692	2.94456	21.17858	13.35460	7.32164
79480	1.27937	1.15539	0.81619	5.89713	4.78833	3.89622	20.43932	12.48388	6.37778	2.12274	2.00846	1.65887	4.91931	3.80616	2.94205	21.17761	13.35788	7.32180
79640	1.27740	1.15426	0.81520	5.89646	4.78679	3.89419	20.44709	12.48727	6.37826	2.12197	2.00704	1.65751	4.92055	3.80507	2.94304	21.18233	13.35464	7.31876
79810	1.27881	1.15511	0.81698	5.89823	4.78961	3.89701	20.43012	12.49259	6.37827	2.12428	2.00903	1.65939	4.92084	3.80730	2.94292	21.18282	13.35689	7.32210
79970	1.27683	1.15424	0.81420	5.89688	4.78645	3.89378	20.46046	12.48165	6.37677	2.12220	2.00767	1.65857	4.92068	3.80781	2.94655	21.19424	13.36208	7.32645
80140	1.27893	1.15778	0.81808	5.90203	4.79112	3.89909	20.44438	12.49145	6.37749	2.12619	2.01254	1.66239	4.92101	3.80421	2.94148	21.19930	13.36045	7.32445
80300	1.27632	1.15437	0.81641	5.89988	4.79107	3.89941	20.43553	12.48367	6.37345	2.12667	2.01321	1.66232	4.91727	3.80500	2.94108	21.17598	13.36077	7.32516
80470	1.27690	1.15559	0.81695	5.90326	4.79497	3.90474	20.44979	12.49287	6.37917	2.13147	2.01843	1.66760	4.92105	3.80573	2.94209	21.20044	13.36532	7.33257
80630	1.27747	1.15513	0.81458	5.90459	4.79406	3.90344	20.47494	12.48727	6.37534	2.13047	2.01794	1.66613	4.92114	3.80749	2.94521	21.19473	13.37001	7.33584
80800	1.28018	1.15717	0.81592	5.90983	4.79925	3.90839	20.48289	12.49228	6.38029	2.13449	2.02091	1.67026	4.92246	3.80641	2.94573	21.18596	13.36670	7.33235	31.30	6.1	0.00	-2.04	0.01751	0.01211	0.01532	0.01840	0.01903	0.01490	0.00551	0.01527	0.02029	0.01897	0.01328	0.01693	0.01723	0.01781	0.01390	0.00571	0.01607	0.02158
80960	1.27401	1.15328	0.81448	5.90666	4.79682	3.90733	20.40903	12.48469	6.37194	2.13445	2.02093	1.66978	4.91577	3.80228	2.94242	21.18841	13.36786	7.33248
81130	1.27822	1.15466	0.81407	5.90557	4.79484	3.90530	20.55802	12.49668	6.37863	2.13331	2.01909	1.66841	4.92514	3.81148	2.94757	21.20081	13.37241	7.33706
81290	1.28015	1.15811	0.81885	5.90934	4.79808	3.90879	20.54981	12.49955	6.37705	2.13696	2.02187	1.67133	4.91919	3.80519	2.94164	21.18661	13.37009	7.33376
