WetView ver 7.1	07-20-2019	14:36:07
AC9 Absorption and Attenuation Meter
00000311		; Serial number
2	; structure version number
Reserved
0.000000	0.000000		; Depth calibration
19200			; Baud rate
0.100000			; Path length (meters)
23			; number of temperature calibration bins
				12.61517	13.44096	14.46844	15.49904	16.50682	17.50108	18.49752	19.51783	20.49177	21.49009	22.48286	23.50673	24.54012	25.54812	26.49986	27.49321	28.50960	29.48671	30.47471	31.49432	32.50437	33.48679	34.49133	; temperature bins
a650	Blue	18.61587		0.01156	0.01096	0.01010	0.00930	0.00851	0.00774	0.00661	0.00573	0.00499	0.00402	0.00285	0.00203	0.00096	0.00000	-0.00110	-0.00152	-0.00210	-0.00247	-0.00259	-0.00317	-0.00346	-0.00380	-0.00403		; offset and temperature correction info
a676	Green	18.78942		0.00964	0.00899	0.00863	0.00813	0.00730	0.00639	0.00545	0.00448	0.00385	0.00301	0.00233	0.00165	0.00046	0.00000	-0.00106	-0.00167	-0.00251	-0.00280	-0.00316	-0.00329	-0.00377	-0.00392	-0.00441		; offset and temperature correction info
a715	Brown	18.59217		0.01171	0.01109	0.01043	0.00975	0.00878	0.00789	0.00685	0.00572	0.00469	0.00356	0.00255	0.00160	0.00061	0.00000	-0.00063	-0.00113	-0.00152	-0.00183	-0.00226	-0.00293	-0.00364	-0.00404	-0.00473		; offset and temperature correction info
c510	Red	18.18396		-0.00549	-0.00480	-0.00383	-0.00272	-0.00202	-0.00118	-0.00044	-0.00038	-0.00015	-0.00021	0.00013	0.00007	-0.00007	0.00000	-0.00007	-0.00065	-0.00045	-0.00018	0.00007	0.00039	-0.00001	-0.00002	-0.00045		; offset and temperature correction info
c532	Magenta	18.26528		-0.00721	-0.00645	-0.00581	-0.00518	-0.00465	-0.00345	-0.00281	-0.00270	-0.00182	-0.00141	-0.00108	-0.00072	-0.00022	0.00000	0.00044	0.00030	0.00031	-0.00006	-0.00052	-0.00089	-0.00142	-0.00149	-0.00154		; offset and temperature correction info
c555	Black	18.37125		-0.00430	-0.00419	-0.00381	-0.00319	-0.00286	-0.00254	-0.00205	-0.00196	-0.00138	-0.00137	-0.00067	-0.00051	-0.00030	0.00000	0.00067	0.00087	0.00057	0.00027	-0.00015	-0.00089	-0.00127	-0.00137	-0.00150		; offset and temperature correction info
a412	LtBlue	15.33566		-0.06011	-0.05567	-0.05012	-0.04441	-0.03922	-0.03412	-0.02941	-0.02503	-0.02049	-0.01588	-0.01121	-0.00784	-0.00311	0.00000	0.00273	0.00611	0.00757	0.00871	0.01066	0.01299	0.01539	0.01781	0.02175		; offset and temperature correction info
a440	LtGreen	16.05925		-0.01380	-0.01214	-0.01039	-0.00858	-0.00690	-0.00532	-0.00426	-0.00322	-0.00230	-0.00158	-0.00055	0.00006	0.00001	0.00000	0.00017	0.00016	-0.00094	-0.00222	-0.00363	-0.00486	-0.00567	-0.00651	-0.00782		; offset and temperature correction info
a488	Yellow	16.82827		0.00255	0.00293	0.00331	0.00354	0.00373	0.00378	0.00363	0.00350	0.00291	0.00225	0.00215	0.00142	0.00099	0.00000	-0.00092	-0.00169	-0.00295	-0.00396	-0.00479	-0.00542	-0.00582	-0.00604	-0.00663		; offset and temperature correction info
c650	Blue	18.49287		-0.00570	-0.00516	-0.00456	-0.00403	-0.00346	-0.00232	-0.00132	-0.00122	-0.00073	-0.00066	-0.00035	-0.00016	0.00003	0.00000	0.00044	0.00078	0.00108	0.00057	0.00040	-0.00042	-0.00033	-0.00029	-0.00034		; offset and temperature correction info
c676	Green	18.50570		0.00299	0.00293	0.00287	0.00293	0.00278	0.00294	0.00317	0.00251	0.00243	0.00215	0.00139	0.00123	0.00068	0.00000	-0.00041	-0.00106	-0.00205	-0.00268	-0.00325	-0.00413	-0.00495	-0.00610	-0.00674		; offset and temperature correction info
c715	Brown	17.88888		0.00826	0.00812	0.00773	0.00790	0.00766	0.00758	0.00753	0.00650	0.00571	0.00461	0.00359	0.00222	0.00101	0.00000	-0.00146	-0.00284	-0.00385	-0.00448	-0.00463	-0.00513	-0.00623	-0.00715	-0.00838		; offset and temperature correction info
a510	Red	17.18050		0.00353	0.00364	0.00354	0.00361	0.00381	0.00381	0.00356	0.00332	0.00277	0.00229	0.00176	0.00116	0.00036	0.00000	-0.00014	-0.00069	-0.00088	-0.00147	-0.00150	-0.00129	-0.00120	-0.00134	-0.00091		; offset and temperature correction info
a532	Magenta	17.40228		0.00550	0.00548	0.00526	0.00479	0.00464	0.00422	0.00393	0.00328	0.00253	0.00212	0.00136	0.00085	0.00039	0.00000	-0.00059	-0.00146	-0.00188	-0.00262	-0.00330	-0.00393	-0.00491	-0.00540	-0.00605		; offset and temperature correction info
a555	Black	17.72308		0.00849	0.00832	0.00800	0.00760	0.00724	0.00655	0.00580	0.00495	0.00435	0.00347	0.00252	0.00153	0.00049	0.00000	-0.00050	-0.00155	-0.00214	-0.00306	-0.00350	-0.00411	-0.00470	-0.00539	-0.00570		; offset and temperature correction info
c412	LtBlue	16.72802		-0.05949	-0.05458	-0.04744	-0.04134	-0.03547	-0.03064	-0.02511	-0.02047	-0.01574	-0.01163	-0.00761	-0.00442	-0.00204	0.00000	0.00100	0.00051	-0.00043	-0.00239	-0.00475	-0.00629	-0.00827	-0.00955	-0.01337		; offset and temperature correction info
c440	LtGreen	17.42637		-0.02723	-0.02503	-0.02216	-0.01930	-0.01691	-0.01394	-0.01125	-0.00926	-0.00732	-0.00582	-0.00401	-0.00226	-0.00093	0.00000	0.00082	0.00123	0.00133	0.00097	0.00038	-0.00003	-0.00022	-0.00023	-0.00125		; offset and temperature correction info
c488	Yellow	18.03666		-0.00640	-0.00554	-0.00465	-0.00357	-0.00276	-0.00154	-0.00067	-0.00031	-0.00014	-0.00012	0.00046	0.00032	0.00020	0.00000	0.00001	-0.00024	-0.00060	-0.00084	-0.00126	-0.00180	-0.00276	-0.00304	-0.00427		; offset and temperature correction info
0.003500	0.004000	0.015000	0.020000	0.015000	0.020000	2500.000000	2000.000000	1000.000000	; maxANoise	maxCNoise	maxADifference	maxCDifference	minACounts	minCCounts	minRCounts	maxTempSdev	maxDepthSdev
0			; auxilliary capabilities
1			; acquisition binsize
0	1.00353	0.87531	0.60049	5.09029	4.34818	3.53539	16.93833	10.33901	5.27894	2.30925	1.88158	1.70123	4.07362	3.15043	2.43022	17.82491	11.31010	6.26677	27.70	6.1	0.00	-2.04	0.01760	0.01214	0.01534	0.01853	0.01917	0.01499	0.00552	0.01529	0.02038	0.01913	0.01336	0.01702	0.01728	0.01788	0.01394	0.00574	0.01615	0.02177
160	1.00109	0.87423	0.59812	5.09572	4.34741	3.53658	16.94454	10.33272	5.27632	2.30358	1.88929	1.70381	4.07086	3.14920	2.43076	17.83106	11.30031	6.26727
330	1.00250	0.87678	0.60056	5.09769	4.34870	3.53339	16.92920	10.33841	5.27702	2.30930	1.88944	1.70230	4.07213	3.14989	2.42971	17.83141	11.30731	6.26899
500	1.00268	0.87602	0.60061	5.09831	4.34651	3.53364	16.91920	10.33839	5.27805	2.30797	1.89131	1.69937	4.07837	3.15428	2.43203	17.81610	11.30669	6.27582
660	1.00424	0.88040	0.60212	5.10039	4.36112	3.54188	16.93313	10.34134	5.28059	2.31009	1.88206	1.70495	4.07505	3.15194	2.43098	17.82364	11.30425	6.26575
830	1.00300	0.87746	0.59971	5.10109	4.35107	3.53267	16.92160	10.33931	5.27916	2.31096	1.89261	1.70483	4.07140	3.14711	2.42848	17.81657	11.30407	6.27482
990	1.00022	0.87475	0.60068	5.09522	4.34809	3.53192	16.93478	10.33720	5.28381	2.30152	1.88199	1.70214	4.07233	3.15121	2.43094	17.82619	11.31617	6.27809
1160	1.00223	0.87510	0.59938	5.09743	4.34301	3.53195	16.93516	10.33909	5.27710	2.29693	1.87294	1.68997	4.07044	3.14854	2.42767	17.83500	11.31420	6.27217
1320	0.99787	0.87543	0.59690	5.10099	4.35409	3.53291	16.93047	10.33674	5.27520	2.29377	1.87358	1.67833	4.07047	3.14987	2.43081	17.82468	11.32042	6.28985
1490	1.00063	0.87562	0.60086	5.09083	4.34439	3.54002	16.92566	10.33588	5.27581	2.30465	1.87736	1.68645	4.07054	3.14754	2.42666	17.82503	11.31643	6.27169
1650	1.00306	0.87828	0.60085	5.09356	4.35093	3.52867	16.91734	10.34010	5.28014	2.29677	1.89371	1.72060	4.07499	3.15307	2.43206	17.83252	11.30236	6.26994	27.70	6.0	0.00	-2.04	0.01760	0.01214	0.01534	0.01852	0.01917	0.01499	0.00552	0.01529	0.02038	0.01913	0.01336	0.01701	0.01728	0.01788	0.01395	0.00574	0.01615	0.02177
1820	1.00422	0.87889	0.60221	5.09833	4.34774	3.52415	16.91519	10.34157	5.27948	2.30147	1.89757	1.73823	4.07183	3.15194	2.42790	17.82742	11.28403	6.25519
1980	1.00252	0.87852	0.60135	5.12755	4.35374	3.50078	16.91987	10.33739	5.28050	2.30866	1.91933	1.73858	4.07584	3.15274	2.43015	17.80922	11.29584	6.27929
2150	1.00369	0.87717	0.60299	5.10614	4.33391	3.51893	16.92101	10.33931	5.27913	2.31606	1.90372	1.71126	4.07251	3.15069	2.43094	17.81617	11.30104	6.26738
2320	1.00297	0.87827	0.60093	5.10420	4.35568	3.53208	16.95739	10.34078	5.28098	2.30527	1.88575	1.70198	4.07447	3.15519	2.43276	17.82081	11.30827	6.27430
2480	1.00496	0.88124	0.60492	5.10693	4.34534	3.53028	16.91405	10.34285	5.28389	2.32284	1.90116	1.69893	4.07593	3.15614	2.43360	17.81663	11.31702	6.28782
2650	1.00577	0.87995	0.60268	5.09202	4.33958	3.53359	16.91152	10.33942	5.28025	2.32094	1.88782	1.69557	4.07223	3.15030	2.42981	17.81942	11.31207	6.27515
2810	1.00281	0.87565	0.59934	5.09391	4.34781	3.53240	16.93988	10.33388	5.27418	2.30918	1.88486	1.70857	4.07124	3.15107	2.43046	17.81710	11.29946	6.26044
2980	1.00306	0.87748	0.60256	5.10763	4.35977	3.53901	16.94419	10.34243	5.28136	2.30579	1.89482	1.71238	4.07449	3.15367	2.43220	17.81872	11.29970	6.26859
3140	1.00466	0.87783	0.60295	5.11038	4.35722	3.53311	16.93088	10.33979	5.27900	2.29692	1.89041	1.71091	4.07253	3.15125	2.42881	17.83055	11.30455	6.26772
3310	1.00499	0.87836	0.60229	5.09652	4.35047	3.53347	16.90672	10.34257	5.27862	2.30709	1.88272	1.70250	4.07704	3.15710	2.43578	17.83650	11.31774	6.26540	27.76	6.1	0.00	-2.04	0.01760	0.01215	0.01535	0.01852	0.01917	0.01499	0.00552	0.01530	0.02039	0.01913	0.01336	0.01701	0.01729	0.01789	0.01395	0.00574	0.01614	0.02176
3480	1.00792	0.88053	0.60479	5.10044	4.35284	3.54139	16.89675	10.34241	5.28007	2.30022	1.88978	1.70526	4.07533	3.15636	2.43393	17.82362	11.30742	6.27495
3640	1.00570	0.88128	0.60328	5.10123	4.34321	3.52717	16.91291	10.34265	5.28078	2.30759	1.89790	1.70633	4.07371	3.15488	2.43188	17.82177	11.30084	6.27382
3810	1.00497	0.87961	0.60327	5.09885	4.34807	3.52477	16.91810	10.33241	5.28046	2.30823	1.89750	1.71112	4.07349	3.15183	2.42800	17.81412	11.29832	6.27083
3970	1.00506	0.88087	0.60341	5.09550	4.34076	3.52725	16.91291	10.34483	5.28108	2.32225	1.89184	1.69871	4.07596	3.15292	2.43409	17.82873	11.31494	6.27176
4140	1.00423	0.87971	0.60254	5.09163	4.34672	3.53637	16.90622	10.33878	5.28064	2.30175	1.88725	1.70838	4.07530	3.15365	2.43305	17.82246	11.30116	6.26642
4300	1.00370	0.87749	0.60220	5.09778	4.34314	3.52899	16.92670	10.33883	5.27708	2.30773	1.88437	1.69469	4.07557	3.15530	2.43559	17.82246	11.31169	6.27912
4470	1.00737	0.88152	0.60340	5.10240	4.34776	3.52853	16.91607	10.34342	5.28284	2.31493	1.89251	1.69739	4.07432	3.15545	2.43077	17.81169	11.30983	6.27745
4640	1.00419	0.88087	0.60435	5.09877	4.34164	3.53069	16.92404	10.33683	5.27817	2.31095	1.88953	1.69690	4.07530	3.15285	2.43291	17.81910	11.30801	6.27140
4800	1.00540	0.87861	0.60612	5.09439	4.34745	3.53752	16.94304	10.34283	5.28132	2.30764	1.88594	1.69618	4.07371	3.15192	2.43089	17.82501	11.30446	6.26944
4970	1.00756	0.88147	0.60594	5.09472	4.35195	3.53494	16.95449	10.34488	5.28527	2.30915	1.88455	1.70236	4.07617	3.15729	2.43399	17.81478	11.30691	6.26972	27.76	6.0	0.00	-2.04	0.01761	0.01215	0.01535	0.01852	0.01917	0.01499	0.00553	0.01530	0.02039	0.01913	0.01336	0.01701	0.01729	0.01789	0.01395	0.00573	0.01614	0.02176
5130	1.00622	0.88002	0.60326	5.09629	4.34758	3.53220	16.95157	10.33969	5.28006	2.30405	1.88189	1.69712	4.07408	3.15325	2.43233	17.82418	11.30665	6.26704
5300	1.00437	0.88032	0.60593	5.09379	4.34762	3.53391	16.92813	10.34184	5.28274	2.30438	1.88937	1.70420	4.07669	3.15366	2.43162	17.82197	11.30519	6.26988
5460	1.00590	0.88218	0.60361	5.09446	4.34493	3.52878	16.94650	10.34248	5.28135	2.30570	1.88669	1.70170	4.07817	3.15634	2.43592	17.82232	11.30727	6.27324
5630	1.00796	0.88223	0.60591	5.09936	4.34822	3.53322	16.94764	10.34521	5.28474	2.31121	1.89018	1.70464	4.07634	3.15405	2.43445	17.82197	11.30633	6.27084
5790	1.00497	0.87891	0.60393	5.09736	4.34618	3.53078	16.92547	10.34241	5.28139	2.30536	1.88547	1.70173	4.07390	3.15278	2.42848	17.81965	11.31495	6.25421
5960	1.00613	0.88135	0.60375	5.12310	4.37729	3.56522	16.93953	10.34191	5.28481	2.23525	1.88443	1.75314	4.07907	3.15713	2.43447	17.80737	11.26193	6.28542
6120	1.00566	0.87873	0.60087	5.13590	4.31674	3.49650	16.92585	10.33821	5.27963	2.35214	1.87953	1.65895	4.07653	3.15694	2.43592	17.89775	11.33832	6.21059
6290	1.00916	0.88127	0.60442	5.13942	4.46624	3.59259	16.92914	10.34558	5.28159	2.25849	1.94803	1.80413	4.07487	3.15549	2.43422	17.74296	11.25657	6.30032
6450	1.00464	0.87976	0.60571	5.14143	4.29354	3.48535	16.93471	10.33687	5.28101	2.34188	1.91661	1.67985	4.07418	3.15366	2.43468	17.83509	11.32724	6.27847
6620	1.00742	0.88240	0.60512	5.08310	4.36254	3.53542	16.94609	10.34710	5.28499	2.31722	1.88624	1.72203	4.07797	3.15671	2.43515	17.81663	11.31501	6.27106	27.76	6.1	0.00	-2.04	0.01761	0.01215	0.01535	0.01852	0.01917	0.01499	0.00553	0.01530	0.02040	0.01912	0.01336	0.01701	0.01729	0.01789	0.01395	0.00573	0.01614	0.02176
6790	1.00738	0.87946	0.60486	5.09669	4.34027	3.53977	16.92621	10.34486	5.28387	2.30662	1.88337	1.69260	4.08011	3.15763	2.43509	17.83043	11.31188	6.27683
6950	1.00602	0.88075	0.60584	5.09331	4.34674	3.53501	16.93975	10.34029	5.28206	2.30378	1.87774	1.69519	4.07913	3.15692	2.43426	17.83705	11.32066	6.27046
7120	1.00691	0.88025	0.60456	5.09480	4.35158	3.53947	16.94913	10.34655	5.28310	2.29799	1.88577	1.71188	4.07749	3.15790	2.43624	17.82104	11.30357	6.26551
7280	1.00671	0.87885	0.60661	5.10127	4.34982	3.53116	16.90358	10.34297	5.28432	2.30984	1.89007	1.70664	4.07542	3.15553	2.43514	17.82417	11.30439	6.27001
7450	1.00941	0.88474	0.60907	5.10053	4.35110	3.53746	16.92823	10.34416	5.28571	2.31345	1.89397	1.70765	4.08080	3.15722	2.43487	17.82927	11.30896	6.27598
7610	1.00967	0.88169	0.60765	5.09628	4.34648	3.53520	16.90965	10.34200	5.28605	2.31709	1.89112	1.70124	4.07736	3.15614	2.43465	17.82115	11.31010	6.27182
7780	1.00697	0.87986	0.60581	5.09064	4.34483	3.53735	16.92406	10.34242	5.28023	2.31068	1.88363	1.69970	4.07502	3.15395	2.43239	17.82138	11.30389	6.26580
7940	1.00708	0.87969	0.60661	5.09628	4.35039	3.53348	16.93215	10.34084	5.28001	2.30286	1.88611	1.70712	4.07854	3.15569	2.43591	17.81837	11.30369	6.26830
8110	1.00537	0.88072	0.60525	5.09801	4.34513	3.53211	16.92532	10.33477	5.28000	2.30711	1.88673	1.70076	4.07668	3.15658	2.43684	17.82254	11.30836	6.27271
8270	1.01054	0.88390	0.60833	5.09786	4.34846	3.53236	16.93257	10.34227	5.28391	2.30505	1.88562	1.70741	4.07765	3.15517	2.43692	17.81178	11.30518	6.26893	27.82	5.9	0.00	-2.04	0.01761	0.01215	0.01535	0.01852	0.01916	0.01499	0.00553	0.01530	0.02040	0.01912	0.01336	0.01701	0.01729	0.01789	0.01395	0.00573	0.01614	0.02176
8440	1.00905	0.88503	0.60948	5.09807	4.34521	3.53111	16.91853	10.34661	5.28679	2.31507	1.89160	1.70359	4.08008	3.15912	2.43800	17.81851	11.30977	6.27581
8600	1.00945	0.88248	0.60650	5.09476	4.34589	3.53152	16.91158	10.34019	5.28256	2.30859	1.88481	1.70248	4.07588	3.15526	2.43439	17.81943	11.30418	6.26829
8770	1.00635	0.88126	0.60615	5.09447	4.34628	3.53244	16.93840	10.34309	5.28095	2.30838	1.88584	1.70341	4.07690	3.15476	2.43343	17.81178	11.30390	6.26693
8930	1.00907	0.88011	0.60782	5.09571	4.34601	3.53184	16.93624	10.33924	5.28150	2.30824	1.88760	1.70327	4.07799	3.15629	2.43403	17.81538	11.30448	6.26788
9100	1.00874	0.88072	0.60745	5.09640	4.34606	3.53299	16.91284	10.33966	5.28319	2.30755	1.88919	1.70637	4.07692	3.15573	2.43467	17.82245	11.30498	6.27015
9260	1.00739	0.88174	0.60712	5.09513	4.34475	3.52739	16.91676	10.33449	5.27908	2.30940	1.88741	1.70430	4.07680	3.15859	2.43705	17.82141	11.30750	6.27186
9430	1.00837	0.88457	0.60948	5.09858	4.34779	3.53241	16.90931	10.33731	5.28483	2.30942	1.89099	1.70773	4.07743	3.15651	2.43654	17.81341	11.30420	6.26915
9600	1.01029	0.88122	0.60944	5.09904	4.34651	3.53105	16.90893	10.34047	5.28441	2.30934	1.88994	1.70517	4.07523	3.15774	2.43680	17.81804	11.30440	6.26749
9760	1.00877	0.88531	0.60928	5.09945	4.35237	3.53718	16.94663	10.34802	5.28735	2.31353	1.89170	1.70772	4.08006	3.15957	2.43997	17.82152	11.31037	6.27431
9930	1.01111	0.88210	0.60790	5.09673	4.34800	3.53426	16.93689	10.34528	5.28633	2.30906	1.88916	1.70658	4.07939	3.15648	2.43529	17.82299	11.30458	6.26864	27.76	6.2	0.00	-2.04	0.01761	0.01215	0.01535	0.01852	0.01916	0.01498	0.00553	0.01531	0.02040	0.01912	0.01336	0.01701	0.01729	0.01789	0.01395	0.00573	0.01614	0.02176
10090	1.00770	0.88285	0.60405	5.09350	4.34231	3.52783	16.92132	10.33796	5.28187	2.30916	1.88688	1.70207	4.07737	3.15593	2.43744	17.82125	11.30514	6.27017
10260	1.00839	0.88195	0.60852	5.09400	4.34474	3.53044	16.91146	10.34132	5.28512	2.31130	1.88917	1.70459	4.07880	3.15642	2.43587	17.82020	11.30624	6.27181
10420	1.00945	0.88320	0.60692	5.09390	4.34169	3.52858	16.89216	10.33858	5.28419	2.31043	1.88818	1.70323	4.08035	3.15939	2.43706	17.81893	11.30718	6.27378
10590	1.01057	0.88505	0.60757	5.09844	4.35088	3.53206	16.94550	10.34541	5.28428	2.30990	1.88709	1.70450	4.08082	3.15746	2.43544	17.82276	11.31003	6.27001
10750	1.01016	0.88307	0.60716	5.09749	4.34725	3.53287	16.93030	10.34304	5.28384	2.30516	1.88875	1.70782	4.07745	3.15578	2.43260	17.81534	11.29983	6.26624
10920	1.01081	0.88489	0.61045	5.10133	4.35008	3.53389	16.94208	10.34649	5.28767	2.31226	1.89353	1.71021	4.07989	3.15951	2.43777	17.82659	11.30740	6.27042
11080	1.00945	0.88582	0.60817	5.09708	4.34857	3.53240	16.93119	10.34502	5.28271	2.30818	1.89014	1.70455	4.07760	3.15661	2.43622	17.82635	11.30530	6.26999
11250	1.00795	0.88212	0.60618	5.09180	4.34694	3.53239	16.91879	10.33638	5.28139	2.30584	1.88028	1.69785	4.07827	3.15902	2.43738	17.82136	11.30979	6.27267
11420	1.00886	0.88497	0.60745	5.09953	4.34645	3.53447	16.91260	10.33895	5.28477	2.30496	1.88772	1.70217	4.07653	3.15604	2.43744	17.83192	11.30902	6.27065
11580	1.00892	0.88523	0.60886	5.09500	4.34991	3.53663	16.89958	10.34281	5.28336	2.30572	1.88610	1.70424	4.07773	3.15732	2.43463	17.82575	11.29802	6.26742	27.76	5.9	0.00	-2.04	0.01761	0.01215	0.01535	0.01851	0.01916	0.01498	0.00553	0.01531	0.02040	0.01912	0.01336	0.01701	0.01729	0.01789	0.01395	0.00573	0.01614	0.02175
11750	1.01063	0.88452	0.61026	5.10036	4.35129	3.53658	16.93003	10.34747	5.28628	2.31504	1.88935	1.70540	4.07961	3.15712	2.43669	17.82181	11.30597	6.26908
11910	1.00881	0.88387	0.60699	5.09770	4.34816	3.53465	16.92067	10.33910	5.28417	2.31102	1.89097	1.70915	4.07469	3.15794	2.43404	17.81752	11.29978	6.26481
12080	1.00941	0.88129	0.60664	5.09335	4.34748	3.53135	16.88999	10.33666	5.28045	2.31109	1.88557	1.70330	4.07856	3.15947	2.43683	17.82471	11.30793	6.26921
12240	1.01005	0.88302	0.60848	5.09918	4.35305	3.53383	16.92294	10.34512	5.28212	2.30892	1.88956	1.71071	4.07802	3.15596	2.43721	17.81543	11.30158	6.27003
12410	1.00904	0.88339	0.60843	5.09852	4.34557	3.52990	16.91612	10.34407	5.28324	2.31321	1.88976	1.70486	4.07991	3.16033	2.43780	17.82610	11.31224	6.27358
12570	1.01122	0.88545	0.61101	5.09996	4.35089	3.53641	16.93066	10.34086	5.28776	2.31018	1.89009	1.70896	4.08054	3.15757	2.43486	17.82610	11.30807	6.27087
12740	1.00910	0.88324	0.60851	5.09875	4.34782	3.53264	16.92813	10.33927	5.28269	2.30841	1.88896	1.70561	4.07611	3.15699	2.43376	17.81914	11.30048	6.26855
12900	1.00690	0.88235	0.60764	5.09784	4.34976	3.53282	16.93192	10.34248	5.28289	2.31077	1.88907	1.70792	4.07615	3.15645	2.43597	17.82274	11.30234	6.26646
13070	1.00701	0.88192	0.60716	5.09536	4.34590	3.53215	16.91650	10.33593	5.28085	2.31214	1.89033	1.70714	4.07872	3.15728	2.43611	17.82065	11.30683	6.27018
13230	1.01058	0.88512	0.60933	5.09673	4.34903	3.53421	16.93387	10.34631	5.28483	2.31306	1.89126	1.71105	4.07719	3.15569	2.43448	17.82237	11.30498	6.26930	27.76	6.1	0.00	-2.04	0.01761	0.01215	0.01535	0.01851	0.01916	0.01498	0.00553	0.01531	0.02040	0.01912	0.01336	0.01701	0.01729	0.01789	0.01395	0.00573	0.01614	0.02175
13400	1.00803	0.88221	0.60853	5.09648	4.34467	3.52985	16.91250	10.33811	5.28222	2.30950	1.88827	1.70286	4.07893	3.15603	2.43681	17.82109	11.30644	6.27060
13560	1.01007	0.88260	0.60670	5.09641	4.34711	3.53277	16.90569	10.33747	5.28415	2.30867	1.88651	1.70309	4.07688	3.15889	2.43476	17.81958	11.30588	6.27106
13730	1.00720	0.88312	0.60707	5.09265	4.34655	3.53436	16.94477	10.33907	5.28208	2.31194	1.88587	1.70503	4.07846	3.15979	2.43781	17.81692	11.30664	6.26952
13900	1.00935	0.88541	0.60944	5.09907	4.35096	3.53683	16.92641	10.33633	5.28450	2.30982	1.88768	1.70861	4.07850	3.15639	2.43789	17.82225	11.30466	6.26764
14060	1.00927	0.88351	0.60850	5.09742	4.34967	3.53320	16.93324	10.33463	5.28402	2.31142	1.89225	1.71169	4.07728	3.15761	2.43375	17.81750	11.30239	6.26692
14230	1.00902	0.88474	0.61006	5.09734	4.35105	3.53639	16.94946	10.34694	5.28709	2.31474	1.88954	1.70966	4.07755	3.15805	2.43691	17.81576	11.30714	6.27138
14390	1.01083	0.88487	0.60840	5.09976	4.35146	3.53541	16.93413	10.33532	5.28370	2.31245	1.89064	1.70758	4.07847	3.15751	2.43704	17.81321	11.30243	6.26855
14560	1.00824	0.88090	0.60693	5.09712	4.34816	3.53356	16.93248	10.33575	5.27802	2.31073	1.88716	1.70607	4.07948	3.15920	2.43756	17.82365	11.30884	6.27275
14720	1.01099	0.88471	0.60991	5.09940	4.35138	3.53812	16.89774	10.33690	5.28356	2.31220	1.88928	1.70883	4.07922	3.15796	2.43454	17.82132	11.30253	6.26783
14890	1.00935	0.88505	0.60781	5.10096	4.35149	3.53322	16.92912	10.34298	5.28380	2.31210	1.89066	1.70911	4.07779	3.15847	2.43633	17.81886	11.30344	6.26985	27.76	6.0	0.00	-2.04	0.01761	0.01215	0.01535	0.01851	0.01916	0.01498	0.00553	0.01531	0.02040	0.01912	0.01336	0.01701	0.01730	0.01789	0.01395	0.00573	0.01614	0.02175
15060	1.00946	0.88511	0.61086	5.09958	4.34937	3.53495	16.93431	10.33982	5.28340	2.31225	1.89020	1.70884	4.08144	3.16255	2.43818	17.82141	11.30590	6.27254
15220	1.01353	0.88361	0.61009	5.10273	4.35202	3.53781	16.92709	10.34674	5.28616	2.31525	1.89075	1.70985	4.07710	3.15786	2.43730	17.82872	11.30616	6.27001
15390	1.01127	0.88316	0.60814	5.09969	4.35133	3.53475	16.91837	10.34384	5.28161	2.31194	1.88830	1.70985	4.07591	3.15575	2.43465	17.81862	11.30158	6.26593
15550	1.00606	0.88314	0.60896	5.09818	4.34795	3.53590	16.92482	10.34410	5.28697	2.31460	1.89316	1.71016	4.07782	3.15851	2.43690	17.82118	11.30602	6.27020
15720	1.00832	0.88167	0.60882	5.09499	4.34883	3.53587	16.91647	10.34081	5.28164	2.31341	1.88863	1.70842	4.07702	3.15472	2.43489	17.82837	11.30741	6.26898
15880	1.00867	0.88065	0.60668	5.09691	4.34830	3.53313	16.93747	10.33795	5.28142	2.30904	1.88749	1.70790	4.07817	3.15919	2.43839	17.82280	11.30612	6.27350
16050	1.00864	0.88333	0.60945	5.10092	4.35029	3.53452	16.93418	10.33226	5.28476	2.31246	1.88927	1.70908	4.07733	3.15713	2.43649	17.82292	11.30554	6.27056
16210	1.00873	0.88341	0.60986	5.10042	4.35040	3.53463	16.91913	10.34004	5.28346	2.31598	1.89131	1.70984	4.07700	3.15796	2.43778	17.82071	11.30314	6.26775
16380	1.01002	0.88473	0.61091	5.10174	4.35330	3.53682	16.92254	10.34366	5.28674	2.31786	1.89341	1.71069	4.08147	3.15873	2.43838	17.83023	11.31135	6.27549
16550	1.01102	0.88382	0.60829	5.09882	4.34959	3.53481	16.90958	10.33683	5.28205	2.31555	1.89090	1.71151	4.07991	3.15567	2.43787	17.83027	11.30750	6.26918	27.76	6.1	0.00	-2.04	0.01761	0.01215	0.01535	0.01851	0.01916	0.01498	0.00553	0.01531	0.02040	0.01912	0.01336	0.01701	0.01730	0.01790	0.01396	0.00573	0.01613	0.02175
16710	1.01108	0.88293	0.60630	5.10027	4.35277	3.53536	16.93778	10.33356	5.28039	2.31019	1.88850	1.71107	4.07847	3.15739	2.43945	17.81495	11.30884	6.27219
16880	1.01017	0.88449	0.61124	5.10064	4.35237	3.53521	16.91185	10.33701	5.28245	2.31622	1.89312	1.71303	4.07857	3.15737	2.43886	17.81739	11.30792	6.27113
17040	1.01001	0.88374	0.60840	5.10011	4.34955	3.53452	16.94525	10.34070	5.28211	2.31509	1.89272	1.71001	4.07686	3.15651	2.43711	17.82632	11.30598	6.27088
17210	1.01064	0.88506	0.61156	5.10129	4.35434	3.53948	16.93474	10.34506	5.28774	2.31841	1.89280	1.71049	4.08079	3.15834	2.43730	17.82771	11.31265	6.27584
17370	1.01091	0.88451	0.60989	5.09998	4.35236	3.53937	16.91665	10.33618	5.28583	2.31724	1.89243	1.71020	4.07864	3.15741	2.43528	17.81970	11.30510	6.26968
17540	1.00755	0.88410	0.61064	5.10044	4.35636	3.54229	16.92917	10.34233	5.28449	2.31740	1.89430	1.71191	4.08049	3.16093	2.43652	17.83061	11.30878	6.27500
17700	1.01015	0.88243	0.60693	5.10076	4.35105	3.53560	16.91577	10.33859	5.28239	2.31401	1.89244	1.71253	4.07846	3.15777	2.43613	17.82110	11.30798	6.27359
17870	1.01115	0.88386	0.60936	5.10352	4.35242	3.53683	16.91362	10.34011	5.28063	2.31724	1.89528	1.71305	4.07621	3.15284	2.43422	17.82203	11.30708	6.27278
18030	1.00871	0.88279	0.60828	5.09890	4.35042	3.53612	16.91160	10.33736	5.28199	2.31855	1.89530	1.71285	4.07802	3.15543	2.43363	17.81912	11.30474	6.27004
18190	1.00768	0.88181	0.60662	5.09898	4.35092	3.53487	16.90675	10.33809	5.28068	2.31412	1.89087	1.70854	4.07553	3.15626	2.43828	17.82028	11.30797	6.27350	27.82	6.1	0.00	-2.04	0.01761	0.01215	0.01535	0.01851	0.01916	0.01498	0.00553	0.01531	0.02040	0.01912	0.01336	0.01701	0.01730	0.01790	0.01396	0.00573	0.01613	0.02175
18360	1.00753	0.88351	0.60772	5.09980	4.35156	3.53919	16.94520	10.33646	5.28262	2.31217	1.88922	1.70947	4.07747	3.15575	2.43648	17.82063	11.30502	6.27075
18520	1.00868	0.88387	0.60824	5.10071	4.35289	3.53626	16.91256	10.34066	5.28425	2.31364	1.89211	1.71346	4.07827	3.15687	2.43573	17.82724	11.30664	6.27156
18690	1.00707	0.88201	0.60835	5.09946	4.35077	3.53678	16.91130	10.34132	5.28152	2.31450	1.88992	1.70897	4.07978	3.15965	2.43997	17.82213	11.31181	6.27638
18860	1.01131	0.88499	0.60817	5.10091	4.35210	3.53800	16.90259	10.33580	5.28425	2.31859	1.89262	1.71134	4.07744	3.15879	2.43947	17.82805	11.30698	6.27507
19020	1.01068	0.88581	0.60937	5.10137	4.35264	3.53756	16.94127	10.34132	5.28180	2.31819	1.89319	1.71006	4.07664	3.15628	2.43763	17.82643	11.30803	6.27506
19190	1.01070	0.88703	0.61085	5.09990	4.35260	3.53830	16.92937	10.34125	5.28725	2.32106	1.89418	1.71333	4.08005	3.15853	2.43718	17.82596	11.31236	6.27634
19350	1.01092	0.88525	0.60945	5.10224	4.35283	3.53812	16.91926	10.33969	5.28373	2.31794	1.89360	1.71311	4.08014	3.15794	2.43653	17.82620	11.30867	6.27331
19520	1.01059	0.88314	0.60647	5.10028	4.35127	3.53785	16.90486	10.33413	5.28069	2.31476	1.89143	1.71079	4.07916	3.16123	2.43898	17.82852	11.31254	6.27709
19680	1.01196	0.88642	0.60936	5.10277	4.35444	3.53961	16.90360	10.34319	5.28318	2.31720	1.89301	1.71359	4.07843	3.15693	2.43986	17.83177	11.30925	6.27286
19850	1.01056	0.88663	0.61182	5.10292	4.35281	3.53835	16.92467	10.34237	5.28306	2.31812	1.89533	1.71310	4.08446	3.16072	2.44191	17.81438	11.31352	6.27995	27.82	5.9	0.00	-2.04	0.01761	0.01215	0.01535	0.01851	0.01916	0.01498	0.00553	0.01531	0.02040	0.01912	0.01336	0.01701	0.01730	0.01790	0.01396	0.00573	0.01613	0.02175
20010	1.01205	0.88838	0.61240	5.10526	4.35644	3.54455	16.94492	10.34805	5.28808	2.32099	1.89407	1.71316	4.08128	3.15950	2.43987	17.83376	11.31344	6.27667
20180	1.01227	0.88423	0.60926	5.10133	4.35554	3.53985	16.91216	10.33499	5.28234	2.31617	1.89219	1.71365	4.07765	3.15679	2.43456	17.82609	11.30574	6.27238
20340	1.00671	0.88181	0.60843	5.10020	4.35355	3.53753	16.91418	10.34558	5.28193	2.31584	1.89335	1.71494	4.07962	3.15547	2.43703	17.82191	11.30743	6.27215
20510	1.00858	0.88130	0.60876	5.10218	4.35139	3.53587	16.90837	10.33657	5.28200	2.31792	1.89434	1.71267	4.07915	3.15852	2.43966	17.82551	11.30903	6.27490
20670	1.01193	0.88405	0.60939	5.10248	4.35424	3.54005	16.93327	10.33873	5.28340	2.31896	1.89409	1.71325	4.07893	3.15776	2.43672	17.82331	11.30901	6.27275
20840	1.01065	0.88588	0.61300	5.10186	4.35654	3.54509	16.93479	10.34198	5.28625	2.31909	1.89380	1.71516	4.08103	3.16020	2.44150	17.83213	11.31352	6.27592
21000	1.00938	0.88496	0.60923	5.10176	4.35497	3.53914	16.91519	10.33589	5.28364	2.31529	1.89343	1.71580	4.07895	3.15588	2.43761	17.82366	11.30743	6.27142
21170	1.00648	0.88440	0.60754	5.09898	4.35241	3.54027	16.91810	10.33813	5.28193	2.31526	1.88903	1.71005	4.07780	3.15617	2.43689	17.82064	11.30865	6.27205
21330	1.00819	0.88393	0.60793	5.10023	4.35344	3.54004	16.93201	10.34290	5.28393	2.31517	1.89060	1.71101	4.07803	3.15637	2.43710	17.82656	11.30785	6.27177
21500	1.00977	0.88399	0.61000	5.09903	4.35246	3.53959	16.92663	10.34261	5.28493	2.31853	1.89299	1.71231	4.07869	3.15666	2.43754	17.82942	11.31040	6.27290	27.82	6.2	0.00	-2.04	0.01761	0.01215	0.01535	0.01851	0.01916	0.01498	0.00553	0.01531	0.02040	0.01912	0.01336	0.01701	0.01730	0.01789	0.01396	0.00573	0.01613	0.02175
21660	1.00962	0.88328	0.60794	5.09681	4.35027	3.53721	16.91348	10.33980	5.27970	2.31369	1.88806	1.71033	4.08106	3.15697	2.43722	17.83069	11.31250	6.27475
21830	1.01101	0.88362	0.61195	5.10112	4.35271	3.53890	16.92789	10.33945	5.28343	2.31682	1.89326	1.71329	4.07701	3.15529	2.43691	17.82907	11.30968	6.27306
22000	1.01054	0.88354	0.61004	5.10236	4.35560	3.54028	16.94954	10.34120	5.28435	2.31428	1.89262	1.71438	4.07903	3.15622	2.43572	17.82373	11.30829	6.27208
22160	1.01015	0.88665	0.61204	5.10175	4.35636	3.54412	16.92169	10.34171	5.28520	2.32065	1.89578	1.71630	4.08147	3.16000	2.44212	17.83058	11.30946	6.27439
22330	1.00988	0.88572	0.61139	5.10277	4.35367	3.54029	16.90262	10.34017	5.28259	2.31966	1.89505	1.71117	4.07607	3.15473	2.43220	17.82791	11.30779	6.27180
22490	1.00694	0.88260	0.60713	5.09274	4.34822	3.53631	16.91639	10.33808	5.27969	2.31793	1.89017	1.71018	4.07537	3.15701	2.43622	17.81607	11.31054	6.27418
22660	1.00938	0.88409	0.61065	5.09945	4.34981	3.53918	16.92296	10.33973	5.28443	2.31924	1.89374	1.71054	4.07936	3.15844	2.43790	17.82767	11.31278	6.27509
22820	1.00957	0.88555	0.61161	5.10117	4.35225	3.53954	16.92283	10.33369	5.28367	2.31843	1.89388	1.71209	4.07983	3.16053	2.44028	17.82303	11.31182	6.27796
22990	1.01277	0.88689	0.61253	5.10254	4.35243	3.54119	16.91196	10.33962	5.28254	2.32352	1.89658	1.71206	4.08009	3.15885	2.43805	17.83162	11.31234	6.27623
23150	1.01155	0.88447	0.61131	5.09957	4.35129	3.54025	16.91061	10.33775	5.28228	2.32007	1.89368	1.71507	4.07866	3.15604	2.43692	17.82345	11.30988	6.27263	27.82	6.1	0.00	-2.04	0.01761	0.01215	0.01535	0.01851	0.01916	0.01498	0.00553	0.01531	0.02040	0.01912	0.01336	0.01701	0.01730	0.01790	0.01396	0.00573	0.01613	0.02175
23320	1.01057	0.88354	0.61064	5.09917	4.35161	3.54036	16.91958	10.33700	5.28233	2.31528	1.89018	1.71646	4.07636	3.15709	2.43544	17.82450	11.30491	6.26531
23490	1.00972	0.88323	0.60946	5.10333	4.35413	3.54053	16.90052	10.33836	5.28387	2.31475	1.89434	1.71372	4.07715	3.15910	2.43817	17.82647	11.30720	6.26989
23650	1.00750	0.88322	0.60776	5.09684	4.35043	3.53818	16.92679	10.33680	5.28190	2.31848	1.89271	1.71312	4.07891	3.15947	2.43923	17.82171	11.31157	6.27589
23820	1.01270	0.88642	0.61128	5.10092	4.35262	3.54148	16.92097	10.34023	5.28371	2.31939	1.89515	1.71438	4.08222	3.15951	2.44128	17.82775	11.30892	6.27467
23980	1.01136	0.88441	0.61062	5.10048	4.35154	3.53783	16.93020	10.33549	5.28300	2.31530	1.89106	1.71474	4.07724	3.15567	2.43560	17.82171	11.30874	6.26831
24150	1.01149	0.88707	0.61249	5.10267	4.35698	3.54601	16.89434	10.33975	5.28519	2.31619	1.89507	1.71788	4.08167	3.16026	2.43911	17.82566	11.30962	6.27589
24310	1.01153	0.88558	0.61076	5.10240	4.35214	3.53885	16.91617	10.33775	5.27970	2.32057	1.89500	1.71250	4.07992	3.15656	2.43629	17.81672	11.30710	6.27191
24480	1.00698	0.88287	0.60860	5.09734	4.34896	3.53507	16.89976	10.33586	5.27878	2.31775	1.89337	1.71496	4.07804	3.15814	2.43711	17.82136	11.31034	6.27424
24640	1.00956	0.88443	0.61035	5.09978	4.34664	3.53683	16.93463	10.34126	5.28285	2.31601	1.89175	1.71418	4.07503	3.15715	2.43517	17.82670	11.30638	6.27336
24810	1.01148	0.88748	0.61201	5.10007	4.34924	3.53486	16.93890	10.33812	5.28511	2.32010	1.89565	1.71664	4.07951	3.15441	2.43660	17.82630	11.30947	6.27510	27.82	6.1	0.00	-2.04	0.01761	0.01215	0.01535	0.01851	0.01916	0.01498	0.00553	0.01531	0.02040	0.01912	0.01336	0.01701	0.01730	0.01789	0.01396	0.00573	0.01613	0.02175
24970	1.00931	0.88272	0.60934	5.09852	4.34871	3.53836	16.93675	10.33428	5.28291	2.32039	1.89218	1.70945	4.07721	3.15513	2.43625	17.82445	11.30470	6.26768
25140	1.00825	0.88361	0.61085	5.09827	4.35448	3.54010	16.93713	10.33566	5.28341	2.31858	1.89250	1.71691	4.07576	3.15785	2.43618	17.82584	11.30674	6.27059
25300	1.01054	0.88305	0.60946	5.10101	4.34862	3.53395	16.91171	10.33740	5.28318	2.31948	1.89430	1.71238	4.08057	3.15499	2.43849	17.83037	11.31191	6.27708
25470	1.01301	0.88436	0.61224	5.09993	4.35135	3.53848	16.93358	10.33700	5.28390	2.31870	1.89331	1.71381	4.07525	3.15668	2.43560	17.82851	11.30918	6.27266
25630	1.00941	0.88586	0.60936	5.09912	4.35062	3.53826	16.91146	10.33900	5.28272	2.31747	1.89142	1.71244	4.07587	3.15427	2.43484	17.81807	11.30768	6.27067
25800	1.01029	0.88405	0.61135	5.09927	4.35267	3.54131	16.91651	10.33799	5.28315	2.31921	1.89198	1.71313	4.07648	3.15741	2.43678	17.82143	11.30884	6.27187
25960	1.00908	0.88359	0.60864	5.09864	4.35050	3.53884	16.94004	10.33604	5.28030	2.31700	1.89002	1.71248	4.07559	3.15696	2.43716	17.82329	11.31075	6.27563
26130	1.01141	0.88649	0.61146	5.10164	4.35070	3.53911	16.92599	10.33740	5.28294	2.31991	1.89477	1.71571	4.07977	3.15704	2.43891	17.81957	11.30844	6.27406
26290	1.01083	0.88328	0.61053	5.09680	4.34920	3.53928	16.91234	10.33718	5.28003	2.31987	1.89303	1.71177	4.07567	3.15501	2.43458	17.81668	11.30656	6.27127
26460	1.01157	0.88726	0.61162	5.09943	4.35134	3.54121	16.91231	10.34150	5.28698	2.32282	1.89608	1.71442	4.07830	3.15888	2.43813	17.82659	11.30923	6.27651	27.82	6.1	0.00	-2.04	0.01761	0.01215	0.01535	0.01851	0.01916	0.01498	0.00553	0.01531	0.02040	0.01912	0.01336	0.01701	0.01730	0.01789	0.01396	0.00573	0.01613	0.02175
26620	1.01060	0.88314	0.60868	5.09813	4.34873	3.53845	16.94710	10.33682	5.28052	2.31969	1.89365	1.71713	4.07730	3.15597	2.43386	17.82101	11.29910	6.26458
26790	1.00793	0.88131	0.61015	5.09670	4.34517	3.52993	16.92558	10.33486	5.28044	2.33491	1.90379	1.71209	4.07507	3.15592	2.43575	17.81614	11.31579	6.27803
26960	1.00954	0.88498	0.60935	5.08949	4.34545	3.54275	16.91420	10.33963	5.28249	2.31552	1.88727	1.71516	4.07830	3.15658	2.43611	17.82473	11.30737	6.26923
27120	1.01127	0.88328	0.60975	5.10024	4.35049	3.53730	16.94875	10.33924	5.28514	2.31639	1.89020	1.71153	4.07446	3.15539	2.43799	17.82345	11.30913	6.27004
27290	1.01022	0.88512	0.61148	5.09998	4.35344	3.53862	16.92090	10.33961	5.28181	2.31484	1.89212	1.71433	4.07801	3.15440	2.43630	17.82426	11.31318	6.27348
27450	1.01018	0.88582	0.61094	5.08450	4.35903	3.55941	16.89653	10.33557	5.28319	2.30655	1.86460	1.70474	4.07558	3.15441	2.43483	17.84111	11.30637	6.25620
27620	1.00886	0.88519	0.61115	5.09957	4.36267	3.54660	16.91433	10.34207	5.28338	2.31447	1.89336	1.71458	4.07787	3.15909	2.43731	17.82229	11.30537	6.27372
27780	1.00918	0.88341	0.61002	5.09922	4.35151	3.53744	16.88910	10.33359	5.28061	2.31722	1.89108	1.71258	4.07684	3.15631	2.43578	17.82345	11.30789	6.27140
27950	1.00966	0.88598	0.61085	5.09678	4.34516	3.53244	16.93469	10.33651	5.28025	2.31777	1.89353	1.71383	4.07911	3.15776	2.43789	17.82937	11.31154	6.27665
28120	1.01160	0.88452	0.60866	5.09717	4.35008	3.53921	16.94422	10.33942	5.28085	2.31566	1.88762	1.71211	4.07592	3.15618	2.43713	17.82228	11.31031	6.26938	27.82	6.1	0.00	-2.04	0.01761	0.01215	0.01535	0.01851	0.01916	0.01498	0.00553	0.01531	0.02040	0.01912	0.01336	0.01701	0.01730	0.01790	0.01396	0.00573	0.01613	0.02175
28280	1.00868	0.88494	0.60870	5.09881	4.35029	3.53630	16.91841	10.33399	5.28016	2.31672	1.89025	1.71039	4.07418	3.15496	2.43576	17.81915	11.30436	6.26818
28450	1.01151	0.88748	0.61190	5.10009	4.35384	3.53916	16.92663	10.33812	5.28483	2.31747	1.89274	1.71469	4.07733	3.15747	2.43793	17.82715	11.30638	6.27039
28610	1.01102	0.88206	0.60870	5.09857	4.35037	3.53615	16.90502	10.33586	5.28007	2.32039	1.89357	1.70949	4.07530	3.15549	2.43592	17.82390	11.30835	6.27108
28780	1.00901	0.88254	0.60762	5.09040	4.34366	3.53427	16.90603	10.33188	5.27926	2.31521	1.88647	1.70710	4.07729	3.15606	2.43993	17.82065	11.31045	6.26968
28940	1.01188	0.88653	0.60812	5.09737	4.35098	3.53923	16.92030	10.33667	5.28173	2.31445	1.88949	1.71117	4.07853	3.15911	2.43645	17.82855	11.30678	6.26938
29110	1.00864	0.88201	0.60872	5.09301	4.34673	3.53447	16.91992	10.33568	5.27667	2.31737	1.88961	1.70908	4.07415	3.15533	2.43360	17.82495	11.30810	6.26796
29270	1.01130	0.88688	0.61171	5.09601	4.35002	3.53698	16.93282	10.34087	5.28136	2.31749	1.89022	1.70868	4.07837	3.15695	2.43644	17.82669	11.30818	6.26957
29440	1.00826	0.88391	0.60878	5.09346	4.34827	3.53668	16.90111	10.33364	5.27932	2.31520	1.88705	1.70913	4.07542	3.15564	2.43505	17.81520	11.30394	6.26659
29600	1.00980	0.88160	0.60940	5.09420	4.34956	3.53512	16.91828	10.33537	5.28248	2.31326	1.88967	1.71358	4.07864	3.15476	2.43466	17.82901	11.30410	6.26729
29770	1.00883	0.88259	0.61067	5.09444	4.34642	3.53567	16.88676	10.33526	5.27845	2.31671	1.88916	1.70802	4.07821	3.15676	2.43504	17.83055	11.30766	6.26846	27.88	6.0	0.00	-2.04	0.01761	0.01215	0.01535	0.01851	0.01916	0.01498	0.00553	0.01531	0.02040	0.01912	0.01336	0.01701	0.01730	0.01790	0.01396	0.00573	0.01613	0.02175
29940	1.00938	0.88467	0.60930	5.09117	4.34586	3.53692	16.91388	10.33994	5.27990	2.31649	1.88727	1.70700	4.07834	3.15624	2.44038	17.82579	11.30878	6.27049
30100	1.01050	0.88523	0.61084	5.09731	4.35062	3.53753	16.92601	10.33834	5.28216	2.31713	1.89134	1.71232	4.07716	3.15472	2.43618	17.82579	11.30523	6.26770
30270	1.00953	0.88433	0.60924	5.09312	4.34831	3.53652	16.92690	10.33535	5.27992	2.31368	1.88876	1.70848	4.07562	3.15496	2.43274	17.82208	11.30509	6.26587
30430	1.00915	0.88287	0.60977	5.09333	4.34886	3.53746	16.93208	10.33900	5.28177	2.31615	1.88978	1.71037	4.07918	3.15734	2.43532	17.82335	11.30616	6.26810
30600	1.00991	0.88260	0.60901	5.09470	4.34926	3.53607	16.91994	10.33517	5.28394	2.31716	1.89041	1.70909	4.07562	3.15757	2.43633	17.82184	11.30517	6.26791
30760	1.00865	0.88157	0.60954	5.09357	4.34707	3.53358	16.92310	10.33506	5.27606	2.31411	1.88877	1.70825	4.07683	3.15807	2.43684	17.82753	11.30864	6.27037
30930	1.01207	0.88422	0.61004	5.09622	4.35091	3.53803	16.93651	10.33469	5.28266	2.31434	1.88978	1.71253	4.07706	3.15781	2.43660	17.82637	11.30417	6.26957
31100	1.01057	0.88436	0.60776	5.09625	4.35105	3.53404	16.91022	10.33647	5.28118	2.31717	1.89050	1.71080	4.07548	3.15546	2.43532	17.82800	11.30820	6.26956
31260	1.00923	0.88424	0.60981	5.09333	4.35071	3.53928	16.90933	10.33366	5.27938	2.31549	1.88927	1.70952	4.07699	3.15573	2.43497	17.82753	11.30379	6.26785
31430	1.01043	0.88559	0.61111	5.09634	4.35026	3.53775	16.92496	10.33762	5.28381	2.31785	1.89240	1.71129	4.07713	3.15748	2.43761	17.81926	11.30637	6.27110	27.88	6.0	0.00	-2.04	0.01761	0.01215	0.01535	0.01851	0.01916	0.01498	0.00553	0.01531	0.02040	0.01912	0.01336	0.01701	0.01730	0.01789	0.01396	0.00573	0.01613	0.02175
31590	1.01014	0.88469	0.60835	5.09600	4.34737	3.53617	16.94813	10.33044	5.27995	2.31651	1.89124	1.71084	4.07393	3.15583	2.43611	17.82251	11.30559	6.26651
31760	1.00983	0.88161	0.60784	5.09432	4.34848	3.53403	16.90841	10.33053	5.27855	2.31475	1.88898	1.71124	4.07665	3.15814	2.43870	17.82646	11.30846	6.27204
31920	1.01185	0.88392	0.61144	5.09641	4.34928	3.53716	16.91005	10.33499	5.28293	2.31492	1.89060	1.71338	4.07566	3.15605	2.43632	17.81764	11.30461	6.26854
32090	1.00913	0.88498	0.61179	5.09676	4.35026	3.53711	16.92825	10.33275	5.28361	2.31542	1.89063	1.71227	4.07544	3.15718	2.43679	17.82506	11.30351	6.26793
32260	1.01138	0.88582	0.61054	5.09495	4.34895	3.53503	16.90387	10.33639	5.27782	2.31563	1.89067	1.71040	4.07710	3.15809	2.43712	17.82773	11.30724	6.27294
32420	1.01270	0.88621	0.61166	5.09945	4.35176	3.53574	16.90665	10.33714	5.28338	2.31578	1.89187	1.71604	4.07675	3.15702	2.43522	17.81984	11.30513	6.26870
32590	1.00959	0.88440	0.61008	5.09575	4.34809	3.53623	16.89832	10.33180	5.28103	2.31713	1.89133	1.71272	4.07476	3.15395	2.43451	17.82437	11.30261	6.26643
32750	1.01081	0.88573	0.61033	5.09417	4.34727	3.53840	16.92914	10.33703	5.28180	2.31735	1.88927	1.71122	4.07817	3.15706	2.43566	17.82913	11.30669	6.26954
32920	1.01020	0.88443	0.61020	5.09511	4.34920	3.53867	16.89605	10.33580	5.28016	2.31616	1.89043	1.71339	4.07397	3.15439	2.43469	17.82007	11.30325	6.26926
33080	1.00978	0.88175	0.60933	5.09370	4.34435	3.53039	16.91684	10.33115	5.27786	2.31841	1.89265	1.71167	4.07390	3.15604	2.43709	17.82438	11.30701	6.27198	27.88	6.0	0.00	-2.04	0.01761	0.01215	0.01535	0.01851	0.01916	0.01498	0.00553	0.01531	0.02040	0.01912	0.01336	0.01701	0.01730	0.01789	0.01396	0.00573	0.01613	0.02175
33250	1.00956	0.88354	0.61165	5.09598	4.34834	3.53709	16.92645	10.33284	5.28019	2.31635	1.88773	1.71193	4.07405	3.15732	2.43671	17.81997	11.30528	6.26822
33410	1.01042	0.88444	0.61089	5.09814	4.34942	3.53597	16.91166	10.33495	5.27947	2.31391	1.89143	1.71479	4.07284	3.15431	2.43449	17.82600	11.30136	6.26502
33580	1.01178	0.88562	0.61224	5.09923	4.35077	3.53914	16.89778	10.33820	5.28338	2.31680	1.89271	1.71330	4.07770	3.15703	2.43565	17.82020	11.30769	6.27243
33750	1.01020	0.88461	0.60936	5.09502	4.34834	3.53566	16.89198	10.33062	5.27908	2.31773	1.88987	1.71093	4.07445	3.15347	2.43319	17.82043	11.30200	6.26817
33910	1.01006	0.88005	0.60723	5.09670	4.34574	3.53121	16.92316	10.32928	5.27691	2.31194	1.88816	1.70751	4.07479	3.15427	2.43771	17.81950	11.31224	6.27417
34080	1.01108	0.88309	0.60995	5.09124	4.34792	3.54047	16.88707	10.33326	5.28002	2.31794	1.88641	1.70737	4.07502	3.15526	2.43363	17.82124	11.31007	6.26764
34240	1.00984	0.88232	0.60980	5.09118	4.34558	3.53657	16.89980	10.32601	5.27718	2.32005	1.89176	1.71245	4.07233	3.15346	2.43385	17.81997	11.30372	6.26842
34410	1.01051	0.88442	0.61100	5.09437	4.34430	3.53309	16.93037	10.33458	5.28155	2.31976	1.89538	1.71489	4.07738	3.15592	2.43574	17.83541	11.30815	6.27212
34570	1.00905	0.88263	0.60956	5.09303	4.34237	3.53554	16.90964	10.33368	5.27773	2.31447	1.89359	1.70506	4.07421	3.15341	2.43438	17.83158	11.30422	6.27519
34740	1.00726	0.88173	0.61139	5.08353	4.34868	3.53715	16.88614	10.33217	5.28168	2.31370	1.88614	1.70796	4.07671	3.15480	2.43428	17.82960	11.30283	6.26769	27.93	6.2	0.00	-2.04	0.01761	0.01215	0.01535	0.01851	0.01916	0.01498	0.00553	0.01531	0.02040	0.01912	0.01336	0.01701	0.01730	0.01789	0.01395	0.00573	0.01613	0.02175
34900	1.00779	0.88306	0.60945	5.09244	4.35428	3.53705	16.91301	10.33340	5.27619	2.30579	1.88304	1.71458	4.07592	3.15735	2.43681	17.83424	11.30540	6.26905
35070	1.01255	0.88571	0.61223	5.09977	4.35166	3.53506	16.93399	10.33661	5.28060	2.31473	1.89200	1.71526	4.07799	3.15514	2.43389	17.82275	11.30429	6.26952
35230	1.00819	0.88188	0.60996	5.09236	4.34595	3.53407	16.93589	10.32996	5.27669	2.31731	1.88993	1.70623	4.07218	3.15372	2.43253	17.81973	11.30377	6.27111
35400	1.00939	0.88310	0.61111	5.09198	4.34545	3.53573	16.91856	10.33984	5.27984	2.32125	1.88776	1.70584	4.07447	3.15511	2.43551	17.82565	11.31043	6.26705
35560	1.00967	0.88253	0.60987	5.08481	4.34436	3.53953	16.91326	10.33270	5.27635	2.32258	1.88766	1.70245	4.07574	3.15767	2.43859	17.82321	11.31303	6.27604
35730	1.01075	0.88356	0.60932	5.09419	4.34609	3.52994	16.90492	10.33213	5.27952	2.31752	1.88943	1.71123	4.07633	3.15482	2.43519	17.81671	11.31524	6.27373
35890	1.01013	0.88211	0.60991	5.08045	4.32901	3.53048	16.89937	10.33314	5.27804	2.32250	1.88481	1.70351	4.07479	3.15163	2.43155	17.82089	11.30682	6.26039
36060	1.00976	0.88437	0.61271	5.09457	4.35058	3.53492	16.90922	10.33600	5.28023	2.31217	1.88639	1.70763	4.07847	3.15446	2.43790	17.82600	11.31752	6.27559
36220	1.00871	0.88026	0.60978	5.08718	4.33955	3.53561	16.90101	10.33336	5.27963	2.30340	1.87726	1.70479	4.07560	3.15470	2.43364	17.81683	11.29889	6.26627
36390	1.00696	0.88124	0.60805	5.09751	4.35023	3.51287	16.91021	10.32767	5.27623	2.32671	1.89270	1.70853	4.07613	3.15504	2.43784	17.81166	11.32293	6.26830	27.88	6.0	0.00	-2.04	0.01761	0.01215	0.01535	0.01851	0.01916	0.01498	0.00553	0.01531	0.02040	0.01912	0.01336	0.01701	0.01730	0.01789	0.01396	0.00573	0.01613	0.02175
36560	1.00885	0.88471	0.61214	5.08224	4.33838	3.55839	16.88687	10.33428	5.27775	2.30881	1.87858	1.69597	4.07611	3.15488	2.43655	17.83081	11.29820	6.25522
36720	1.00839	0.88471	0.61048	5.09834	4.37612	3.54482	16.88700	10.33456	5.28057	2.27735	1.87199	1.74245	4.07632	3.15472	2.43468	17.81792	11.27125	6.25704
36890	1.00917	0.88528	0.61300	5.12496	4.36032	3.49977	16.89015	10.33557	5.28371	2.31251	1.91560	1.75650	4.07635	3.15481	2.43751	17.81085	11.28493	6.25353
37050	1.01107	0.88314	0.61101	5.10590	4.37508	3.55723	16.91109	10.33386	5.27982	2.28915	1.86457	1.72566	4.07576	3.15519	2.43518	17.84592	11.27880	6.22416
37220	1.00855	0.88205	0.60962	5.11946	4.38948	3.55092	16.90541	10.33568	5.28325	2.28520	1.88528	1.72633	4.07930	3.15654	2.43307	17.82071	11.28775	6.26001
37380	1.00992	0.88302	0.61035	5.10192	4.34252	3.52421	16.91463	10.33401	5.27713	2.31390	1.89303	1.71192	4.07768	3.15298	2.43305	17.82071	11.30523	6.26732
37550	1.00726	0.88291	0.61030	5.08792	4.33780	3.52377	16.89683	10.33160	5.27870	2.31017	1.88616	1.71036	4.07542	3.15262	2.43565	17.81990	11.30240	6.27244
37710	1.00901	0.88254	0.60841	5.09547	4.33565	3.52197	16.91109	10.32842	5.27768	2.33210	1.89602	1.67343	4.07337	3.15283	2.43066	17.84452	11.31244	6.29937
37880	1.01043	0.88399	0.61301	5.05331	4.35537	3.53441	16.92423	10.33872	5.28349	2.31912	1.85086	1.69646	4.07991	3.16060	2.43830	17.81723	11.30088	6.25532
38050	1.00820	0.88233	0.60980	5.09300	4.35176	3.54469	16.90557	10.33219	5.27961	2.30897	1.87254	1.69189	4.07789	3.15462	2.43573	17.81955	11.30373	6.26012	27.93	6.2	0.00	-2.04	0.01761	0.01215	0.01535	0.01851	0.01916	0.01498	0.00553	0.01530	0.02039	0.01912	0.01336	0.01701	0.01729	0.01789	0.01395	0.00573	0.01614	0.02175
38210	1.00691	0.88125	0.60970	5.10177	4.35397	3.52575	16.90532	10.32782	5.27795	2.27542	1.87456	1.70561	4.07742	3.16013	2.43907	17.81642	11.29234	6.25979
38380	1.01094	0.88417	0.61222	5.08623	4.34880	3.53345	16.91681	10.33852	5.28262	2.29545	1.86979	1.68018	4.08256	3.16232	2.44051	17.81746	11.29818	6.25716
38540	1.01503	0.88677	0.61504	5.06486	4.32951	3.53625	16.93060	10.33797	5.28738	2.31062	1.88494	1.65638	4.08151	3.16207	2.44410	17.81016	11.29160	6.26634
38710	1.01550	0.88988	0.61736	5.06035	4.32461	3.51438	16.93756	10.34127	5.29042	2.31589	1.88200	1.68043	4.08484	3.16571	2.44658	17.79326	11.29960	6.26673
38870	1.01858	0.89380	0.62084	5.05708	4.31352	3.50953	16.93883	10.34824	5.29016	2.30238	1.90517	1.70624	4.08529	3.16354	2.44286	17.75112	11.24358	6.24150
39040	1.01551	0.88884	0.61552	5.06226	4.28504	3.48573	16.92351	10.34274	5.28508	2.31307	1.80724	1.63655	4.08306	3.15984	2.44330	17.83046	11.32332	6.19487
39200	1.01420	0.88819	0.61444	5.06597	4.36735	3.52104	16.91416	10.34034	5.28260	2.17936	1.82007	1.70490	4.07703	3.15434	2.43663	17.75608	11.24064	6.22828
39370	1.01105	0.88538	0.61245	5.12628	4.37484	3.55801	16.90696	10.32914	5.27736	2.34399	1.91366	1.75191	4.07194	3.15047	2.43169	17.84103	11.32193	6.27855
39530	1.00626	0.88351	0.61078	5.11842	4.37892	3.53757	16.90911	10.33672	5.28226	2.26898	1.90884	1.73208	4.07887	3.15897	2.44067	17.82883	11.28038	6.26929
39700	1.01335	0.89024	0.61918	5.09347	4.34400	3.51444	16.92644	10.35179	5.29098	2.29827	1.91947	1.74047	4.08537	3.16486	2.44403	17.79735	11.27219	6.27131	27.88	6.0	0.00	-2.04	0.01760	0.01215	0.01535	0.01852	0.01916	0.01499	0.00552	0.01530	0.02039	0.01912	0.01336	0.01701	0.01729	0.01788	0.01395	0.00573	0.01614	0.02176
39870	1.01653	0.88923	0.61610	5.11133	4.32280	3.47268	16.92695	10.34345	5.28826	2.31967	1.93662	1.71148	4.07949	3.15967	2.43679	17.76974	11.27069	6.24676
40030	1.01446	0.88883	0.61608	5.03248	4.28667	3.48100	16.92112	10.34457	5.28969	2.24579	1.82062	1.62235	4.08596	3.16564	2.44551	17.74105	11.22323	6.19578
40200	1.02056	0.89265	0.61845	5.04452	4.31088	3.49315	16.91151	10.34708	5.29011	2.28514	1.97711	1.76213	4.08938	3.16751	2.44883	17.82052	11.27688	6.31530
40360	1.01554	0.88755	0.61534	5.10070	4.36381	3.51892	16.92239	10.34747	5.29327	2.21494	1.88048	1.69932	4.08610	3.16809	2.45004	17.80928	11.27722	6.20939
40530	1.02041	0.89340	0.61743	5.04929	4.27134	3.46729	16.91404	10.34769	5.28700	2.23303	1.85233	1.65301	4.08301	3.16104	2.44031	17.75729	11.23268	6.20088
40690	1.01598	0.88891	0.61630	5.03588	4.27459	3.45786	16.89258	10.34182	5.28672	2.21219	1.81422	1.61050	4.08335	3.16418	2.44654	17.71382	11.20483	6.17051
40860	1.01952	0.89306	0.61862	4.99134	4.24143	3.44973	16.93011	10.34516	5.29238	2.22388	1.82641	1.63519	4.08576	3.16260	2.44349	17.77170	11.25944	6.22661
41020	1.01478	0.88671	0.61280	5.06016	4.31733	3.48759	16.91177	10.33900	5.28637	2.24295	1.84694	1.66181	4.08597	3.16532	2.44731	17.73875	11.23730	6.21781
41190	1.01764	0.89363	0.61646	5.06223	4.30948	3.50203	16.92353	10.33628	5.28451	2.29709	1.87667	1.66741	4.07613	3.15826	2.43710	17.78810	11.28899	6.25006
41350	1.01048	0.88728	0.61109	5.05687	4.31416	3.52025	16.90332	10.33899	5.28498	2.28702	1.85548	1.66335	4.07924	3.15734	2.44006	17.80340	11.27429	6.23224	27.93	6.0	0.00	-2.04	0.01760	0.01214	0.01535	0.01852	0.01916	0.01499	0.00552	0.01529	0.02038	0.01912	0.01336	0.01701	0.01728	0.01788	0.01395	0.00573	0.01614	0.02176
41520	1.01303	0.88567	0.61396	5.07001	4.33560	3.52005	16.91356	10.33439	5.28125	2.25297	1.85188	1.68215	4.07886	3.15622	2.43658	17.80108	11.26049	6.22594
41690	1.00997	0.88398	0.61075	5.07391	4.32773	3.49608	16.90155	10.33771	5.27988	2.25868	1.86203	1.67661	4.07743	3.15763	2.43730	17.78466	11.26766	6.24042
41850	1.01115	0.88541	0.61342	5.06664	4.31554	3.49614	16.89057	10.33553	5.28322	2.26838	1.86153	1.67562	4.07987	3.15949	2.44073	17.78975	11.26778	6.23476
42020	1.01436	0.88899	0.61580	5.06558	4.31556	3.49988	16.89814	10.33520	5.28548	2.27192	1.86231	1.67253	4.08021	3.15887	2.44266	17.79761	11.27475	6.23862
42180	1.01453	0.88749	0.61235	5.07181	4.32591	3.50452	16.91975	10.33545	5.28301	2.26411	1.86704	1.67814	4.08175	3.16393	2.44101	17.78698	11.26798	6.24671
42350	1.01752	0.88967	0.61530	5.07389	4.33056	3.50498	16.87192	10.34130	5.28807	2.28095	1.87069	1.68070	4.08305	3.16431	2.44517	17.78940	11.27172	6.24331
42510	1.01403	0.88543	0.61435	5.07380	4.32640	3.50629	16.89057	10.33261	5.28570	2.26846	1.86303	1.68263	4.08101	3.15888	2.43858	17.79761	11.27595	6.23799
42680	1.01228	0.88656	0.61357	5.07090	4.32637	3.50764	16.89827	10.33338	5.28453	2.26834	1.86320	1.67976	4.07836	3.15911	2.43836	17.78917	11.26571	6.23430
42850	1.01421	0.88831	0.61525	5.07388	4.33017	3.50572	16.92684	10.34288	5.28974	2.27257	1.87151	1.68715	4.08400	3.16327	2.44026	17.77727	11.26751	6.23665
43010	1.01197	0.88589	0.61300	5.07543	4.32955	3.50808	16.89158	10.33923	5.28223	2.27820	1.87327	1.68731	4.07921	3.15846	2.43738	17.77979	11.27272	6.24362	27.93	6.1	0.00	-2.04	0.01760	0.01214	0.01534	0.01852	0.01917	0.01499	0.00552	0.01529	0.02038	0.01912	0.01336	0.01701	0.01728	0.01788	0.01394	0.00573	0.01614	0.02176
43180	1.01022	0.88529	0.61181	5.07413	4.32380	3.50455	16.90143	10.33574	5.27907	2.27707	1.86930	1.68175	4.07877	3.15800	2.44242	17.79262	11.27695	6.24559
43340	1.01451	0.88797	0.61461	5.07563	4.32936	3.50962	16.93762	10.33827	5.28322	2.28064	1.87398	1.68786	4.07973	3.15972	2.43946	17.79759	11.27603	6.24513
43510	1.01307	0.88689	0.61347	5.07353	4.32480	3.50771	16.92584	10.33642	5.28285	2.27866	1.87147	1.68920	4.07736	3.15777	2.43928	17.80303	11.27318	6.23506
43670	1.01332	0.88790	0.61593	5.08131	4.34102	3.51440	16.91761	10.34124	5.28767	2.28295	1.88536	1.70063	4.08098	3.16128	2.43867	17.79134	11.27705	6.25149
43840	1.01254	0.88793	0.61598	5.07440	4.31963	3.50585	16.93711	10.33334	5.28372	2.29683	1.88742	1.69406	4.07989	3.15977	2.43763	17.79169	11.27579	6.24831
44000	1.01233	0.88397	0.61177	5.07404	4.32005	3.49880	16.92280	10.33178	5.27843	2.28373	1.88005	1.69488	4.07623	3.15856	2.44218	17.79655	11.27439	6.24154
44170	1.01114	0.88625	0.61366	5.08473	4.33732	3.50780	16.90914	10.33369	5.28228	2.27367	1.88015	1.70047	4.07957	3.16128	2.44338	17.79979	11.27743	6.24701
44330	1.01427	0.88605	0.61578	5.08457	4.33675	3.51289	16.90181	10.33948	5.28143	2.28422	1.88066	1.69158	4.08089	3.15875	2.44075	17.79354	11.27603	6.24583
44500	1.01139	0.88430	0.61198	5.07947	4.33748	3.51786	16.90434	10.33257	5.28142	2.27558	1.87237	1.69136	4.07719	3.15736	2.43873	17.79701	11.27218	6.24336
44660	1.00965	0.88248	0.61111	5.08082	4.33334	3.51232	16.92901	10.33173	5.27905	2.28521	1.88059	1.68723	4.07752	3.15759	2.43793	17.79103	11.27576	6.24774	27.93	6.1	0.00	-2.04	0.01759	0.01214	0.01534	0.01852	0.01917	0.01499	0.00552	0.01529	0.02038	0.01912	0.01336	0.01701	0.01728	0.01788	0.01394	0.00573	0.01614	0.02176
44830	1.01072	0.88182	0.61261	5.07475	4.33430	3.51668	16.90902	10.33063	5.27956	2.28211	1.87283	1.68804	4.07870	3.15790	2.43803	17.79866	11.27939	6.24669
44990	1.01221	0.88537	0.61114	5.07923	4.33731	3.51855	16.90156	10.33336	5.28000	2.28313	1.87406	1.69069	4.07920	3.15578	2.43867	17.80237	11.28051	6.24443
45160	1.01217	0.88377	0.61299	5.07879	4.33894	3.52120	16.92217	10.33351	5.28121	2.27930	1.87281	1.69085	4.07745	3.15687	2.43652	17.80688	11.27955	6.24369
45330	1.01161	0.88701	0.61261	5.07991	4.33785	3.51994	16.89853	10.34139	5.28327	2.28213	1.87653	1.69289	4.07592	3.15618	2.43901	17.78803	11.27951	6.24616
45490	1.01293	0.88629	0.61173	5.07938	4.33447	3.51564	16.93167	10.33468	5.28095	2.28400	1.88052	1.69507	4.07465	3.15765	2.43670	17.79820	11.28113	6.24902
45660	1.01067	0.88390	0.60957	5.07811	4.33183	3.51395	16.89790	10.33217	5.27768	2.28227	1.87696	1.69357	4.07686	3.15806	2.44075	17.80653	11.28574	6.25223
45820	1.01510	0.88567	0.61247	5.08078	4.33529	3.51527	16.91661	10.33532	5.28163	2.28572	1.87937	1.69324	4.07882	3.15979	2.44144	17.80190	11.28343	6.25135
45990	1.01151	0.88627	0.61252	5.08002	4.33395	3.51681	16.91597	10.33785	5.28159	2.28767	1.87763	1.69191	4.07763	3.15724	2.43749	17.80850	11.28505	6.24806
46160	1.01236	0.88672	0.61371	5.07969	4.33675	3.51715	16.91205	10.33925	5.28095	2.28023	1.87901	1.70060	4.07883	3.15703	2.43791	17.79843	11.28043	6.24502
46320	1.01201	0.88535	0.61471	5.08578	4.34230	3.52146	16.91600	10.33465	5.28366	2.28487	1.87933	1.69730	4.07778	3.15763	2.43977	17.80778	11.28697	6.25332	27.99	6.0	0.00	-2.04	0.01759	0.01214	0.01534	0.01852	0.01917	0.01499	0.00552	0.01529	0.02037	0.01912	0.01336	0.01701	0.01728	0.01788	0.01394	0.00573	0.01614	0.02176
46490	1.01212	0.88532	0.61192	5.08329	4.33807	3.52019	16.90349	10.33749	5.28017	2.28855	1.88056	1.69278	4.07830	3.15581	2.43515	17.80373	11.28516	6.25257
46650	1.00926	0.88231	0.61138	5.07846	4.33405	3.51682	16.89250	10.33054	5.27518	2.28310	1.87394	1.69034	4.07498	3.15459	2.43668	17.80558	11.28536	6.24831
46820	1.01063	0.88399	0.61154	5.08367	4.34281	3.52258	16.89565	10.33344	5.27969	2.28703	1.88178	1.69629	4.07622	3.15904	2.43484	17.80002	11.27928	6.24870
46980	1.01106	0.88304	0.61140	5.09094	4.34804	3.52437	16.93424	10.32641	5.27793	2.28555	1.88501	1.69926	4.07845	3.16068	2.43942	17.81010	11.28426	6.25712
47150	1.01269	0.88657	0.61490	5.08850	4.34130	3.51860	16.91158	10.33707	5.28261	2.29672	1.88799	1.69689	4.07895	3.15924	2.43603	17.80419	11.29017	6.26105
47310	1.01142	0.88315	0.61028	5.08632	4.33621	3.51815	16.91221	10.33292	5.27883	2.29387	1.88432	1.69461	4.07666	3.15612	2.43570	17.80234	11.28306	6.25375
47480	1.01129	0.88245	0.61411	5.09079	4.34293	3.51891	16.90930	10.33254	5.27993	2.28831	1.88562	1.70221	4.07736	3.15596	2.43353	17.81079	11.28240	6.25120
47640	1.00994	0.88064	0.61071	5.08331	4.33810	3.52199	16.92246	10.32988	5.27634	2.28961	1.87946	1.68965	4.07589	3.15830	2.43708	17.80338	11.28815	6.25373
47810	1.01300	0.88606	0.61133	5.08300	4.34127	3.52469	16.89995	10.32894	5.27837	2.29427	1.88254	1.69289	4.07515	3.15239	2.43353	17.80188	11.28627	6.25090
47970	1.01028	0.88525	0.61446	5.08254	4.34382	3.52929	16.91403	10.33830	5.28115	2.29346	1.88316	1.69739	4.07856	3.15710	2.43724	17.80760	11.28626	6.25161	27.93	6.1	0.00	-2.04	0.01759	0.01214	0.01534	0.01852	0.01917	0.01499	0.00552	0.01529	0.02037	0.01912	0.01336	0.01701	0.01727	0.01787	0.01394	0.00573	0.01614	0.02176
48140	1.01075	0.88273	0.61000	5.08427	4.34306	3.52190	16.87514	10.33140	5.27840	2.29016	1.88404	1.70047	4.07228	3.15309	2.43201	17.79915	11.28318	6.24935
48300	1.00728	0.88261	0.61087	5.08325	4.33997	3.52231	16.89583	10.32729	5.27438	2.28558	1.88122	1.69652	4.07544	3.15457	2.43344	17.80459	11.27990	6.25016
48470	1.00883	0.88291	0.60960	5.08560	4.34097	3.51973	16.92086	10.32966	5.27674	2.29151	1.88488	1.69949	4.07506	3.15335	2.43228	17.79927	11.28120	6.25022
48630	1.01039	0.88424	0.61400	5.08560	4.34195	3.52381	16.91276	10.33408	5.28097	2.29102	1.88442	1.69800	4.07545	3.15572	2.43364	17.80702	11.28636	6.25421
48800	1.00892	0.88182	0.60978	5.08353	4.33799	3.51822	16.90417	10.33093	5.27655	2.28950	1.88055	1.69465	4.07706	3.15668	2.43812	17.80181	11.29247	6.25829
48960	1.01192	0.88699	0.61203	5.08729	4.34125	3.52230	16.90492	10.33368	5.28210	2.29507	1.88762	1.70008	4.07635	3.15587	2.43557	17.80748	11.28743	6.25521
49130	1.00975	0.88267	0.61166	5.08630	4.33882	3.52053	16.88762	10.33078	5.27828	2.29388	1.88454	1.69566	4.07554	3.15428	2.43592	17.80656	11.28626	6.25321
49300	1.01073	0.88350	0.61096	5.08541	4.34514	3.52439	16.89848	10.32792	5.27866	2.28836	1.88100	1.69777	4.07692	3.15574	2.43889	17.80308	11.28552	6.25360
49460	1.01153	0.88580	0.61340	5.08804	4.34778	3.52745	16.93442	10.33107	5.27868	2.28627	1.87915	1.69788	4.07426	3.15570	2.43490	17.80702	11.28733	6.25215
49630	1.00970	0.88196	0.61075	5.08655	4.34510	3.52306	16.88802	10.32753	5.27745	2.28846	1.87990	1.69754	4.07165	3.15289	2.43455	17.80178	11.28549	6.25107	27.93	6.0	0.00	-2.04	0.01759	0.01214	0.01534	0.01852	0.01917	0.01499	0.00552	0.01529	0.02037	0.01912	0.01336	0.01701	0.01727	0.01787	0.01394	0.00574	0.01614	0.02176
49790	1.00842	0.88323	0.61218	5.07984	4.34103	3.52616	16.93038	10.33105	5.27943	2.29696	1.88458	1.70067	4.07505	3.15368	2.43462	17.80976	11.29126	6.25012
49960	1.00766	0.88351	0.61086	5.08088	4.34329	3.52944	16.92734	10.32619	5.27666	2.28925	1.88090	1.69675	4.07516	3.15583	2.43143	17.81069	11.28635	6.25168
50120	1.00864	0.88391	0.61021	5.08928	4.34760	3.52122	16.91670	10.32786	5.27726	2.28748	1.88568	1.70148	4.07620	3.15469	2.43485	17.80502	11.29081	6.26004
50290	1.01142	0.88256	0.61206	5.08701	4.34029	3.51947	16.91683	10.33371	5.27933	2.29112	1.88277	1.69863	4.07290	3.15438	2.43480	17.81532	11.29085	6.25500
50460	1.00804	0.88315	0.61155	5.08830	4.34683	3.52581	16.90166	10.33111	5.27986	2.28840	1.88415	1.70082	4.07438	3.15178	2.43489	17.80698	11.28513	6.25518
50620	1.00922	0.88304	0.61428	5.09230	4.34679	3.52398	16.92151	10.33826	5.27845	2.29884	1.89069	1.69947	4.07799	3.15694	2.43926	17.81011	11.29662	6.26348
50790	1.01301	0.88386	0.61090	5.08671	4.34185	3.52460	16.90709	10.32902	5.27711	2.29700	1.88345	1.69618	4.07521	3.15392	2.43344	17.81104	11.29162	6.25444
50950	1.00747	0.88117	0.60832	5.08604	4.34321	3.52362	16.90671	10.32230	5.27392	2.28611	1.88097	1.69909	4.07162	3.15442	2.43418	17.81602	11.29158	6.25417
51120	1.01106	0.88334	0.60864	5.08657	4.34816	3.52652	16.89067	10.32663	5.27617	2.28920	1.88283	1.70362	4.07220	3.15317	2.43367	17.80559	11.28765	6.25245
51280	1.01003	0.88232	0.61102	5.08488	4.34559	3.52817	16.92014	10.33012	5.27558	2.29480	1.88482	1.70463	4.07278	3.14957	2.43149	17.82282	11.29324	6.24674	27.93	6.0	0.00	-2.04	0.01759	0.01214	0.01534	0.01852	0.01917	0.01499	0.00552	0.01529	0.02037	0.01912	0.01336	0.01701	0.01727	0.01787	0.01394	0.00574	0.01615	0.02176
51450	1.00677	0.88349	0.61109	5.09405	4.35681	3.52693	16.88880	10.33012	5.27951	2.27843	1.89392	1.72290	4.07389	3.15309	2.43248	17.80799	11.28231	6.25347
51610	1.00763	0.87951	0.60991	5.09813	4.34955	3.51821	16.91179	10.32680	5.27706	2.28847	1.88688	1.70579	4.07231	3.15493	2.43342	17.81239	11.28848	6.25603
51780	1.00715	0.88174	0.60945	5.09047	4.34829	3.52619	16.91939	10.33029	5.28017	2.29171	1.88722	1.70485	4.07487	3.15332	2.43349	17.81448	11.29056	6.25524
51940	1.01011	0.88053	0.60976	5.09113	4.35081	3.52662	16.89877	10.32614	5.27587	2.29274	1.89021	1.70810	4.07258	3.15329	2.43363	17.81088	11.28852	6.25685
52110	1.00848	0.88179	0.60921	5.09083	4.34061	3.52323	16.90206	10.32805	5.27565	2.29595	1.89289	1.70703	4.07476	3.15460	2.43576	17.81332	11.29084	6.25851
52280	1.00869	0.88177	0.61193	5.08815	4.34396	3.52628	16.91015	10.32330	5.27761	2.30065	1.89074	1.69925	4.07349	3.15236	2.43436	17.81610	11.29094	6.25707
52440	1.00953	0.88306	0.60942	5.08689	4.34524	3.52972	16.90471	10.32653	5.27676	2.29472	1.88272	1.69721	4.07085	3.15069	2.43247	17.81969	11.29142	6.25421
52610	1.00793	0.88479	0.61296	5.08987	4.35222	3.53059	16.90560	10.33280	5.27966	2.29605	1.88525	1.70285	4.07597	3.15560	2.43347	17.81888	11.29544	6.25911
52770	1.00962	0.88178	0.61222	5.08900	4.34484	3.52590	16.92584	10.32414	5.27626	2.29456	1.88938	1.70428	4.07209	3.15507	2.43475	17.80915	11.29356	6.26051
52940	1.00751	0.88091	0.60801	5.08829	4.34168	3.52067	16.90109	10.32946	5.27478	2.29601	1.88700	1.70098	4.07288	3.15413	2.43386	17.80936	11.29724	6.26164	27.99	6.0	0.00	-2.04	0.01759	0.01214	0.01534	0.01852	0.01917	0.01499	0.00552	0.01528	0.02037	0.01912	0.01336	0.01701	0.01727	0.01787	0.01394	0.00574	0.01615	0.02176
53100	1.00879	0.88323	0.61148	5.08943	4.34603	3.52363	16.90172	10.32574	5.27824	2.29518	1.88602	1.70162	4.07348	3.15140	2.43252	17.81678	11.29594	6.25919
53270	1.00845	0.88257	0.61092	5.09054	4.34669	3.52727	16.88707	10.32599	5.27568	2.29208	1.88467	1.70089	4.07341	3.15128	2.43238	17.81492	11.29518	6.25670
53430	1.00957	0.88241	0.61243	5.09148	4.35025	3.53095	16.90450	10.33212	5.27812	2.29445	1.88793	1.70412	4.07426	3.15242	2.43447	17.82570	11.29744	6.25751
53600	1.00772	0.88211	0.60964	5.08940	4.35076	3.52977	16.88329	10.32717	5.27624	2.29028	1.88363	1.69904	4.07094	3.15025	2.43410	17.81527	11.29406	6.25665
53760	1.00844	0.88011	0.60933	5.09565	4.35595	3.52588	16.90210	10.32546	5.27471	2.29547	1.89348	1.70423	4.07197	3.15276	2.43245	17.79860	11.29404	6.27218
53930	1.00655	0.88096	0.60926	5.09080	4.33585	3.51926	16.89768	10.32981	5.27681	2.31451	1.89267	1.68311	4.07427	3.15388	2.43847	17.81492	11.32218	6.27977
54090	1.01127	0.88536	0.61269	5.07324	4.34484	3.54466	16.91488	10.33016	5.28036	2.29201	1.87124	1.69578	4.07405	3.15339	2.43355	17.82767	11.29834	6.25121
54260	1.00876	0.88131	0.60984	5.09453	4.35477	3.52799	16.91146	10.33107	5.27350	2.28959	1.88835	1.70561	4.07225	3.14988	2.42909	17.81214	11.28847	6.25758
54420	1.00601	0.88245	0.61093	5.09113	4.34878	3.52497	16.92564	10.32691	5.27880	2.29556	1.88803	1.70197	4.07156	3.15148	2.43281	17.81481	11.29422	6.25976
54590	1.00868	0.88349	0.60934	5.09213	4.34979	3.52562	16.91634	10.32487	5.27668	2.29360	1.88728	1.70458	4.07380	3.15394	2.43564	17.81402	11.29541	6.25918	27.99	6.1	0.00	-2.04	0.01759	0.01214	0.01534	0.01852	0.01917	0.01499	0.00552	0.01528	0.02037	0.01912	0.01336	0.01701	0.01727	0.01787	0.01394	0.00574	0.01615	0.02176
54760	1.01058	0.88381	0.61291	5.09618	4.35153	3.52662	16.89624	10.32705	5.27762	2.29239	1.88879	1.70617	4.07179	3.15139	2.43308	17.81703	11.29085	6.25619
54920	1.00666	0.88225	0.61116	5.09084	4.34589	3.52332	16.89927	10.32676	5.27557	2.30583	1.89482	1.70162	4.07138	3.14941	2.43097	17.80776	11.29591	6.26363
55090	1.00876	0.88377	0.61240	5.08716	4.34247	3.52870	16.92293	10.33290	5.27754	2.30366	1.88968	1.69822	4.07242	3.15310	2.43408	17.82642	11.29845	6.26157
55250	1.00769	0.88205	0.61174	5.09074	4.35015	3.52911	16.89573	10.32845	5.27465	2.29094	1.88652	1.70314	4.07231	3.15095	2.43032	17.81575	11.29493	6.25785
55420	1.00585	0.88147	0.61011	5.09156	4.34667	3.52345	16.90559	10.32340	5.27207	2.29229	1.88858	1.70502	4.07234	3.15249	2.43463	17.81888	11.29459	6.26166
55580	1.01002	0.88060	0.61157	5.09505	4.34867	3.52473	16.91913	10.33118	5.27919	2.29622	1.88873	1.70093	4.07347	3.15270	2.43437	17.82201	11.29521	6.25902
55750	1.00934	0.88273	0.61017	5.09383	4.35197	3.52891	16.92166	10.33037	5.27802	2.29415	1.89173	1.70137	4.07219	3.15172	2.43243	17.81633	11.29085	6.26214
55920	1.00706	0.88128	0.60979	5.09306	4.35290	3.52825	16.90357	10.31927	5.27866	2.29698	1.88760	1.70348	4.07104	3.15014	2.43363	17.81193	11.29567	6.26109
56080	1.00976	0.88312	0.61125	5.09518	4.35269	3.53008	16.92660	10.33008	5.27776	2.30104	1.88778	1.70206	4.07345	3.15384	2.43277	17.82282	11.30141	6.26033
56250	1.00952	0.88188	0.61080	5.09323	4.35266	3.53409	16.89302	10.32961	5.27547	2.29483	1.88668	1.70134	4.07159	3.15079	2.43168	17.82002	11.29254	6.25648	27.99	6.2	0.00	-2.04	0.01759	0.01214	0.01534	0.01852	0.01917	0.01499	0.00552	0.01528	0.02037	0.01912	0.01336	0.01701	0.01727	0.01787	0.01394	0.00574	0.01615	0.02176
56410	1.00645	0.87924	0.60742	5.08945	4.35094	3.53246	16.90819	10.31756	5.27254	2.29097	1.87951	1.69521	4.06774	3.15131	2.43440	17.82107	11.29706	6.25271
56580	1.00863	0.88081	0.61172	5.09347	4.36071	3.53920	16.91970	10.32538	5.27533	2.28686	1.88107	1.70365	4.07113	3.15305	2.43398	17.81887	11.29434	6.25765
56740	1.00914	0.88376	0.61152	5.09550	4.35380	3.53007	16.90440	10.32859	5.27441	2.29501	1.88892	1.70423	4.07412	3.15287	2.43212	17.81284	11.29662	6.25911
56910	1.00906	0.88338	0.60960	5.09369	4.34972	3.52541	16.91667	10.32637	5.27360	2.29816	1.88921	1.70495	4.07219	3.15430	2.43496	17.81192	11.29766	6.26249
57080	1.01171	0.88406	0.61067	5.09436	4.35114	3.52823	16.86982	10.32156	5.27592	2.29749	1.88674	1.70363	4.07307	3.15278	2.43325	17.82547	11.29656	6.26095
57240	1.00733	0.88343	0.60956	5.09400	4.35060	3.52786	16.90869	10.32347	5.27410	2.29522	1.88896	1.70334	4.07365	3.15346	2.43283	17.81817	11.29544	6.25954
57410	1.00868	0.88191	0.61029	5.09308	4.35020	3.52907	16.88419	10.32382	5.27514	2.29851	1.88999	1.70343	4.07116	3.15144	2.43150	17.82223	11.29426	6.25607
57570	1.00942	0.88291	0.61002	5.09392	4.35322	3.52963	16.92072	10.33425	5.27829	2.29839	1.89163	1.70317	4.07208	3.15558	2.43365	17.82814	11.30186	6.26423
57740	1.00990	0.88300	0.61015	5.08908	4.34836	3.53280	16.90010	10.33198	5.27605	2.29216	1.88415	1.70054	4.07074	3.15244	2.43377	17.81979	11.29468	6.25954
57910	1.00676	0.88033	0.60778	5.09254	4.35106	3.52412	16.89885	10.32095	5.27547	2.29359	1.88570	1.70186	4.07394	3.15497	2.43538	17.81311	11.29958	6.26368	27.93	6.0	0.00	-2.04	0.01759	0.01214	0.01534	0.01852	0.01917	0.01499	0.00552	0.01528	0.02037	0.01912	0.01336	0.01701	0.01727	0.01787	0.01394	0.00574	0.01615	0.02176
58070	1.00825	0.88374	0.61213	5.09293	4.34809	3.52598	16.90125	10.32979	5.27683	2.29358	1.88558	1.69981	4.07215	3.15363	2.43221	17.82447	11.29974	6.25929
58240	1.00711	0.88056	0.61190	5.09349	4.35309	3.52767	16.91124	10.32928	5.27734	2.29327	1.88851	1.70572	4.07197	3.15122	2.43335	17.82296	11.29823	6.25926
58400	1.00638	0.88369	0.61199	5.09169	4.34966	3.52918	16.91073	10.32317	5.27504	2.29826	1.88974	1.70322	4.06927	3.14962	2.43262	17.81902	11.29515	6.25753
58570	1.00837	0.88482	0.61366	5.09118	4.35050	3.53238	16.88054	10.33190	5.27869	2.30296	1.89035	1.70043	4.07355	3.15366	2.43403	17.82342	11.30282	6.26135
58730	1.00926	0.88138	0.61034	5.09200	4.35058	3.53251	16.88723	10.32871	5.27674	2.29406	1.88670	1.69914	4.07316	3.15113	2.43237	17.81867	11.29922	6.26106
58900	1.00722	0.88203	0.61023	5.09247	4.35352	3.52839	16.87172	10.32414	5.27534	2.28668	1.88303	1.70237	4.07011	3.15188	2.43145	17.81300	11.29681	6.25856
59060	1.00750	0.88405	0.60978	5.09084	4.34746	3.52714	16.91934	10.32438	5.27605	2.29254	1.88509	1.69935	4.07169	3.15035	2.43242	17.81647	11.29815	6.26172
59230	1.00838	0.88134	0.60904	5.09140	4.34884	3.52731	16.90770	10.32581	5.27310	2.29349	1.88443	1.69913	4.07329	3.15454	2.43647	17.81427	11.30154	6.26126
59390	1.00850	0.88327	0.61023	5.09681	4.35612	3.53182	16.90871	10.31987	5.27633	2.28892	1.88293	1.70200	4.07170	3.15201	2.43407	17.82087	11.29537	6.25825
59560	1.00698	0.88196	0.61115	5.09320	4.35193	3.52876	16.87455	10.32741	5.27311	2.29167	1.88498	1.70038	4.07128	3.15287	2.43356	17.82967	11.29313	6.25542	27.99	6.0	0.00	-2.04	0.01759	0.01214	0.01534	0.01852	0.01917	0.01499	0.00552	0.01528	0.02037	0.01912	0.01336	0.01701	0.01727	0.01787	0.01394	0.00574	0.01615	0.02176
59730	1.00927	0.88476	0.61185	5.09504	4.35619	3.53381	16.90434	10.32798	5.27747	2.29287	1.88554	1.70086	4.07556	3.15320	2.43219	17.82724	11.30143	6.25959
59890	1.00967	0.88172	0.61075	5.08767	4.35064	3.53362	16.89310	10.32201	5.27428	2.29941	1.87996	1.69338	4.07276	3.15240	2.43355	17.82874	11.30383	6.25691
60060	1.00754	0.88266	0.60882	5.08174	4.34832	3.53634	16.90156	10.32141	5.27456	2.28321	1.86928	1.69333	4.07234	3.15665	2.43538	17.83431	11.30317	6.25313
60220	1.00843	0.88367	0.61109	5.09543	4.35615	3.52992	16.89626	10.32847	5.27703	2.28357	1.88485	1.70617	4.07289	3.15259	2.43403	17.82561	11.29857	6.25594
60390	1.00695	0.88309	0.61014	5.09002	4.35180	3.52812	16.90852	10.32669	5.27448	2.28730	1.88628	1.71336	4.07121	3.15211	2.43149	17.81704	11.29099	6.25469
60550	1.01038	0.88510	0.61159	5.10072	4.35382	3.52671	16.90321	10.33025	5.28087	2.29776	1.89246	1.70436	4.07514	3.15418	2.43573	17.83338	11.30213	6.26395
60720	1.00931	0.88241	0.61096	5.09383	4.34863	3.53257	16.89120	10.32884	5.27316	2.30157	1.88754	1.69724	4.07120	3.15074	2.43281	17.81982	11.29513	6.25948
60880	1.00557	0.88038	0.60897	5.08932	4.34866	3.52863	16.90485	10.32706	5.27351	2.29600	1.88431	1.70300	4.06967	3.15109	2.43253	17.82144	11.30003	6.26059
61050	1.00551	0.88012	0.61009	5.09549	4.35577	3.53128	16.91598	10.32495	5.27410	2.29071	1.88467	1.70824	4.07071	3.15182	2.43467	17.82503	11.29809	6.25916
61220	1.00922	0.87977	0.61019	5.09436	4.35151	3.52557	16.90374	10.32473	5.27414	2.29249	1.88573	1.70618	4.07353	3.15212	2.43840	17.82500	11.30153	6.26780	27.93	6.1	0.00	-2.04	0.01759	0.01214	0.01534	0.01852	0.01917	0.01499	0.00552	0.01528	0.02037	0.01912	0.01336	0.01701	0.01727	0.01787	0.01394	0.00574	0.01615	0.02176
61380	1.01014	0.88618	0.61198	5.09874	4.34929	3.52719	16.91879	10.32977	5.27698	2.30173	1.88923	1.69988	4.07505	3.15272	2.43515	17.82140	11.30187	6.26173
61550	1.00959	0.88337	0.61064	5.09046	4.34610	3.52551	16.88164	10.32205	5.27539	2.29829	1.88826	1.70458	4.07081	3.15083	2.43307	17.82476	11.29793	6.25833
61710	1.00723	0.88165	0.61120	5.09175	4.34555	3.52427	16.90134	10.32357	5.27596	2.29000	1.88316	1.69872	4.07163	3.14901	2.43094	17.80958	11.29753	6.25994
61880	1.00608	0.88130	0.61042	5.09013	4.34765	3.52756	16.89199	10.32438	5.27526	2.29208	1.88281	1.69810	4.07302	3.15252	2.43381	17.82546	11.29541	6.25923
62040	1.00690	0.87939	0.60895	5.09139	4.34871	3.52491	16.88795	10.32434	5.27346	2.29047	1.88483	1.70018	4.07179	3.15228	2.43513	17.81514	11.29585	6.26064
62210	1.00765	0.88251	0.60989	5.09595	4.35425	3.52781	16.91613	10.33034	5.27547	2.29294	1.88843	1.70579	4.07317	3.15262	2.43448	17.81260	11.29257	6.26117
62370	1.00899	0.88202	0.60918	5.09710	4.35008	3.52458	16.91879	10.32873	5.27378	2.29802	1.88840	1.70162	4.07169	3.15057	2.43085	17.81595	11.29353	6.26046
62540	1.00854	0.88214	0.61420	5.09539	4.35210	3.52830	16.90905	10.33117	5.27825	2.29493	1.88589	1.70333	4.07368	3.15246	2.43533	17.81595	11.29897	6.26086
62710	1.00833	0.88002	0.61122	5.09155	4.34670	3.52649	16.90728	10.33060	5.27427	2.29594	1.88401	1.69707	4.07125	3.15190	2.42994	17.82187	11.29861	6.25960
62870	1.00639	0.88024	0.60727	5.08361	4.34187	3.52384	16.91659	10.32533	5.27327	2.29145	1.87753	1.69514	4.07141	3.15355	2.43221	17.82684	11.30264	6.26011	27.99	6.1	0.00	-2.04	0.01759	0.01214	0.01534	0.01852	0.01917	0.01499	0.00552	0.01528	0.02037	0.01912	0.01336	0.01701	0.01727	0.01787	0.01394	0.00574	0.01615	0.02176
63040	1.00757	0.88129	0.61097	5.08621	4.34512	3.52724	16.89687	10.32698	5.27521	2.29278	1.88254	1.69638	4.07123	3.14971	2.43347	17.82231	11.29746	6.25753
63200	1.00869	0.88272	0.61265	5.08814	4.34596	3.52449	16.90142	10.32555	5.27575	2.29312	1.88204	1.69889	4.06947	3.14861	2.43319	17.82707	11.30094	6.25872
63370	1.00845	0.88395	0.61182	5.08526	4.34098	3.52840	16.92229	10.32824	5.27886	2.29884	1.88443	1.69104	4.07308	3.15384	2.43576	17.82069	11.29782	6.26312
63530	1.00839	0.88353	0.61138	5.08877	4.34553	3.52316	16.88021	10.32386	5.27422	2.29468	1.88125	1.69710	4.06993	3.15185	2.43204	17.81849	11.29718	6.25668
63700	1.00705	0.88164	0.61050	5.08476	4.34423	3.52797	16.92254	10.32925	5.27756	2.29504	1.88279	1.69906	4.07236	3.15201	2.43371	17.81988	11.29466	6.25653
63860	1.00740	0.88099	0.61041	5.08835	4.34440	3.52500	16.89093	10.33138	5.27647	2.29494	1.88338	1.69596	4.07187	3.15254	2.43369	17.81582	11.29716	6.25767
64030	1.00856	0.88198	0.60919	5.08501	4.34370	3.52356	16.87907	10.32716	5.27567	2.29062	1.87930	1.69529	4.07187	3.15205	2.43168	17.81849	11.29976	6.25914
64190	1.00992	0.88295	0.61292	5.08976	4.34442	3.52392	16.91735	10.33072	5.27767	2.29393	1.88274	1.69848	4.07296	3.15365	2.43478	17.81386	11.29678	6.26001
64360	1.00809	0.88175	0.61184	5.08883	4.34418	3.52318	16.88778	10.32175	5.27284	2.29074	1.88011	1.69603	4.07014	3.15061	2.43359	17.82011	11.29572	6.25893
64530	1.00938	0.88513	0.61216	5.08687	4.34434	3.52601	16.89673	10.32491	5.27737	2.29670	1.87993	1.69592	4.07131	3.15228	2.43641	17.81992	11.29611	6.25153	28.05	6.0	0.00	-2.04	0.01759	0.01214	0.01534	0.01852	0.01917	0.01499	0.00552	0.01528	0.02037	0.01912	0.01336	0.01701	0.01727	0.01787	0.01394	0.00574	0.01614	0.02176
64690	1.00745	0.88372	0.61204	5.09178	4.35265	3.52679	16.89673	10.33019	5.27808	2.28987	1.88465	1.70205	4.07179	3.15223	2.43222	17.81853	11.29831	6.26012
64860	1.00597	0.88094	0.61184	5.08516	4.34009	3.52317	16.88802	10.32177	5.27360	2.28577	1.87202	1.69099	4.07219	3.15551	2.43589	17.82932	11.30247	6.26021
65020	1.00947	0.88425	0.61185	5.09298	4.35342	3.52857	16.90975	10.32717	5.27369	2.28708	1.88009	1.70102	4.07199	3.15277	2.43299	17.82479	11.29691	6.25735
65190	1.00835	0.88335	0.61207	5.08832	4.34529	3.52426	16.90482	10.32388	5.27431	2.29310	1.88159	1.69853	4.07100	3.15032	2.43202	17.81853	11.29613	6.25601
65350	1.00933	0.88431	0.61184	5.08910	4.34754	3.53188	16.89332	10.32812	5.27915	2.30137	1.88340	1.69638	4.07588	3.15689	2.43600	17.81911	11.30413	6.25957
65520	1.00847	0.88235	0.61146	5.08596	4.35051	3.53538	16.91304	10.32085	5.27737	2.29372	1.88001	1.69713	4.07065	3.15133	2.43000	17.82688	11.29595	6.25624
65680	1.00641	0.87960	0.60695	5.08741	4.34437	3.52130	16.89597	10.31753	5.27231	2.29159	1.88362	1.70268	4.07124	3.15103	2.43362	17.81749	11.29475	6.26137
65850	1.00749	0.88319	0.61113	5.09093	4.34136	3.52037	16.89863	10.32469	5.27682	2.30032	1.88968	1.69793	4.07501	3.15414	2.43748	17.82166	11.30661	6.26795
66010	1.01025	0.88280	0.61268	5.08760	4.34277	3.52849	16.90583	10.32900	5.27692	2.29922	1.88397	1.69547	4.07454	3.15139	2.43309	17.82085	11.30119	6.26172
66180	1.00821	0.87985	0.60948	5.08889	4.34777	3.52421	16.89550	10.32307	5.27098	2.28865	1.87909	1.69898	4.06955	3.15144	2.42893	17.82488	11.29291	6.25492	27.99	6.1	0.00	-2.04	0.01759	0.01214	0.01534	0.01852	0.01916	0.01499	0.00552	0.01528	0.02037	0.01912	0.01336	0.01701	0.01727	0.01787	0.01394	0.00574	0.01614	0.02176
66340	1.00577	0.88150	0.60946	5.08933	4.34645	3.52271	16.89310	10.32977	5.27522	2.28778	1.88215	1.69933	4.07260	3.15207	2.43263	17.82789	11.29861	6.26035
66510	1.00874	0.88213	0.61010	5.08911	4.34603	3.52487	16.89398	10.32127	5.27522	2.28810	1.87970	1.69620	4.07273	3.15362	2.43511	17.82256	11.30017	6.26204
66670	1.01016	0.88398	0.60974	5.09068	4.34706	3.52707	16.93041	10.32762	5.27487	2.28880	1.88057	1.69933	4.07356	3.14947	2.43404	17.82847	11.29361	6.25497
66840	1.00920	0.88296	0.61238	5.09116	4.35083	3.52899	16.88123	10.33002	5.27640	2.29195	1.88312	1.70137	4.07465	3.15346	2.43440	17.82267	11.29779	6.25857
67000	1.00979	0.88296	0.61185	5.09095	4.34570	3.52421	16.88313	10.32390	5.27618	2.29107	1.88013	1.69547	4.07423	3.15138	2.43441	17.82325	11.29895	6.25838
67170	1.00547	0.88070	0.61119	5.08719	4.34330	3.52392	16.87859	10.33013	5.27263	2.28860	1.88141	1.69647	4.07176	3.15330	2.43359	17.82407	11.29917	6.25888
67330	1.00903	0.88253	0.61125	5.08647	4.34280	3.52533	16.89562	10.32410	5.27582	2.29253	1.88240	1.69473	4.07097	3.15159	2.43332	17.82383	11.29961	6.25938
67500	1.00857	0.88586	0.61285	5.08840	4.34738	3.52750	16.90093	10.32982	5.28049	2.29408	1.88320	1.70074	4.07462	3.15531	2.43642	17.82557	11.30175	6.26190
67660	1.01014	0.88165	0.61194	5.09110	4.34630	3.52371	16.88098	10.32628	5.27543	2.29083	1.88195	1.69759	4.07231	3.15452	2.43449	17.82766	11.29809	6.25814
67830	1.00632	0.88148	0.60945	5.08503	4.34335	3.52704	16.89239	10.32330	5.27243	2.28981	1.87775	1.69333	4.07350	3.15030	2.43538	17.82365	11.30082	6.25745	27.99	6.0	0.00	-2.04	0.01759	0.01214	0.01534	0.01852	0.01917	0.01499	0.00552	0.01528	0.02037	0.01912	0.01336	0.01701	0.01727	0.01787	0.01394	0.00574	0.01614	0.02176
68000	1.00916	0.88269	0.61333	5.08775	4.34732	3.53085	16.91325	10.33043	5.27406	2.29259	1.87992	1.69706	4.07173	3.15213	2.43383	17.82203	11.29930	6.25831
68160	1.00759	0.88288	0.61179	5.08836	4.34597	3.52472	16.90920	10.32163	5.27452	2.29125	1.88140	1.69897	4.06988	3.15089	2.43294	17.82330	11.29722	6.25713
68330	1.00977	0.88264	0.61420	5.08791	4.34525	3.52887	16.90301	10.32812	5.27959	2.29528	1.88240	1.69730	4.07392	3.15453	2.43464	17.82957	11.30652	6.26066
68490	1.00929	0.88143	0.61174	5.08455	4.34314	3.52658	16.90010	10.32339	5.27572	2.29478	1.88201	1.69823	4.07234	3.14954	2.43192	17.81971	11.30006	6.25748
68660	1.00806	0.88322	0.61238	5.08597	4.34475	3.52808	16.92034	10.33340	5.28002	2.29375	1.88631	1.70278	4.07302	3.15326	2.43570	17.82725	11.29942	6.25870
68820	1.00999	0.88396	0.61194	5.08874	4.34786	3.52615	16.88760	10.32381	5.27551	2.29192	1.88416	1.70246	4.07193	3.15234	2.43421	17.81855	11.29632	6.25857
68990	1.00809	0.88227	0.60939	5.08513	4.34222	3.52325	16.91958	10.32282	5.27042	2.29281	1.88143	1.69585	4.07176	3.15091	2.43622	17.82864	11.30306	6.26244
69150	1.01152	0.88360	0.61133	5.09040	4.34371	3.52449	16.90515	10.33351	5.27611	2.29366	1.88543	1.70025	4.07346	3.15104	2.43259	17.81137	11.30058	6.26142
69320	1.00728	0.88005	0.61112	5.08632	4.34199	3.52239	16.90010	10.32605	5.27552	2.29068	1.88211	1.69868	4.06995	3.14918	2.43382	17.81519	11.29636	6.25689
69490	1.00895	0.88323	0.61190	5.09080	4.34572	3.52464	16.90015	10.32369	5.27571	2.29154	1.88418	1.69965	4.07151	3.15279	2.43226	17.82315	11.29539	6.25794	27.99	6.2	0.00	-2.04	0.01759	0.01214	0.01534	0.01852	0.01916	0.01499	0.00552	0.01528	0.02037	0.01912	0.01336	0.01701	0.01727	0.01787	0.01394	0.00574	0.01614	0.02176
69650	1.00848	0.88033	0.61098	5.08715	4.34195	3.52222	16.90458	10.32292	5.27315	2.28779	1.87844	1.69450	4.07106	3.15530	2.43634	17.82141	11.30301	6.26094
69820	1.01110	0.88214	0.61226	5.08966	4.34515	3.52781	16.90331	10.32463	5.27761	2.29087	1.88239	1.69674	4.07337	3.15155	2.43544	17.82593	11.30119	6.25977
69980	1.01052	0.88277	0.60995	5.08822	4.34607	3.52607	16.90572	10.32503	5.27435	2.29115	1.88283	1.69650	4.06949	3.15224	2.43282	17.81817	11.29737	6.25808
70150	1.00871	0.88608	0.61477	5.09158	4.34984	3.52865	16.90786	10.32828	5.27763	2.29217	1.88371	1.70244	4.07392	3.15156	2.43523	17.82338	11.30257	6.26397
70310	1.01067	0.88168	0.61439	5.09046	4.34452	3.52688	16.89952	10.32901	5.27813	2.28971	1.87743	1.69189	4.07263	3.15106	2.43214	17.82222	11.30570	6.26187
70480	1.00626	0.88158	0.61096	5.08373	4.34146	3.52719	16.91103	10.32243	5.27228	2.28414	1.87366	1.69322	4.07380	3.15172	2.43383	17.82756	11.30111	6.25913
70640	1.00978	0.88346	0.61328	5.09197	4.34767	3.52578	16.90028	10.32516	5.27403	2.29057	1.88405	1.69788	4.07118	3.15075	2.43164	17.81365	11.29667	6.25947
70810	1.00995	0.88423	0.61496	5.08885	4.34679	3.52991	16.92039	10.33114	5.27842	2.29815	1.88559	1.69976	4.07643	3.15345	2.43624	17.82814	11.30339	6.26126
70970	1.00948	0.88268	0.61179	5.08967	4.34622	3.52690	16.91811	10.32489	5.27801	2.29240	1.88428	1.70353	4.07251	3.15382	2.43489	17.82176	11.29929	6.25681
71140	1.00860	0.88227	0.61275	5.08735	4.34801	3.52953	16.92402	10.32509	5.27803	2.29067	1.88291	1.70378	4.07318	3.15095	2.43111	17.83298	11.29882	6.25889	28.05	6.2	0.00	-2.04	0.01759	0.01214	0.01534	0.01852	0.01917	0.01499	0.00552	0.01528	0.02037	0.01912	0.01336	0.01701	0.01727	0.01787	0.01394	0.00574	0.01614	0.02176
71300	1.00835	0.88078	0.60962	5.08973	4.34526	3.52230	16.92262	10.32483	5.27301	2.29120	1.88596	1.70802	4.07336	3.15269	2.43459	17.81501	11.29614	6.26357
71470	1.00902	0.88260	0.61065	5.09566	4.34090	3.51790	16.92769	10.32933	5.27663	2.30246	1.89210	1.70185	4.07095	3.15115	2.43098	17.81779	11.30260	6.26248
71630	1.00722	0.88211	0.61144	5.08607	4.34269	3.52833	16.90769	10.32270	5.27635	2.29591	1.88569	1.69729	4.07189	3.15107	2.43113	17.82671	11.30078	6.25967
71790	1.00784	0.88130	0.60912	5.08451	4.34580	3.52687	16.91389	10.32065	5.27432	2.28878	1.87780	1.69811	4.06761	3.15306	2.43198	17.82776	11.30234	6.25872
71960	1.00955	0.88218	0.61039	5.08806	4.34873	3.52888	16.85937	10.31854	5.27298	2.28913	1.87957	1.69804	4.07030	3.14737	2.43008	17.82231	11.29916	6.25861
72120	1.00723	0.88256	0.61149	5.08944	4.34644	3.52709	16.90491	10.32272	5.27277	2.29460	1.88506	1.70054	4.07139	3.15066	2.43373	17.82961	11.30366	6.26142
72290	1.00800	0.87994	0.60860	5.08822	4.34482	3.52629	16.87726	10.32377	5.27247	2.29232	1.88201	1.69785	4.07331	3.15557	2.43458	17.83031	11.30262	6.26139
72460	1.01015	0.88440	0.61196	5.09326	4.35027	3.52916	16.89366	10.32432	5.27677	2.29326	1.88421	1.69854	4.07171	3.15157	2.43185	17.82556	11.30102	6.25756
72620	1.00943	0.88150	0.60967	5.08996	4.34843	3.52860	16.92668	10.32663	5.27382	2.29189	1.88390	1.70037	4.06961	3.15013	2.43258	17.81999	11.29754	6.25710
72790	1.00722	0.88163	0.61088	5.09066	4.34760	3.52734	16.89099	10.32310	5.27698	2.29597	1.88932	1.70297	4.07192	3.15085	2.43148	17.83014	11.30151	6.26085	28.05	6.2	0.00	-2.04	0.01759	0.01214	0.01534	0.01852	0.01917	0.01499	0.00552	0.01528	0.02037	0.01912	0.01336	0.01701	0.01727	0.01787	0.01394	0.00574	0.01614	0.02176
72950	1.00511	0.88105	0.61089	5.08843	4.34291	3.52195	16.88860	10.32231	5.27182	2.29413	1.88510	1.69687	4.07207	3.15276	2.43567	17.82620	11.30572	6.26339
73120	1.01033	0.88323	0.61447	5.09231	4.35095	3.53081	16.84602	10.32305	5.27510	2.28982	1.88406	1.70238	4.07407	3.15267	2.43186	17.82666	11.30151	6.26115
73280	1.00850	0.88318	0.61111	5.09337	4.35054	3.52478	16.88418	10.31991	5.27148	2.29217	1.88413	1.70148	4.06993	3.15063	2.43253	17.82109	11.29647	6.25638
73450	1.01013	0.88537	0.61273	5.09526	4.35399	3.53212	16.89188	10.33183	5.27839	2.29448	1.88657	1.70261	4.07447	3.15193	2.43376	17.83026	11.30450	6.26477
73610	1.00998	0.88441	0.61132	5.09337	4.35013	3.52711	16.89819	10.32582	5.27686	2.29710	1.88612	1.70050	4.07156	3.15080	2.43115	17.82283	11.29981	6.26107
73780	1.00767	0.88201	0.61200	5.09128	4.34981	3.52685	16.88506	10.32609	5.27650	2.29616	1.88431	1.69923	4.07326	3.15407	2.43473	17.82562	11.30308	6.25753
73940	1.00884	0.88123	0.61230	5.08760	4.34931	3.53107	16.90932	10.32286	5.27351	2.29328	1.88182	1.69916	4.07117	3.15123	2.43342	17.82306	11.30336	6.26038
74110	1.00915	0.88196	0.61219	5.08635	4.34146	3.52594	16.92717	10.32384	5.27476	2.30711	1.89041	1.69663	4.07113	3.15018	2.43168	17.81935	11.30159	6.26645
74270	1.00571	0.88102	0.61118	5.08328	4.33869	3.52676	16.90186	10.33277	5.27600	2.30496	1.88895	1.69779	4.07296	3.15207	2.43304	17.83269	11.30784	6.26475
74440	1.00787	0.88296	0.60996	5.08717	4.34596	3.52698	16.87628	10.32399	5.27503	2.28842	1.88313	1.70305	4.07141	3.15132	2.43449	17.83107	11.29924	6.25783	28.11	6.1	0.00	-2.04	0.01759	0.01214	0.01534	0.01852	0.01916	0.01499	0.00552	0.01528	0.02037	0.01912	0.01336	0.01701	0.01727	0.01787	0.01394	0.00574	0.01614	0.02176
74600	1.00861	0.87878	0.61049	5.09248	4.35000	3.52555	16.89407	10.32133	5.27389	2.28731	1.88240	1.70026	4.07231	3.15097	2.43567	17.83118	11.30230	6.26170
74770	1.00900	0.88354	0.61215	5.09305	4.34905	3.52668	16.88965	10.32361	5.27461	2.29458	1.88618	1.70414	4.07198	3.15074	2.43131	17.82213	11.29948	6.25909
74930	1.00701	0.88138	0.61107	5.09267	4.34838	3.52606	16.90215	10.31790	5.27414	2.29231	1.88467	1.69910	4.07034	3.14929	2.43093	17.82098	11.30050	6.25959
75100	1.00659	0.88385	0.61164	5.08847	4.35054	3.53247	16.90696	10.32590	5.27688	2.29897	1.88273	1.69665	4.07143	3.15176	2.43450	17.82492	11.30448	6.25995
75270	1.00852	0.88231	0.61287	5.09075	4.35201	3.53481	16.89432	10.32260	5.27469	2.29294	1.87962	1.69603	4.07255	3.15236	2.43393	17.83025	11.30236	6.25918
75430	1.00775	0.88054	0.60865	5.08968	4.34758	3.52372	16.89836	10.31979	5.27137	2.29437	1.88437	1.69946	4.07281	3.15189	2.43683	17.82190	11.30294	6.26058
75600	1.00882	0.88258	0.61302	5.09166	4.34907	3.52892	16.89053	10.32342	5.27375	2.29775	1.88655	1.70152	4.07068	3.15103	2.43452	17.81715	11.30262	6.26136
75760	1.00922	0.88115	0.61165	5.08854	4.34552	3.52903	16.87590	10.32548	5.27396	2.29842	1.88604	1.70162	4.07177	3.15146	2.43314	17.81993	11.30080	6.26041
75930	1.01027	0.88280	0.61205	5.09390	4.35177	3.52924	16.90519	10.32333	5.27814	2.29955	1.89091	1.70498	4.07381	3.15380	2.43237	17.83304	11.30500	6.26307
76090	1.00883	0.88212	0.61241	5.09154	4.35073	3.53238	16.89409	10.32836	5.27523	2.29522	1.88405	1.69834	4.07285	3.15150	2.43159	17.83433	11.30567	6.26132	28.11	6.2	0.00	-2.04	0.01759	0.01214	0.01534	0.01852	0.01917	0.01499	0.00552	0.01528	0.02037	0.01912	0.01336	0.01701	0.01727	0.01787	0.01393	0.00574	0.01615	0.02176
76260	1.00667	0.88394	0.61232	5.09263	4.35286	3.53073	16.91381	10.32208	5.27629	2.29276	1.88565	1.70377	4.07242	3.15268	2.43157	17.83224	11.30553	6.26202
76420	1.00767	0.88112	0.61012	5.09048	4.34961	3.52905	16.90559	10.31861	5.27173	2.29397	1.88218	1.69581	4.07177	3.15359	2.43399	17.82713	11.30824	6.26423
76590	1.00959	0.88322	0.61145	5.09474	4.35492	3.53098	16.91393	10.32755	5.27456	2.29586	1.88871	1.70530	4.07065	3.15147	2.43064	17.82273	11.30171	6.26038
76750	1.00798	0.88416	0.61297	5.09387	4.35423	3.53286	16.90167	10.32559	5.27732	2.29432	1.88565	1.70328	4.07506	3.15400	2.43167	17.83607	11.31058	6.26723
76920	1.00671	0.88042	0.60947	5.09294	4.34754	3.52592	16.92457	10.32487	5.27484	2.29583	1.89059	1.70496	4.07228	3.15135	2.43528	17.82690	11.30273	6.26535
77080	1.00967	0.88088	0.61174	5.09708	4.35069	3.52719	16.90508	10.32502	5.27412	2.29721	1.88989	1.70388	4.06969	3.15046	2.43270	17.83259	11.30205	6.26330
77240	1.00819	0.88124	0.61209	5.09406	4.35293	3.53001	16.89143	10.32357	5.27451	2.29702	1.88817	1.70565	4.07166	3.15034	2.43146	17.83073	11.30485	6.26286
77410	1.00720	0.88232	0.60958	5.09250	4.34794	3.52821	16.88790	10.32074	5.27154	2.29490	1.88601	1.70151	4.07167	3.15147	2.43265	17.83235	11.30671	6.26295
77570	1.00783	0.87924	0.61006	5.09369	4.35050	3.52908	16.91191	10.32102	5.27436	2.29618	1.88758	1.70192	4.06920	3.14916	2.43184	17.81948	11.30085	6.26025
77740	1.00926	0.88333	0.61308	5.09612	4.35516	3.53165	16.88656	10.32665	5.27618	2.29671	1.88840	1.70659	4.07023	3.15073	2.43263	17.82831	11.30332	6.26397	28.05	6.2	0.00	-2.04	0.01759	0.01214	0.01534	0.01852	0.01917	0.01499	0.00552	0.01528	0.02036	0.01912	0.01336	0.01701	0.01727	0.01787	0.01393	0.00574	0.01615	0.02176
77900	1.00854	0.88033	0.60954	5.09711	4.35448	3.52764	16.89855	10.32473	5.27379	2.29315	1.88614	1.70165	4.07355	3.15290	2.43490	17.83167	11.31137	6.27597
78070	1.01064	0.88408	0.61311	5.10307	4.35119	3.52507	16.90538	10.32311	5.27500	2.30362	1.88943	1.69326	4.07170	3.14874	2.43258	17.83179	11.31630	6.27378
78230	1.00749	0.88249	0.61106	5.09059	4.34768	3.53272	16.90955	10.32764	5.27525	2.30008	1.88537	1.69754	4.07028	3.14955	2.42927	17.83330	11.31021	6.26834
78400	1.00925	0.88264	0.61357	5.09794	4.35360	3.53211	16.90816	10.32937	5.27922	2.29894	1.89133	1.70755	4.07270	3.15252	2.43519	17.83632	11.30678	6.26881
78570	1.00965	0.88300	0.61235	5.09777	4.35369	3.52991	16.91626	10.32698	5.27392	2.29217	1.88403	1.70268	4.06814	3.14908	2.43057	17.83573	11.30562	6.26170
78730	1.00806	0.88163	0.61080	5.09402	4.35345	3.53138	16.89388	10.31847	5.27444	2.29600	1.88831	1.70374	4.07073	3.15258	2.43199	17.82726	11.30813	6.26691
78900	1.00823	0.88364	0.61364	5.09368	4.35020	3.53204	16.87748	10.32254	5.27459	2.30336	1.89088	1.70314	4.07135	3.15302	2.43461	17.82738	11.31093	6.26771
79060	1.01049	0.88296	0.61283	5.09103	4.34670	3.53283	16.88391	10.32443	5.27602	2.31086	1.89420	1.69668	4.07256	3.15505	2.43430	17.82541	11.31702	6.27407
79230	1.01141	0.88436	0.61261	5.08944	4.35615	3.54311	16.88429	10.32487	5.27814	2.29757	1.88265	1.70144	4.07293	3.15233	2.43290	17.82947	11.31047	6.26339
79390	1.01026	0.88251	0.61118	5.09788	4.35663	3.53330	16.86797	10.32166	5.27476	2.29455	1.88765	1.70563	4.06904	3.14941	2.42975	17.83551	11.30696	6.26285	28.05	5.9	0.00	-2.04	0.01759	0.01214	0.01534	0.01852	0.01916	0.01499	0.00552	0.01528	0.02036	0.01912	0.01336	0.01701	0.01727	0.01787	0.01393	0.00574	0.01615	0.02176
79560	1.00958	0.88406	0.61428	5.09773	4.35851	3.53904	16.92342	10.32801	5.27790	2.30007	1.88970	1.70628	4.07402	3.15287	2.43316	17.83691	11.31471	6.26893
79720	1.00876	0.88275	0.61098	5.09822	4.35665	3.53421	16.89471	10.32220	5.27569	2.29665	1.88974	1.70651	4.07028	3.15090	2.42990	17.83261	11.31014	6.26613
79890	1.00644	0.88038	0.60950	5.09589	4.35286	3.53005	16.90267	10.32051	5.27257	2.29897	1.89006	1.70607	4.07200	3.15072	2.43140	17.84109	11.31302	6.27166
80060	1.00683	0.88289	0.61154	5.09772	4.35300	3.53213	16.91823	10.32968	5.27438	2.30073	1.89242	1.70813	4.07131	3.15245	2.43090	17.83470	11.31104	6.26816
80220	1.00892	0.88232	0.61198	5.09690	4.35323	3.53309	16.89888	10.32508	5.27464	2.30394	1.89471	1.70545	4.07063	3.14941	2.43327	17.83273	11.31266	6.27065
80390	1.00904	0.88303	0.61249	5.09839	4.35672	3.53446	16.89193	10.32629	5.27827	2.29687	1.88996	1.71573	4.07351	3.15296	2.43431	17.84353	11.30533	6.26024
80550	1.01003	0.88027	0.61062	5.10607	4.36150	3.53273	16.93064	10.32735	5.27829	2.29529	1.89181	1.70726	4.07213	3.15245	2.43451	17.83726	11.31230	6.27103
80720	1.00724	0.88205	0.61122	5.09588	4.35409	3.52912	16.91532	10.32425	5.27612	2.29739	1.88881	1.70602	4.07151	3.15304	2.43633	17.83319	11.31449	6.27028
80880	1.00892	0.88410	0.61047	5.10022	4.35843	3.53394	16.89761	10.32491	5.27620	2.30225	1.89383	1.70673	4.07215	3.15105	2.43308	17.83261	11.31176	6.26970
81050	1.00890	0.88418	0.61291	5.09807	4.35793	3.53862	16.87927	10.32083	5.27631	2.30126	1.88992	1.70548	4.07298	3.15510	2.43504	17.83998	11.31375	6.26780	28.11	5.9	0.00	-2.04	0.01758	0.01214	0.01534	0.01852	0.01916	0.01499	0.00552	0.01528	0.02036	0.01912	0.01336	0.01701	0.01727	0.01786	0.01393	0.00574	0.01615	0.02176
81210	1.00939	0.88562	0.61398	5.10487	4.36346	3.54109	16.88381	10.33101	5.27557	2.29785	1.89467	1.71232	4.07426	3.15378	2.43436	17.83093	11.30905	6.26878
81380	1.00883	0.88484	0.61118	5.10261	4.36043	3.53453	16.89201	10.32494	5.27351	2.30206	1.89040	1.70420	4.07100	3.15192	2.43130	17.82710	11.30849	6.26521
81540	1.00489	0.88117	0.61215	5.10504	4.36661	3.53684	16.95306	10.32564	5.27708	2.29419	1.89678	1.71733	4.07156	3.15211	2.43229	17.82849	11.30438	6.27251
81710	1.00864	0.88162	0.61129	5.10288	4.34943	3.52695	16.89062	10.32098	5.27324	2.30486	1.89477	1.70085	4.07439	3.15336	2.43466	17.82977	11.31313	6.27268
81870	1.00765	0.88446	0.61296	5.09821	4.35773	3.53813	16.90540	10.32445	5.27289	2.29590	1.88837	1.70457	4.07155	3.15029	2.43414	17.83719	11.31133	6.26385
82040	1.00659	0.88159	0.61075	5.10057	4.36493	3.53875	16.91438	10.32252	5.27196	2.28883	1.88843	1.71266	4.07154	3.15170	2.43000	17.84103	11.30646	6.26473
82200	1.01034	0.88554	0.61192	5.10322	4.35785	3.53161	16.89807	10.32626	5.27643	2.30056	1.89408	1.70836	4.07344	3.15139	2.43344	17.83708	11.31155	6.26746
82370	1.00702	0.88263	0.61027	5.09468	4.35451	3.53337	16.90186	10.31986	5.27311	2.30060	1.89139	1.70670	4.07271	3.15503	2.43552	17.83603	11.31427	6.27128
82540	1.01074	0.88394	0.61317	5.10192	4.36192	3.53821	16.90882	10.32426	5.27482	2.29581	1.88890	1.71076	4.07143	3.15291	2.43421	17.84870	11.31658	6.26575
82700	1.00895	0.88189	0.61295	5.10199	4.36194	3.53635	16.90513	10.32240	5.27535	2.29469	1.89204	1.71197	4.07187	3.15013	2.42932	17.83140	11.31118	6.26921	28.05	5.9	0.00	-2.04	0.01758	0.01214	0.01534	0.01852	0.01916	0.01499	0.00552	0.01528	0.02036	0.01912	0.01336	0.01701	0.01727	0.01786	0.01393	0.00574	0.01615	0.02176
82870	1.00891	0.88721	0.61504	5.10315	4.35958	3.53849	16.94643	10.33425	5.27996	2.30694	1.89727	1.71295	4.07296	3.15521	2.43429	17.83999	11.31446	6.26861
83030	1.01064	0.88586	0.61320	5.10707	4.36527	3.53924	16.88088	10.32519	5.27681	2.29761	1.89625	1.71357	4.07026	3.14982	2.43431	17.82954	11.30741	6.26613
83200	1.00856	0.88194	0.61024	5.10309	4.35885	3.53594	16.91158	10.32444	5.27231	2.29755	1.89231	1.70804	4.07194	3.15196	2.43721	17.83987	11.31362	6.27237
83360	1.00944	0.88373	0.61321	5.10272	4.36157	3.53810	16.89855	10.32464	5.27402	2.30079	1.89058	1.70957	4.07139	3.14913	2.43122	17.83581	11.31320	6.26931
83530	1.00766	0.88232	0.61159	5.10120	4.35804	3.53779	16.88933	10.32803	5.27435	2.30391	1.89319	1.70808	4.07305	3.15214	2.43386	17.83476	11.31520	6.27127
83690	1.01063	0.88604	0.61156	5.10296	4.35999	3.54121	16.88858	10.32948	5.27643	2.30470	1.89374	1.70719	4.07316	3.15594	2.43529	17.84522	11.31472	6.27014
83860	1.01033	0.88248	0.60909	5.10078	4.35909	3.53798	16.91373	10.31691	5.27622	2.29949	1.89051	1.70642	4.06885	3.15106	2.43126	17.83534	11.31014	6.26765
84020	1.00824	0.88005	0.61148	5.09973	4.35824	3.53618	16.89413	10.32152	5.27352	2.30404	1.89346	1.70792	4.06970	3.15181	2.43376	17.83999	11.31088	6.26868
84190	1.00714	0.88144	0.61154	5.09934	4.35570	3.53460	16.87508	10.31801	5.27161	2.30075	1.89259	1.70636	4.07237	3.15233	2.43324	17.83929	11.31633	6.27366
84360	1.00900	0.88425	0.61204	5.10086	4.35753	3.53742	16.89452	10.32369	5.27156	2.30008	1.89202	1.70973	4.07312	3.15392	2.43296	17.83578	11.31255	6.26827	28.11	6.1	0.00	-2.04	0.01758	0.01214	0.01534	0.01852	0.01916	0.01499	0.00552	0.01528	0.02036	0.01912	0.01336	0.01701	0.01727	0.01786	0.01393	0.00574	0.01615	0.02176
84520	1.00792	0.88207	0.61271	5.10133	4.36153	3.53829	16.88493	10.32109	5.27130	2.29755	1.89099	1.70884	4.06937	3.14973	2.43080	17.83810	11.31105	6.26771
84690	1.00926	0.88539	0.61402	5.10460	4.36502	3.53959	16.90944	10.32914	5.27702	2.29984	1.89533	1.71877	4.07281	3.15376	2.43297	17.83763	11.31061	6.26712
84850	1.00737	0.88415	0.61202	5.10426	4.36089	3.53879	16.85683	10.31997	5.27288	2.30223	1.89544	1.70950	4.07114	3.15058	2.43164	17.84054	11.31015	6.26771
85020	1.00806	0.88177	0.60896	5.09841	4.35450	3.53294	16.87547	10.31889	5.27198	2.29763	1.89068	1.70650	4.07178	3.15385	2.43598	17.84437	11.31580	6.27243
85180	1.01035	0.88404	0.61011	5.10356	4.35837	3.53468	16.90400	10.32219	5.27448	2.29884	1.89440	1.71096	4.07107	3.15117	2.43501	17.83496	11.31095	6.26831
85350	1.01101	0.88229	0.61401	5.10252	4.35920	3.53944	16.89111	10.32470	5.27620	2.29878	1.89407	1.70773	4.07128	3.15152	2.42997	17.84100	11.31458	6.27118
85510	1.00901	0.88509	0.61360	5.10110	4.36084	3.53954	16.88631	10.32186	5.27492	2.30241	1.89487	1.71141	4.07315	3.15277	2.43323	17.83717	11.31546	6.27467
85680	1.00830	0.88278	0.61274	5.10252	4.35669	3.53427	16.89907	10.32509	5.27208	2.30121	1.89282	1.70916	4.06822	3.15087	2.43074	17.84112	11.31578	6.27009
85840	1.00570	0.88093	0.61179	5.10035	4.35765	3.53578	16.88985	10.31663	5.27390	2.29871	1.89262	1.70827	4.06978	3.15041	2.43228	17.84333	11.31280	6.26928
86010	1.00904	0.88324	0.61297	5.10207	4.36051	3.54034	16.89403	10.32276	5.27485	2.29927	1.89099	1.70678	4.06960	3.15203	2.43380	17.84006	11.31695	6.27127	28.05	6.0	0.00	-2.04	0.01758	0.01214	0.01534	0.01852	0.01916	0.01499	0.00552	0.01528	0.02036	0.01912	0.01336	0.01701	0.01727	0.01786	0.01393	0.00574	0.01615	0.02176
86180	1.00872	0.88348	0.61289	5.10445	4.36511	3.54013	16.89832	10.32676	5.27298	2.29988	1.89477	1.71040	4.07102	3.15181	2.43190	17.83158	11.31260	6.27238
86340	1.00989	0.88395	0.61224	5.10365	4.35984	3.53657	16.89807	10.31795	5.27524	2.30168	1.89689	1.71140	4.07032	3.15413	2.43426	17.84517	11.31473	6.27436
86510	1.00990	0.88559	0.61293	5.10613	4.36439	3.54102	16.89757	10.32362	5.27532	2.30277	1.89644	1.71182	4.07196	3.15204	2.43212	17.84191	11.31617	6.27379
86670	1.00902	0.88214	0.61223	5.10182	4.35921	3.54021	16.89554	10.32276	5.27417	2.30470	1.89552	1.71020	4.07004	3.15064	2.43237	17.84645	11.31637	6.27044
86840	1.00848	0.88137	0.61214	5.10054	4.35868	3.53670	16.88772	10.32002	5.27081	2.30095	1.89688	1.71252	4.06960	3.14947	2.42734	17.84505	11.31212	6.27182
87010	1.00932	0.88310	0.61507	5.10232	4.35682	3.53861	16.87586	10.32107	5.27617	2.30659	1.89832	1.70864	4.07162	3.15188	2.43232	17.84796	11.31617	6.27355
87170	1.00850	0.88217	0.61246	5.10083	4.35800	3.53708	16.91185	10.32283	5.27331	2.30221	1.89405	1.71017	4.07088	3.15210	2.43018	17.84308	11.31401	6.27000
87340	1.00791	0.88305	0.61055	5.10045	4.35857	3.53646	16.90692	10.32171	5.27126	2.29905	1.89220	1.71320	4.07225	3.15318	2.43333	17.84296	11.31563	6.27142
87500	1.01126	0.88584	0.61398	5.10659	4.36245	3.54043	16.91869	10.31918	5.27355	2.30554	1.89752	1.71060	4.07174	3.15233	2.43090	17.83947	11.31573	6.27562
87670	1.00972	0.88275	0.61183	5.10110	4.35844	3.53761	16.91228	10.31872	5.27544	2.30130	1.89331	1.70767	4.07061	3.14948	2.43043	17.83508	11.31559	6.27370	28.11	6.0	0.00	-2.04	0.01758	0.01214	0.01534	0.01852	0.01916	0.01499	0.00552	0.01528	0.02036	0.01912	0.01336	0.01701	0.01727	0.01786	0.01393	0.00574	0.01615	0.02176
87840	1.00768	0.88501	0.61007	5.10109	4.35860	3.53943	16.89635	10.32259	5.27289	2.30057	1.89237	1.70606	4.06890	3.15047	2.43202	17.84460	11.31585	6.27083
88000	1.00898	0.88463	0.61284	5.10182	4.36330	3.54309	16.89938	10.32633	5.27813	2.30215	1.89575	1.71261	4.07207	3.15201	2.43170	17.83775	11.31629	6.27487
88170	1.00894	0.88435	0.61232	5.10269	4.35905	3.53798	16.87842	10.31804	5.27314	2.30283	1.89453	1.71157	4.06863	3.14878	2.43005	17.83752	11.31450	6.26837
88330	1.00666	0.88149	0.60988	5.10089	4.35645	3.53365	16.88561	10.31492	5.26981	2.29781	1.89411	1.70998	4.06819	3.14921	2.43122	17.83403	11.31246	6.27152
88500	1.00800	0.88404	0.61231	5.10125	4.35839	3.53853	16.90178	10.32356	5.27349	2.30294	1.89403	1.70883	4.06938	3.15045	2.43310	17.84855	11.31725	6.27361
88660	1.00949	0.88328	0.61233	5.10129	4.35897	3.53917	16.89445	10.31472	5.27483	2.29894	1.89226	1.70896	4.07301	3.15404	2.43592	17.84635	11.32409	6.27743
88830	1.01027	0.88528	0.61388	5.10341	4.36199	3.54275	16.92748	10.32569	5.27690	2.29957	1.89415	1.71190	4.07272	3.15359	2.43153	17.84867	11.31713	6.27024
88990	1.00994	0.88396	0.61247	5.10437	4.36513	3.54151	16.89711	10.31813	5.27402	2.29815	1.89499	1.71486	4.07043	3.15041	2.43037	17.84228	11.31072	6.26700
89160	1.00960	0.88401	0.61341	5.10550	4.36457	3.54319	16.91291	10.32622	5.27377	2.30518	1.89863	1.71308	4.07155	3.15284	2.43138	17.84193	11.31929	6.27780
89320	1.00780	0.88151	0.61107	5.10252	4.35850	3.53955	16.86450	10.31435	5.27096	2.30296	1.89479	1.71083	4.06944	3.14780	2.42774	17.84073	11.31510	6.27212	28.11	6.1	0.00	-2.04	0.01758	0.01214	0.01534	0.01852	0.01916	0.01499	0.00552	0.01528	0.02036	0.01912	0.01336	0.01701	0.01727	0.01786	0.01393	0.00574	0.01615	0.02176
89490	1.00553	0.88072	0.61183	5.10283	4.36097	3.54060	16.90768	10.32122	5.27234	2.29747	1.89118	1.70600	4.06905	3.14835	2.42912	17.83087	11.31733	6.27380
89650	1.00602	0.88272	0.61264	5.09922	4.35718	3.53949	16.89769	10.31685	5.27226	2.30448	1.89849	1.71676	4.06865	3.14736	2.42783	17.83249	11.31075	6.26594
89820	1.00788	0.88334	0.61196	5.10363	4.36073	3.54065	16.89617	10.32096	5.27379	2.30873	1.90112	1.71667	4.07086	3.14952	2.43200	17.83771	11.31472	6.27297
89980	1.00701	0.88138	0.61086	5.10024	4.35404	3.53591	16.87862	10.32074	5.27115	2.30181	1.89292	1.70400	4.07151	3.15410	2.43618	17.84747	11.32234	6.27811
90150	1.01192	0.88431	0.61269	5.10337	4.36335	3.53962	16.88872	10.32314	5.27277	2.29980	1.89480	1.71158	4.07120	3.15202	2.43383	17.84340	11.31636	6.27314
90320	1.00982	0.88279	0.61315	5.10178	4.35933	3.54033	16.86967	10.32017	5.27420	2.30270	1.89754	1.71165	4.07029	3.14831	2.42940	17.83725	11.31450	6.27003
90480	1.00946	0.88502	0.61224	5.10536	4.36532	3.54360	16.90654	10.32281	5.27870	2.30233	1.89762	1.71357	4.07358	3.15310	2.43052	17.83539	11.31937	6.27569
90650	1.00689	0.88249	0.61089	5.10368	4.36159	3.54186	16.89112	10.31964	5.27354	2.30644	1.89645	1.70902	4.06998	3.14829	2.43241	17.84259	11.31606	6.26872
90810	1.00818	0.88099	0.61083	5.09895	4.36145	3.54092	16.90552	10.31788	5.26958	2.29602	1.89562	1.71698	4.06609	3.14907	2.42903	17.83853	11.30989	6.27206
90980	1.00611	0.88055	0.61149	5.10583	4.35636	3.52956	16.88915	10.31705	5.27071	2.30417	1.90142	1.71240	4.07087	3.15240	2.43390	17.83721	11.32168	6.27981	28.11	6.1	0.00	-2.04	0.01758	0.01213	0.01533	0.01852	0.01916	0.01499	0.00552	0.01528	0.02036	0.01912	0.01336	0.01701	0.01726	0.01786	0.01393	0.00574	0.01615	0.02176
91140	1.01047	0.88280	0.61352	5.10243	4.35902	3.53864	16.89622	10.32023	5.27607	2.30848	1.89901	1.71070	4.07272	3.14916	2.43071	17.84023	11.31791	6.27517
91310	1.00675	0.88010	0.61145	5.10181	4.35916	3.53722	16.87275	10.31494	5.27060	2.30023	1.89541	1.71061	4.06895	3.14798	2.42887	17.83164	11.31188	6.26827
91470	1.00437	0.88033	0.61054	5.10335	4.36032	3.53807	16.89547	10.31850	5.27164	2.30121	1.90052	1.71423	4.07068	3.14847	2.42913	17.84523	11.31544	6.27283
91640	1.00624	0.88192	0.61146	5.10139	4.35831	3.53740	16.87905	10.31252	5.26980	2.29847	1.89390	1.71051	4.07233	3.15101	2.43567	17.83930	11.31642	6.27443
91800	1.01014	0.88506	0.61316	5.10907	4.36871	3.54129	16.89711	10.32384	5.27243	2.30326	1.89950	1.71278	4.07068	3.14777	2.43039	17.83652	11.31224	6.27379
91970	1.00746	0.87961	0.61113	5.10514	4.35929	3.53517	16.88284	10.31845	5.27119	2.30687	1.90322	1.71275	4.06804	3.14575	2.43009	17.83652	11.31077	6.27188
92130	1.00812	0.87986	0.61223	5.10805	4.36647	3.54150	16.90457	10.32604	5.27109	2.30511	1.90049	1.71533	4.07102	3.14848	2.42947	17.84372	11.31656	6.27331
92300	1.00884	0.88077	0.61101	5.10601	4.36339	3.53800	16.90520	10.31861	5.27103	2.30310	1.89939	1.71312	4.06574	3.14960	2.42735	17.83477	11.31564	6.27428
92460	1.00643	0.88057	0.61174	5.10221	4.36001	3.53689	16.86821	10.31522	5.27027	2.30302	1.89750	1.71309	4.06861	3.14812	2.43237	17.84430	11.31697	6.27403
92630	1.00645	0.88205	0.61118	5.10333	4.36101	3.53710	16.87252	10.31626	5.26986	2.30257	1.89822	1.71445	4.06747	3.14719	2.42609	17.83600	11.31285	6.26962	28.17	5.9	0.00	-2.04	0.01758	0.01213	0.01533	0.01852	0.01916	0.01499	0.00552	0.01528	0.02036	0.01912	0.01336	0.01701	0.01726	0.01786	0.01393	0.00574	0.01615	0.02176
92790	1.00922	0.88395	0.61506	5.11314	4.36998	3.54194	16.89612	10.32140	5.27518	2.30128	1.90683	1.71850	4.07248	3.14841	2.43142	17.84506	11.31990	6.28836
92960	1.00782	0.88255	0.61287	5.10631	4.35419	3.53575	16.90244	10.32512	5.27246	2.31568	1.89885	1.70340	4.06739	3.14931	2.42918	17.84274	11.32417	6.27712
93120	1.00649	0.88010	0.60744	5.09828	4.36166	3.54276	16.88211	10.31000	5.27050	2.29974	1.89255	1.71015	4.06768	3.14442	2.42967	17.84390	11.31459	6.27385
93290	1.00415	0.87830	0.60897	5.10564	4.36345	3.53716	16.88021	10.31925	5.26836	2.29975	1.89761	1.71422	4.06747	3.14652	2.42922	17.83658	11.31315	6.27298
93460	1.00673	0.87905	0.61040	5.10287	4.36080	3.53918	16.90421	10.32031	5.26906	2.30319	1.89725	1.70965	4.07079	3.14755	2.43090	17.84088	11.31377	6.27469
93620	1.00622	0.88166	0.61046	5.10797	4.36290	3.53883	16.87126	10.31301	5.27085	2.30068	1.89702	1.70991	4.06852	3.15001	2.42753	17.83345	11.31573	6.27594
93790	1.00547	0.88056	0.61213	5.10373	4.36011	3.54093	16.91611	10.32138	5.27569	2.30744	1.89552	1.70749	4.06951	3.15028	2.43178	17.84890	11.32793	6.27609
93950	1.00869	0.88159	0.61054	5.10324	4.36754	3.54647	16.88488	10.31850	5.27197	2.29336	1.89255	1.71528	4.06816	3.14533	2.42776	17.84611	11.31147	6.26754
94120	1.00504	0.87776	0.60802	5.10777	4.36381	3.53338	16.87277	10.31154	5.26868	2.29797	1.89620	1.71116	4.06773	3.14725	2.43129	17.83147	11.31555	6.27494
94280	1.01035	0.88019	0.61068	5.10613	4.36254	3.53854	16.89967	10.31638	5.26819	2.30223	1.89788	1.71348	4.06588	3.14551	2.42854	17.83746	11.31204	6.27166	28.11	6.1	0.00	-2.04	0.01758	0.01213	0.01533	0.01852	0.01916	0.01499	0.00552	0.01528	0.02036	0.01912	0.01336	0.01701	0.01726	0.01786	0.01393	0.00574	0.01615	0.02176
94450	1.00582	0.87993	0.61049	5.10492	4.36458	3.54118	16.87165	10.31291	5.26834	2.30084	1.89386	1.70970	4.06582	3.14520	2.42813	17.83943	11.31221	6.26769
94610	1.00615	0.88287	0.61044	5.10578	4.36666	3.53986	16.90069	10.31554	5.27348	2.30073	1.89830	1.71580	4.06945	3.14833	2.42919	17.83038	11.31357	6.27306
94780	1.00617	0.87955	0.61099	5.10464	4.36223	3.53805	16.88818	10.31770	5.27065	2.30298	1.89821	1.71497	4.06687	3.14519	2.42826	17.84001	11.31341	6.27304
94940	1.00493	0.88217	0.60880	5.10475	4.36204	3.53725	16.86283	10.31941	5.26903	2.30202	1.90470	1.71580	4.06878	3.14890	2.42982	17.83084	11.31172	6.28250
95110	1.00672	0.88110	0.61092	5.10565	4.35696	3.53531	16.89007	10.31144	5.27183	2.30711	1.89612	1.70464	4.06924	3.14794	2.42788	17.83630	11.31960	6.27604
95280	1.00791	0.88314	0.61142	5.10751	4.36629	3.54083	16.87909	10.31324	5.26854	2.29955	1.89503	1.71243	4.06586	3.14685	2.42896	17.84222	11.31820	6.27492
95440	1.00595	0.88016	0.61179	5.10492	4.36512	3.54518	16.88035	10.32330	5.27455	2.30583	1.89861	1.71307	4.06991	3.14648	2.42891	17.83862	11.31717	6.27759
95610	1.00596	0.88042	0.61052	5.10913	4.36441	3.53892	16.88250	10.31959	5.27039	2.30129	1.90040	1.71337	4.06646	3.14682	2.42443	17.83897	11.31351	6.27332
95770	1.00430	0.87718	0.60922	5.10442	4.36345	3.53845	16.88616	10.31231	5.26866	2.29576	1.89420	1.71226	4.06493	3.14651	2.43042	17.83792	11.31178	6.27808
95940	1.00640	0.88120	0.61135	5.11180	4.35959	3.53395	16.87133	10.31647	5.27116	2.31540	1.90411	1.70502	4.07026	3.14991	2.43194	17.83239	11.32848	6.28579	28.11	6.0	0.00	-2.04	0.01758	0.01213	0.01533	0.01852	0.01916	0.01499	0.00552	0.01528	0.02036	0.01912	0.01336	0.01701	0.01726	0.01786	0.01393	0.00574	0.01615	0.02176
96100	1.00907	0.88160	0.61140	5.09759	4.36029	3.54763	16.87019	10.31516	5.27341	2.30394	1.89154	1.71019	4.06934	3.14761	2.43042	17.83703	11.31548	6.27157
96270	1.00606	0.88095	0.61095	5.10777	4.36420	3.54151	16.88268	10.31531	5.26849	2.30116	1.89715	1.71249	4.07230	3.15074	2.43512	17.84214	11.31801	6.27814
96440	1.00840	0.88309	0.61208	5.10995	4.36602	3.53941	16.89707	10.32030	5.27327	2.30321	1.89960	1.71460	4.06740	3.14897	2.43196	17.84795	11.32162	6.27820
96600	1.00794	0.88296	0.61035	5.10639	4.36341	3.54226	16.89455	10.31764	5.27006	2.30161	1.89457	1.71027	4.06710	3.14749	2.42888	17.84098	11.31769	6.27458
96770	1.00463	0.88014	0.61092	5.10609	4.36509	3.53990	16.88154	10.31674	5.26962	2.30148	1.89382	1.71009	4.06637	3.14825	2.42731	17.83982	11.31799	6.26734
96930	1.00731	0.88178	0.61195	5.10684	4.37523	3.54979	16.88684	10.32034	5.26998	2.29245	1.89707	1.72503	4.06711	3.14846	2.42946	17.84098	11.31035	6.27204
97100	1.00503	0.87882	0.61040	5.10857	4.36023	3.53414	16.88091	10.31417	5.26834	2.30515	1.90010	1.71197	4.06857	3.14717	2.42652	17.84179	11.31867	6.27490
97260	1.00508	0.87896	0.60933	5.10128	4.36376	3.54156	16.88621	10.30901	5.26920	2.29295	1.88999	1.71158	4.06698	3.15102	2.42870	17.83610	11.31631	6.27276
97430	1.00786	0.88202	0.61204	5.10800	4.36678	3.53910	16.87978	10.31696	5.27116	2.29969	1.89871	1.71508	4.06718	3.14887	2.43033	17.83900	11.31186	6.27375
97600	1.00616	0.88105	0.61120	5.10790	4.36159	3.53430	16.89708	10.31939	5.27223	2.30272	1.89893	1.71339	4.06750	3.14736	2.42832	17.83921	11.31630	6.27135	28.17	5.9	0.00	-2.04	0.01758	0.01213	0.01533	0.01852	0.01916	0.01499	0.00552	0.01528	0.02036	0.01912	0.01336	0.01701	0.01726	0.01786	0.01393	0.00574	0.01615	0.02176
97760	1.00493	0.88110	0.61311	5.10477	4.36501	3.54409	16.89683	10.32278	5.27292	2.30481	1.90073	1.71665	4.07074	3.14891	2.43172	17.83944	11.31548	6.27368
97930	1.00584	0.88013	0.61016	5.10607	4.36462	3.54005	16.87058	10.31917	5.26830	2.30171	1.89875	1.71431	4.06481	3.14573	2.42848	17.83410	11.31226	6.27216
98090	1.00234	0.87752	0.60780	5.10329	4.35894	3.53167	16.88067	10.31087	5.26731	2.29705	1.89668	1.71797	4.06463	3.14832	2.42969	17.83491	11.31141	6.27108
98260	1.00501	0.88251	0.61237	5.10350	4.36214	3.54045	16.87928	10.31715	5.27360	2.30266	1.89834	1.71467	4.06627	3.14841	2.42971	17.82969	11.31412	6.27244
98420	1.00478	0.88045	0.60981	5.10631	4.36321	3.53887	16.87423	10.31463	5.27058	2.29911	1.89631	1.71166	4.06787	3.15223	2.43198	17.84049	11.32005	6.27867
98590	1.00644	0.88194	0.61290	5.10588	4.36238	3.54348	16.90821	10.31977	5.27393	2.30394	1.89681	1.71145	4.06635	3.14911	2.42957	17.83758	11.31598	6.27360
98750	1.00718	0.88048	0.61161	5.10344	4.36395	3.54374	16.87108	10.31669	5.26998	2.29977	1.89472	1.71317	4.06514	3.14532	2.42749	17.83387	11.31039	6.27086
98920	1.00553	0.88065	0.61134	5.11009	4.36726	3.54235	16.89266	10.31726	5.27128	2.30173	1.89910	1.71013	4.07045	3.14780	2.43023	17.83016	11.32745	6.28922
99080	1.00615	0.87961	0.61082	5.09720	4.35359	3.54335	16.89026	10.31454	5.27088	2.30843	1.88422	1.69763	4.06510	3.14564	2.42700	17.85164	11.32637	6.27246
99250	1.00115	0.87731	0.60814	5.09519	4.36181	3.54707	16.90040	10.30975	5.26692	2.29777	1.88680	1.70495	4.06630	3.14848	2.43058	17.84004	11.31907	6.27092	28.11	6.1	0.00	-2.04	0.01758	0.01213	0.01533	0.01852	0.01916	0.01499	0.00552	0.01528	0.02036	0.01912	0.01336	0.01701	0.01726	0.01786	0.01393	0.00574	0.01615	0.02176
99420	1.00420	0.88012	0.60787	5.10203	4.36435	3.54475	16.86720	10.31466	5.26909	2.29843	1.89322	1.71259	4.06674	3.14700	2.42900	17.83864	11.31198	6.27095
99580	1.00524	0.87889	0.61193	5.10614	4.36545	3.54084	16.89357	10.31341	5.26887	2.30071	1.89406	1.71239	4.06894	3.14826	2.42716	17.83087	11.31260	6.26914
99750	1.00466	0.88047	0.61184	5.10545	4.36384	3.54175	16.89067	10.31484	5.27205	2.30042	1.89598	1.71606	4.06805	3.14703	2.42856	17.83690	11.31318	6.27139
99910	1.00588	0.87895	0.60963	5.10556	4.36104	3.53756	16.89395	10.31805	5.26957	2.30491	1.89854	1.71596	4.06840	3.14830	2.42896	17.83435	11.31180	6.27030
100080	1.00411	0.87919	0.61085	5.10273	4.35972	3.53631	16.88032	10.31528	5.26750	2.30262	1.89488	1.71280	4.06581	3.14907	2.43125	17.83620	11.31507	6.27355
100240	1.00638	0.88215	0.61224	5.10484	4.36012	3.53993	16.88562	10.31352	5.27063	2.30420	1.89743	1.71354	4.06689	3.14823	2.42913	17.83179	11.31358	6.26929
100410	1.00480	0.88298	0.61237	5.10281	4.36356	3.54454	16.87426	10.31455	5.26854	2.30628	1.90004	1.71508	4.06467	3.14857	2.43111	17.83005	11.31134	6.27405
100580	1.00725	0.87889	0.61074	5.10187	4.36025	3.54553	16.86254	10.31963	5.27102	2.30431	1.89125	1.70898	4.06625	3.14842	2.42990	17.83771	11.31312	6.26777
100740	1.00870	0.88278	0.61078	5.10596	4.36437	3.54224	16.86468	10.31625	5.27143	2.30205	1.89861	1.71582	4.06663	3.14750	2.43054	17.82947	11.30904	6.26922
100910	1.00673	0.88026	0.61025	5.10255	4.35972	3.53573	16.86759	10.31524	5.26851	2.30287	1.89701	1.71441	4.06483	3.14413	2.42535	17.82948	11.30651	6.26603	28.17	6.0	0.00	-2.04	0.01758	0.01213	0.01533	0.01852	0.01916	0.01499	0.00552	0.01528	0.02036	0.01912	0.01336	0.01701	0.01726	0.01786	0.01393	0.00574	0.01615	0.02176
101070	1.00499	0.88155	0.61351	5.10151	4.35995	3.53990	16.89762	10.31576	5.27024	2.30269	1.89829	1.71459	4.06555	3.14798	2.43000	17.82971	11.31320	6.27170
101240	1.00593	0.88013	0.61020	5.10414	4.35937	3.53882	16.87402	10.31820	5.27001	2.30236	1.89746	1.71342	4.06632	3.14837	2.43025	17.83226	11.31033	6.27114
101400	1.00467	0.88099	0.60888	5.10121	4.35700	3.53524	16.88764	10.31348	5.26660	2.30183	1.89632	1.71158	4.06624	3.15034	2.43131	17.83400	11.31223	6.27123
101570	1.00710	0.88071	0.61105	5.10290	4.36014	3.53815	16.90559	10.31396	5.26903	2.29947	1.89562	1.71607	4.06587	3.14919	2.42843	17.83482	11.30829	6.26777
101740	1.00632	0.88068	0.61094	5.10295	4.36063	3.53696	16.87679	10.31168	5.27164	2.29865	1.89572	1.71670	4.06789	3.14648	2.42975	17.82322	11.30595	6.26798
101900	1.00723	0.88121	0.61281	5.10338	4.35911	3.53461	16.87793	10.31414	5.27138	2.29705	1.89140	1.70826	4.06571	3.14575	2.42766	17.83470	11.31388	6.26914
102070	1.00897	0.88174	0.61258	5.09957	4.36143	3.54062	16.91318	10.32279	5.27401	2.30228	1.89481	1.71016	4.06834	3.14908	2.42985	17.82449	11.31177	6.27409
102230	1.00563	0.88399	0.61117	5.10083	4.35716	3.53830	16.89168	10.31330	5.27305	2.30287	1.89474	1.71209	4.06658	3.14652	2.42973	17.82449	11.30625	6.26754
102400	1.00463	0.87815	0.60933	5.10304	4.35630	3.53141	16.87944	10.31697	5.26688	2.30110	1.89583	1.71322	4.06900	3.14869	2.43166	17.83041	11.30503	6.26539
102570	1.00758	0.88084	0.61116	5.10841	4.36447	3.53704	16.87716	10.31573	5.27076	2.29761	1.90134	1.72339	4.06661	3.14823	2.42975	17.82801	11.29748	6.26606	28.11	6.0	0.00	-2.04	0.01758	0.01213	0.01533	0.01852	0.01916	0.01499	0.00552	0.01528	0.02036	0.01912	0.01336	0.01701	0.01726	0.01786	0.01393	0.00574	0.01615	0.02176
102730	1.00372	0.88223	0.60997	5.09898	4.36211	3.54318	16.87754	10.31483	5.26994	2.30798	1.88855	1.70707	4.06820	3.14855	2.42923	17.84310	11.31329	6.25956
102900	1.00664	0.87843	0.61033	5.09398	4.36479	3.55384	16.89181	10.31668	5.26942	2.29598	1.88478	1.70500	4.06744	3.14851	2.43101	17.83637	11.31115	6.26373
103060	1.00918	0.88313	0.61228	5.09882	4.36344	3.54552	16.90584	10.32305	5.27257	2.30205	1.89488	1.71333	4.06904	3.14690	2.42922	17.82836	11.30732	6.26626
103230	1.00679	0.88022	0.61161	5.10059	4.35466	3.53405	16.88953	10.32105	5.27010	2.30050	1.89521	1.71020	4.06759	3.14699	2.42758	17.82303	11.30706	6.26811
103390	1.00465	0.88159	0.61125	5.09740	4.35577	3.53487	16.87855	10.31520	5.27323	2.30231	1.89756	1.71370	4.06950	3.14776	2.43067	17.82883	11.30672	6.27120
103560	1.00715	0.88042	0.61044	5.10126	4.35727	3.53330	16.86178	10.31782	5.26800	2.29942	1.89361	1.71000	4.06615	3.14770	2.42812	17.82964	11.30536	6.26800
103720	1.00541	0.87798	0.60817	5.09851	4.35450	3.53096	16.87779	10.30712	5.26713	2.29530	1.88855	1.70753	4.06685	3.14793	2.43090	17.82337	11.30548	6.26766
103890	1.00633	0.88152	0.60970	5.10217	4.35867	3.53658	16.89673	10.31424	5.26944	2.29439	1.89192	1.71276	4.06624	3.14590	2.42929	17.82778	11.30178	6.26502
104050	1.00581	0.88017	0.61223	5.09976	4.35473	3.53131	16.87502	10.31780	5.27094	2.30307	1.89584	1.70989	4.06530	3.14662	2.42497	17.82129	11.30624	6.26657
104220	1.00656	0.88134	0.61148	5.09444	4.35346	3.53733	16.89333	10.31796	5.26989	2.29657	1.88996	1.71213	4.06819	3.14876	2.42813	17.82889	11.30329	6.26121	28.17	6.0	0.00	-2.04	0.01758	0.01213	0.01533	0.01852	0.01916	0.01499	0.00552	0.01528	0.02036	0.01912	0.01336	0.01701	0.01726	0.01786	0.01393	0.00574	0.01615	0.02176
104390	1.00519	0.87860	0.61016	5.10023	4.35973	3.53218	16.88360	10.31693	5.27060	2.28978	1.89027	1.71175	4.06538	3.14633	2.42996	17.82912	11.30549	6.26451
104550	1.00408	0.87994	0.61048	5.09695	4.35497	3.53373	16.90420	10.31544	5.27050	2.29345	1.88950	1.70758	4.06989	3.14958	2.43068	17.83458	11.30743	6.26742
104720	1.00720	0.87983	0.61205	5.09785	4.35611	3.53479	16.87162	10.31735	5.26962	2.29525	1.89201	1.70939	4.06807	3.14891	2.43010	17.82274	11.30463	6.26787
104880	1.00579	0.88198	0.61202	5.09696	4.35294	3.53249	16.89383	10.32078	5.27117	2.29846	1.89186	1.70946	4.06672	3.14505	2.42788	17.81950	11.30175	6.26327
105050	1.00583	0.88394	0.61408	5.09868	4.36000	3.54124	16.89118	10.32060	5.27373	2.29840	1.89184	1.70964	4.07005	3.15176	2.43270	17.83725	11.30861	6.26736
105210	1.00645	0.88345	0.61202	5.10094	4.36008	3.53657	16.86759	10.31276	5.27045	2.29626	1.89433	1.71439	4.06936	3.14852	2.42771	17.82669	11.30025	6.26235
105380	1.00581	0.87831	0.60896	5.09949	4.35723	3.53174	16.88449	10.31271	5.26679	2.29632	1.89226	1.70898	4.06868	3.14717	2.42801	17.82553	11.29893	6.26328
105540	1.00482	0.87904	0.60959	5.09637	4.35509	3.53469	16.89345	10.31449	5.26993	2.29424	1.88852	1.70742	4.06667	3.14644	2.42817	17.82959	11.30193	6.26118
105710	1.00443	0.88131	0.61009	5.09444	4.35223	3.53189	16.87906	10.31344	5.26801	2.29299	1.88941	1.70624	4.06939	3.15070	2.42878	17.82274	11.30349	6.26283
105880	1.00760	0.88225	0.61125	5.09599	4.35346	3.53412	16.89216	10.31704	5.26923	2.29611	1.89208	1.70803	4.06816	3.14589	2.42963	17.82315	11.30205	6.26764	28.22	6.1	0.00	-2.04	0.01758	0.01213	0.01533	0.01852	0.01916	0.01499	0.00552	0.01528	0.02036	0.01912	0.01336	0.01701	0.01726	0.01786	0.01393	0.00574	0.01615	0.02176
106040	1.00669	0.88063	0.61053	5.09666	4.35478	3.52631	16.88648	10.31581	5.27071	2.29905	1.89411	1.70757	4.06743	3.14709	2.42678	17.82373	11.30958	6.27053
106210	1.00545	0.88175	0.61444	5.09332	4.34888	3.53562	16.91391	10.31508	5.27187	2.29860	1.88866	1.70198	4.06827	3.14941	2.42935	17.84253	11.31026	6.26615
106370	1.00617	0.87997	0.61188	5.08983	4.35899	3.54075	16.90215	10.31974	5.27020	2.29055	1.88450	1.70758	4.06895	3.14665	2.42978	17.82825	11.30213	6.26185
106540	1.00568	0.87998	0.61004	5.09727	4.35274	3.53071	16.89570	10.31778	5.26733	2.29352	1.88905	1.70130	4.07008	3.15094	2.43130	17.82987	11.30771	6.26790
106700	1.00908	0.88257	0.61414	5.09618	4.35761	3.53648	16.88320	10.31633	5.26861	2.29099	1.88651	1.70726	4.06795	3.14633	2.42972	17.83068	11.30315	6.26168
106870	1.00682	0.88050	0.60999	5.09735	4.35379	3.52782	16.88522	10.31726	5.26979	2.29283	1.89331	1.71169	4.06674	3.14643	2.42803	17.81932	11.29829	6.26220
107030	1.00832	0.88306	0.61243	5.09835	4.35372	3.53112	16.89102	10.31741	5.27254	2.29669	1.89479	1.71084	4.06973	3.14886	2.43072	17.82187	11.30135	6.26495
107200	1.00711	0.88100	0.61071	5.09568	4.35009	3.53048	16.88332	10.31638	5.27090	2.30089	1.89339	1.70578	4.06655	3.14410	2.42683	17.82210	11.30107	6.26128
107360	1.00605	0.87848	0.61030	5.08745	4.35007	3.53271	16.85534	10.31835	5.26807	2.29853	1.89336	1.70538	4.06623	3.15063	2.42913	17.82094	11.30597	6.26904
107530	1.00501	0.88084	0.60978	5.08693	4.34287	3.52864	16.88196	10.31319	5.26905	2.30215	1.89189	1.70728	4.06897	3.14924	2.43236	17.82621	11.30813	6.26544	28.17	5.9	0.00	-2.04	0.01758	0.01213	0.01533	0.01852	0.01916	0.01499	0.00552	0.01528	0.02036	0.01912	0.01336	0.01701	0.01726	0.01786	0.01393	0.00574	0.01615	0.02176
107690	1.00860	0.88257	0.61088	5.09515	4.35163	3.53246	16.89826	10.31778	5.27150	2.29636	1.89468	1.71426	4.06549	3.14717	2.42795	17.81821	11.30002	6.26163
107860	1.00643	0.88087	0.61016	5.09494	4.35022	3.52592	16.88487	10.31631	5.26822	2.29984	1.89590	1.71141	4.06411	3.14464	2.42528	17.81033	11.29612	6.26050
108020	1.00393	0.88082	0.61103	5.09241	4.34886	3.52706	16.90420	10.31563	5.27050	2.29993	1.89731	1.70870	4.06614	3.14641	2.42709	17.82134	11.30470	6.26491
108190	1.00592	0.88028	0.61103	5.09489	4.35040	3.52870	16.88133	10.31312	5.26749	2.29678	1.89199	1.71018	4.06925	3.14952	2.43318	17.81937	11.30024	6.26642
108360	1.00745	0.88067	0.61404	5.10671	4.36360	3.53019	16.86759	10.31745	5.26949	2.31231	1.89461	1.69808	4.06635	3.14528	2.42878	17.82517	11.31321	6.26186
108520	1.00739	0.88052	0.61159	5.08708	4.35892	3.54180	16.88411	10.31367	5.26864	2.27820	1.87487	1.70888	4.06751	3.14680	2.42998	17.82517	11.29532	6.24536
108690	1.00861	0.88407	0.61299	5.09339	4.35145	3.53407	16.88714	10.31514	5.27325	2.29908	1.89803	1.70399	4.06918	3.14913	2.43148	17.81925	11.30472	6.26589
108850	1.00733	0.88278	0.61205	5.09342	4.34411	3.52747	16.88411	10.32114	5.27272	2.29871	1.89464	1.69194	4.07234	3.14921	2.43289	17.82517	11.30492	6.26665
109020	1.00721	0.88348	0.61406	5.09753	4.36260	3.53454	16.89864	10.32369	5.27583	2.30174	1.90437	1.70045	4.07828	3.16116	2.44397	17.80813	11.29684	6.26409
109190	1.00970	0.88609	0.61627	5.08542	4.35241	3.52019	16.87721	10.32836	5.28540	2.25513	1.87818	1.67165	4.08561	3.16855	2.44992	17.78171	11.26943	6.23567	28.22	6.0	0.00	-2.04	0.01756	0.01212	0.01532	0.01853	0.01918	0.01500	0.00551	0.01525	0.02032	0.01913	0.01337	0.01702	0.01723	0.01783	0.01391	0.00574	0.01616	0.02178
