WetView ver 7.1	07-11-2019	22:08:40
AC9 Absorption and Attenuation Meter
00000311		; Serial number
2	; structure version number
Reserved
0.000000	0.000000		; Depth calibration
19200			; Baud rate
0.100000			; Path length (meters)
23			; number of temperature calibration bins
				12.61517	13.44096	14.46844	15.49904	16.50682	17.50108	18.49752	19.51783	20.49177	21.49009	22.48286	23.50673	24.54012	25.54812	26.49986	27.49321	28.50960	29.48671	30.47471	31.49432	32.50437	33.48679	34.49133	; temperature bins
a650	Blue	18.61587		0.01156	0.01096	0.01010	0.00930	0.00851	0.00774	0.00661	0.00573	0.00499	0.00402	0.00285	0.00203	0.00096	0.00000	-0.00110	-0.00152	-0.00210	-0.00247	-0.00259	-0.00317	-0.00346	-0.00380	-0.00403		; offset and temperature correction info
a676	Green	18.78942		0.00964	0.00899	0.00863	0.00813	0.00730	0.00639	0.00545	0.00448	0.00385	0.00301	0.00233	0.00165	0.00046	0.00000	-0.00106	-0.00167	-0.00251	-0.00280	-0.00316	-0.00329	-0.00377	-0.00392	-0.00441		; offset and temperature correction info
a715	Brown	18.59217		0.01171	0.01109	0.01043	0.00975	0.00878	0.00789	0.00685	0.00572	0.00469	0.00356	0.00255	0.00160	0.00061	0.00000	-0.00063	-0.00113	-0.00152	-0.00183	-0.00226	-0.00293	-0.00364	-0.00404	-0.00473		; offset and temperature correction info
c510	Red	18.18396		-0.00549	-0.00480	-0.00383	-0.00272	-0.00202	-0.00118	-0.00044	-0.00038	-0.00015	-0.00021	0.00013	0.00007	-0.00007	0.00000	-0.00007	-0.00065	-0.00045	-0.00018	0.00007	0.00039	-0.00001	-0.00002	-0.00045		; offset and temperature correction info
c532	Magenta	18.26528		-0.00721	-0.00645	-0.00581	-0.00518	-0.00465	-0.00345	-0.00281	-0.00270	-0.00182	-0.00141	-0.00108	-0.00072	-0.00022	0.00000	0.00044	0.00030	0.00031	-0.00006	-0.00052	-0.00089	-0.00142	-0.00149	-0.00154		; offset and temperature correction info
c555	Black	18.37125		-0.00430	-0.00419	-0.00381	-0.00319	-0.00286	-0.00254	-0.00205	-0.00196	-0.00138	-0.00137	-0.00067	-0.00051	-0.00030	0.00000	0.00067	0.00087	0.00057	0.00027	-0.00015	-0.00089	-0.00127	-0.00137	-0.00150		; offset and temperature correction info
a412	LtBlue	15.33566		-0.06011	-0.05567	-0.05012	-0.04441	-0.03922	-0.03412	-0.02941	-0.02503	-0.02049	-0.01588	-0.01121	-0.00784	-0.00311	0.00000	0.00273	0.00611	0.00757	0.00871	0.01066	0.01299	0.01539	0.01781	0.02175		; offset and temperature correction info
a440	LtGreen	16.05925		-0.01380	-0.01214	-0.01039	-0.00858	-0.00690	-0.00532	-0.00426	-0.00322	-0.00230	-0.00158	-0.00055	0.00006	0.00001	0.00000	0.00017	0.00016	-0.00094	-0.00222	-0.00363	-0.00486	-0.00567	-0.00651	-0.00782		; offset and temperature correction info
a488	Yellow	16.82827		0.00255	0.00293	0.00331	0.00354	0.00373	0.00378	0.00363	0.00350	0.00291	0.00225	0.00215	0.00142	0.00099	0.00000	-0.00092	-0.00169	-0.00295	-0.00396	-0.00479	-0.00542	-0.00582	-0.00604	-0.00663		; offset and temperature correction info
c650	Blue	18.49287		-0.00570	-0.00516	-0.00456	-0.00403	-0.00346	-0.00232	-0.00132	-0.00122	-0.00073	-0.00066	-0.00035	-0.00016	0.00003	0.00000	0.00044	0.00078	0.00108	0.00057	0.00040	-0.00042	-0.00033	-0.00029	-0.00034		; offset and temperature correction info
c676	Green	18.50570		0.00299	0.00293	0.00287	0.00293	0.00278	0.00294	0.00317	0.00251	0.00243	0.00215	0.00139	0.00123	0.00068	0.00000	-0.00041	-0.00106	-0.00205	-0.00268	-0.00325	-0.00413	-0.00495	-0.00610	-0.00674		; offset and temperature correction info
c715	Brown	17.88888		0.00826	0.00812	0.00773	0.00790	0.00766	0.00758	0.00753	0.00650	0.00571	0.00461	0.00359	0.00222	0.00101	0.00000	-0.00146	-0.00284	-0.00385	-0.00448	-0.00463	-0.00513	-0.00623	-0.00715	-0.00838		; offset and temperature correction info
a510	Red	17.18050		0.00353	0.00364	0.00354	0.00361	0.00381	0.00381	0.00356	0.00332	0.00277	0.00229	0.00176	0.00116	0.00036	0.00000	-0.00014	-0.00069	-0.00088	-0.00147	-0.00150	-0.00129	-0.00120	-0.00134	-0.00091		; offset and temperature correction info
a532	Magenta	17.40228		0.00550	0.00548	0.00526	0.00479	0.00464	0.00422	0.00393	0.00328	0.00253	0.00212	0.00136	0.00085	0.00039	0.00000	-0.00059	-0.00146	-0.00188	-0.00262	-0.00330	-0.00393	-0.00491	-0.00540	-0.00605		; offset and temperature correction info
a555	Black	17.72308		0.00849	0.00832	0.00800	0.00760	0.00724	0.00655	0.00580	0.00495	0.00435	0.00347	0.00252	0.00153	0.00049	0.00000	-0.00050	-0.00155	-0.00214	-0.00306	-0.00350	-0.00411	-0.00470	-0.00539	-0.00570		; offset and temperature correction info
c412	LtBlue	16.72802		-0.05949	-0.05458	-0.04744	-0.04134	-0.03547	-0.03064	-0.02511	-0.02047	-0.01574	-0.01163	-0.00761	-0.00442	-0.00204	0.00000	0.00100	0.00051	-0.00043	-0.00239	-0.00475	-0.00629	-0.00827	-0.00955	-0.01337		; offset and temperature correction info
c440	LtGreen	17.42637		-0.02723	-0.02503	-0.02216	-0.01930	-0.01691	-0.01394	-0.01125	-0.00926	-0.00732	-0.00582	-0.00401	-0.00226	-0.00093	0.00000	0.00082	0.00123	0.00133	0.00097	0.00038	-0.00003	-0.00022	-0.00023	-0.00125		; offset and temperature correction info
c488	Yellow	18.03666		-0.00640	-0.00554	-0.00465	-0.00357	-0.00276	-0.00154	-0.00067	-0.00031	-0.00014	-0.00012	0.00046	0.00032	0.00020	0.00000	0.00001	-0.00024	-0.00060	-0.00084	-0.00126	-0.00180	-0.00276	-0.00304	-0.00427		; offset and temperature correction info
0.003500	0.004000	0.015000	0.020000	0.015000	0.020000	2500.000000	2000.000000	1000.000000	; maxANoise	maxCNoise	maxADifference	maxCDifference	minACounts	minCCounts	minRCounts	maxTempSdev	maxDepthSdev
0			; auxilliary capabilities
1			; acquisition binsize
0	1.37439	1.37599	1.30366	5.42550	5.32931	4.89492	5.82461	4.02437	2.64004	4.49577	3.90159	3.86791	2.22463	1.91510	1.86112	9.27122	7.41495	5.85510	34.39	6.0	0.00	-2.04	0.01743	0.01209	0.01530	0.01851	0.01908	0.01493	0.00552	0.01528	0.02022	0.01886	0.01318	0.01679	0.01720	0.01775	0.01386	0.00580	0.01630	0.02172
160	1.39912	1.40965	1.31006	5.42679	5.33324	4.89507	5.89971	3.97223	2.60495	4.49455	3.90042	3.86450	2.17424	1.89256	1.82523	9.26407	7.40993	5.85197
330	1.39697	1.39301	1.27206	5.42125	5.32735	4.89133	5.75696	3.97465	2.65904	4.48970	3.89435	3.86161	2.19521	1.92769	1.84646	9.26475	7.41058	5.85297
490	1.40253	1.37561	1.26507	5.42516	5.33055	4.89336	5.68300	3.93683	2.64391	4.49180	3.89842	3.86551	2.18163	1.93425	1.83004	9.26086	7.40770	5.85147
660	1.40369	1.35854	1.26984	5.42422	5.32953	4.89381	5.76219	3.96628	2.67137	4.49296	3.89936	3.86463	2.20578	1.95361	1.83648	9.26402	7.41201	5.85281
830	1.41979	1.36005	1.27175	5.42508	5.33127	4.89481	5.70945	3.97521	2.67324	4.49161	3.89878	3.86625	2.20995	1.96072	1.81833	9.27156	7.41599	5.85805
990	1.40956	1.32319	1.26518	5.43023	5.33531	4.89899	5.62903	3.99427	2.68354	4.49636	3.90360	3.86778	2.22085	1.95040	1.78772	9.26602	7.41252	5.85465
1160	1.39673	1.30077	1.28431	5.42584	5.33083	4.89461	5.57418	4.03254	2.67031	4.49331	3.90039	3.86517	2.24082	1.92739	1.79243	9.26427	7.40793	5.85136
1320	1.38457	1.32073	1.30422	5.42279	5.33212	4.89759	5.65789	4.06066	2.65096	4.49692	3.90440	3.86802	2.23984	1.90418	1.81523	9.26237	7.41256	5.85469
1490	1.36880	1.35294	1.29979	5.42525	5.33003	4.89537	5.77507	4.02374	2.62640	4.49618	3.90022	3.86573	2.21102	1.89600	1.83977	9.26140	7.40933	5.85330
138640	1.11090	1.04494	0.97705	5.05968	4.85743	4.40068	5.46908	3.71277	2.34889	3.69931	3.43835	3.27282	1.93989	1.66393	1.50268	8.67674	6.91304	5.41497	34.50	5.9	0.00	-2.04	0.01735	0.01204	0.01523	0.01859	0.01915	0.01498	0.00548	0.01517	0.02008	0.01893	0.01325	0.01687	0.01709	0.01764	0.01378	0.00583	0.01637	0.02181
138800	1.11376	1.04553	0.97505	5.06706	4.86156	4.40236	5.47884	3.71979	2.35313	3.70614	3.45113	3.28617	1.94463	1.66600	1.50739	8.68506	6.91446	5.42008
138970	1.11401	1.04736	0.97477	5.06565	4.86013	4.40218	5.48031	3.71635	2.35044	3.71627	3.45517	3.28078	1.94334	1.66492	1.50438	8.67944	6.91395	5.42395
139140	1.11250	1.04478	0.97414	5.06957	4.85753	4.39608	5.46758	3.71293	2.34640	3.70202	3.44760	3.28017	1.93880	1.66348	1.50204	8.67957	6.91353	5.41948
139300	1.11027	1.04228	0.97194	5.06183	4.84975	4.38901	5.46616	3.71220	2.34652	3.70027	3.44555	3.27850	1.93943	1.66141	1.50248	8.67437	6.91032	5.41804
139470	1.11119	1.04454	0.97459	5.06473	4.85207	4.39081	5.46234	3.71469	2.34875	3.70754	3.45111	3.27996	1.94044	1.66178	1.50453	8.67081	6.91037	5.42159
139630	1.11317	1.04392	0.97585	5.07148	4.85964	4.39637	5.46583	3.71288	2.34762	3.71255	3.45543	3.28567	1.94155	1.66608	1.50547	8.68254	6.92001	5.42534
139800	1.11429	1.04284	0.97517	5.06901	4.86256	4.40653	5.46811	3.71475	2.34938	3.71244	3.45244	3.28360	1.94086	1.66332	1.50438	8.67907	6.91514	5.41979
139960	1.11417	1.04410	0.97395	5.06589	4.85544	4.39454	5.46717	3.71216	2.34627	3.70345	3.44692	3.28236	1.93841	1.66113	1.50197	8.67405	6.90887	5.41901
140130	1.11078	1.04351	0.97319	5.06602	4.85402	4.39477	5.46644	3.71348	2.34624	3.71113	3.45291	3.28281	1.93975	1.66104	1.50217	8.67231	6.90750	5.41988
140300	1.10961	1.04154	0.97434	5.07152	4.86045	4.39867	5.46461	3.71135	2.34547	3.70804	3.45211	3.28465	1.93748	1.66154	1.50047	8.67985	6.91000	5.41882	34.50	6.1	0.00	-2.04	0.01734	0.01204	0.01523	0.01859	0.01915	0.01498	0.00548	0.01516	0.02007	0.01893	0.01325	0.01687	0.01708	0.01763	0.01378	0.00583	0.01637	0.02181
140460	1.10824	1.04368	0.97393	5.06735	4.85704	4.39487	5.47079	3.71197	2.34575	3.70662	3.44752	3.28037	1.93606	1.66166	1.50159	8.67214	6.91103	5.41895
140630	1.10807	1.04212	0.97065	5.06473	4.85385	4.39215	5.46112	3.70564	2.34170	3.70801	3.45280	3.28448	1.93678	1.66188	1.50265	8.67885	6.91107	5.42043
140790	1.11016	1.04235	0.97293	5.06652	4.85854	4.39584	5.47055	3.71141	2.34591	3.70745	3.44763	3.27839	1.93609	1.65882	1.50049	8.67072	6.90642	5.41484
140960	1.10996	1.04210	0.97184	5.06428	4.85410	4.39450	5.46669	3.70971	2.34364	3.70590	3.44975	3.28228	1.93812	1.66119	1.50113	8.67401	6.90788	5.41982
141130	1.11036	1.04267	0.97403	5.06768	4.85700	4.39628	5.46347	3.70898	2.34418	3.70514	3.44752	3.28274	1.93819	1.66000	1.50115	8.67725	6.90759	5.41630
141290	1.11131	1.04353	0.97447	5.06700	4.85845	4.39749	5.47482	3.71236	2.34753	3.71054	3.45290	3.28448	1.93944	1.66227	1.50203	8.67474	6.91152	5.42121
141460	1.11107	1.04089	0.97295	5.06833	4.85746	4.39562	5.45372	3.71105	2.34664	3.71335	3.45528	3.28630	1.93871	1.65849	1.50110	8.67355	6.90829	5.41936
141620	1.10961	1.04214	0.97325	5.06893	4.85915	4.39505	5.46047	3.70808	2.34460	3.71033	3.45363	3.28765	1.93574	1.65984	1.50117	8.67017	6.90637	5.41698
141790	1.10758	1.04120	0.97549	5.06976	4.86215	4.39810	5.45770	3.70987	2.34282	3.71249	3.45659	3.29198	1.93753	1.65874	1.50137	8.67478	6.90957	5.41948
141950	1.10963	1.04075	0.97115	5.07202	4.86130	4.39585	5.45304	3.70320	2.34224	3.71200	3.45653	3.28925	1.93679	1.66309	1.50222	8.68197	6.91463	5.42479	34.50	6.1	0.00	-2.04	0.01734	0.01203	0.01523	0.01859	0.01915	0.01498	0.00548	0.01516	0.02007	0.01893	0.01325	0.01687	0.01708	0.01763	0.01378	0.00583	0.01637	0.02181
142120	1.11004	1.04434	0.97285	5.07646	4.86490	4.40093	5.46275	3.71029	2.34346	3.71426	3.45713	3.28959	1.93622	1.66033	1.50078	8.68074	6.91191	5.42067
142280	1.11050	1.04024	0.97202	5.07321	4.86544	4.40012	5.46795	3.70611	2.34257	3.71148	3.45381	3.28715	1.93255	1.65729	1.49743	8.67631	6.90740	5.41632
142450	1.10632	1.03897	0.97228	5.07287	4.86507	4.40117	5.46604	3.70949	2.34203	3.71027	3.45351	3.29012	1.93536	1.66029	1.49957	8.68472	6.91287	5.41959
142610	1.10793	1.03547	0.96843	5.07183	4.86165	4.39693	5.45787	3.70530	2.33921	3.71265	3.45450	3.28744	1.93063	1.65647	1.49656	8.67919	6.91212	5.42017
142780	1.10580	1.03460	0.96993	5.06827	4.85830	4.39647	5.45856	3.70368	2.33880	3.71113	3.45234	3.28590	1.93099	1.65651	1.49500	8.67622	6.90857	5.41737
142940	1.10770	1.03684	0.96966	5.07073	4.86312	4.39931	5.45479	3.70716	2.33860	3.70769	3.45028	3.28537	1.93042	1.65622	1.49585	8.67763	6.90821	5.41828
143110	1.10799	1.03882	0.97187	5.07012	4.86198	4.39980	5.46905	3.70725	2.34210	3.71170	3.45194	3.28389	1.93292	1.65881	1.49624	8.67220	6.90833	5.41918
143270	1.10738	1.03731	0.97005	5.06759	4.85818	4.39687	5.45625	3.70386	2.33958	3.71147	3.45062	3.27982	1.93527	1.65883	1.50250	8.67681	6.91269	5.42252
143440	1.11070	1.03934	0.97277	5.07196	4.86251	4.39744	5.46141	3.70944	2.34499	3.71095	3.45237	3.28711	1.93469	1.65849	1.49992	8.67521	6.90934	5.41891
143610	1.10798	1.03686	0.97131	5.06947	4.86041	4.39516	5.45742	3.70366	2.33789	3.70995	3.45206	3.28653	1.93203	1.65587	1.49611	8.67567	6.91032	5.41916	34.50	6.0	0.00	-2.04	0.01734	0.01203	0.01523	0.01859	0.01915	0.01498	0.00547	0.01516	0.02007	0.01893	0.01325	0.01687	0.01708	0.01763	0.01378	0.00583	0.01637	0.02181
143770	1.10704	1.03797	0.97096	5.06998	4.85919	4.39467	5.45730	3.70679	2.33826	3.71174	3.45298	3.28321	1.93206	1.65558	1.49750	8.67256	6.90643	5.41624
143940	1.10509	1.03725	0.97071	5.06969	4.86034	4.39605	5.46482	3.70605	2.34033	3.71480	3.45729	3.28727	1.93206	1.65709	1.49666	8.67015	6.90644	5.41692
144100	1.10483	1.03602	0.96852	5.06978	4.85892	4.39290	5.45637	3.70262	2.33929	3.70937	3.45276	3.28516	1.92838	1.65458	1.49404	8.67133	6.90427	5.41466
144270	1.10379	1.03519	0.96995	5.07018	4.86260	4.39580	5.46392	3.70502	2.33675	3.70901	3.45260	3.28482	1.93011	1.65495	1.49735	8.67407	6.90668	5.41758
144430	1.10524	1.03451	0.96908	5.07283	4.86217	4.39251	5.45486	3.69935	2.33580	3.70802	3.45396	3.28803	1.93172	1.65835	1.49829	8.68147	6.91141	5.42012
144600	1.10854	1.03615	0.97064	5.07444	4.86737	4.40100	5.45641	3.70567	2.34047	3.71120	3.45338	3.28716	1.93341	1.65695	1.49718	8.68289	6.91364	5.42002
144760	1.10750	1.03652	0.97032	5.07140	4.86373	4.39893	5.45584	3.70386	2.33660	3.71132	3.45450	3.28713	1.93030	1.65441	1.49339	8.68001	6.91042	5.41886
144930	1.10531	1.03553	0.96940	5.07166	4.86457	4.39996	5.46140	3.70642	2.33991	3.71256	3.45414	3.28694	1.93094	1.65607	1.49739	8.67905	6.91243	5.41965
145090	1.10480	1.03484	0.96848	5.07026	4.86175	4.39616	5.44800	3.69961	2.33419	3.71166	3.45410	3.28536	1.93144	1.65586	1.49740	8.67786	6.91244	5.42262
145260	1.10791	1.03857	0.96956	5.07570	4.86636	4.40062	5.45815	3.70600	2.33678	3.71423	3.45668	3.29040	1.92778	1.65497	1.49546	8.67670	6.90860	5.41786	34.50	6.0	0.00	-2.04	0.01734	0.01203	0.01523	0.01859	0.01915	0.01498	0.00547	0.01516	0.02007	0.01893	0.01325	0.01687	0.01708	0.01763	0.01377	0.00583	0.01637	0.02181
145420	1.10578	1.03489	0.97089	5.07351	4.86626	4.39974	5.45360	3.70647	2.33936	3.71288	3.45815	3.29163	1.93082	1.65492	1.49684	8.67794	6.91294	5.42212
145590	1.10380	1.03458	0.96923	5.07464	4.86523	4.39833	5.45599	3.69898	2.33494	3.71401	3.45702	3.29089	1.92991	1.65718	1.49742	8.68095	6.91464	5.42237
145750	1.10574	1.03775	0.96913	5.07412	4.87064	4.40523	5.46026	3.70175	2.33836	3.71640	3.45966	3.29344	1.92860	1.65331	1.49749	8.68104	6.91471	5.42216
145920	1.10639	1.03731	0.97132	5.07801	4.87289	4.40882	5.45416	3.70347	2.33855	3.72039	3.46196	3.29393	1.93108	1.65569	1.49771	8.68502	6.91667	5.42353
146080	1.10446	1.03459	0.96736	5.07596	4.86916	4.40680	5.44381	3.70107	2.33398	3.71767	3.45996	3.29102	1.93090	1.65740	1.49960	8.68470	6.91905	5.42859
146240	1.10764	1.03664	0.97016	5.07722	4.86729	4.40563	5.45457	3.70128	2.33800	3.72253	3.46314	3.29486	1.93047	1.65414	1.49565	8.67954	6.91373	5.42425
146410	1.10557	1.03688	0.97084	5.07818	4.86824	4.40371	5.46136	3.70778	2.34090	3.72069	3.46456	3.29611	1.93148	1.65919	1.49550	8.67593	6.91206	5.42219
146570	1.10780	1.03793	0.96950	5.07676	4.86838	4.40351	5.45677	3.70402	2.33734	3.71620	3.46028	3.29297	1.93031	1.65636	1.49720	8.67730	6.90996	5.41992
146740	1.10631	1.03807	0.97085	5.07799	4.87160	4.40343	5.46095	3.70668	2.33736	3.71311	3.45706	3.29190	1.93200	1.65868	1.50181	8.68520	6.91355	5.42375
146900	1.10929	1.03893	0.97323	5.07928	4.87438	4.40760	5.45328	3.70723	2.34103	3.71807	3.46229	3.29445	1.93477	1.65773	1.49857	8.67713	6.91404	5.42559	34.50	6.1	0.00	-2.04	0.01734	0.01203	0.01523	0.01859	0.01915	0.01498	0.00547	0.01516	0.02007	0.01893	0.01325	0.01687	0.01708	0.01763	0.01377	0.00583	0.01637	0.02181
147070	1.10828	1.03789	0.97158	5.07612	4.86829	4.40239	5.45299	3.70222	2.33657	3.71955	3.46150	3.29431	1.93153	1.65602	1.49533	8.67630	6.90930	5.41995
147230	1.10722	1.03671	0.97049	5.07431	4.86916	4.40313	5.44995	3.70134	2.33599	3.71554	3.45915	3.29229	1.93192	1.65846	1.49879	8.67831	6.91141	5.42052
147400	1.11008	1.03976	0.97250	5.07745	4.87167	4.40570	5.46783	3.70812	2.34220	3.71687	3.46166	3.29348	1.93328	1.65588	1.50033	8.67626	6.91060	5.42022
147560	1.10676	1.03774	0.97192	5.07404	4.87037	4.40435	5.45535	3.71127	2.34271	3.71779	3.46060	3.29126	1.93484	1.65769	1.49918	8.68019	6.91268	5.42148
147730	1.10859	1.03673	0.97086	5.07506	4.86827	4.40081	5.45417	3.70403	2.33635	3.71709	3.46113	3.29194	1.93337	1.65858	1.50121	8.67968	6.91444	5.42555
147890	1.10938	1.03879	0.97317	5.07858	4.86919	4.40059	5.45742	3.70414	2.33760	3.71712	3.46003	3.29164	1.93090	1.65707	1.49690	8.67685	6.90926	5.42077
148050	1.10860	1.03852	0.97525	5.07665	4.86993	4.40382	5.46039	3.71012	2.34232	3.72081	3.46513	3.29563	1.93404	1.65911	1.49716	8.68032	6.91219	5.42211
148220	1.10747	1.03779	0.97257	5.07401	4.86529	4.39819	5.45693	3.70432	2.33669	3.71625	3.45983	3.29055	1.93261	1.65798	1.50044	8.67265	6.90916	5.42290
148380	1.10920	1.03927	0.97275	5.07651	4.86789	4.39930	5.46787	3.70523	2.33936	3.71632	3.46114	3.29366	1.93014	1.65728	1.49721	8.66900	6.90723	5.41975
148550	1.10881	1.03911	0.97338	5.07925	4.87321	4.40437	5.46150	3.70779	2.34104	3.71858	3.46528	3.29753	1.93388	1.65984	1.49894	8.67744	6.91109	5.42071	34.50	6.2	0.00	-2.04	0.01734	0.01203	0.01523	0.01859	0.01915	0.01498	0.00547	0.01516	0.02006	0.01893	0.01325	0.01687	0.01707	0.01763	0.01377	0.00583	0.01637	0.02182
148710	1.10728	1.03794	0.97051	5.07862	4.87125	4.40216	5.45772	3.70572	2.33683	3.71547	3.45994	3.29179	1.93284	1.65905	1.50071	8.67776	6.91342	5.42325
148880	1.11046	1.03955	0.97337	5.07948	4.87227	4.40407	5.45943	3.70680	2.34110	3.71799	3.46019	3.29303	1.93115	1.65519	1.49941	8.67238	6.90894	5.41900
149040	1.11005	1.04185	0.97556	5.07756	4.87389	4.40593	5.45720	3.70918	2.34357	3.71975	3.46381	3.29648	1.93469	1.66017	1.50096	8.67868	6.91117	5.42244
149210	1.10937	1.04025	0.97313	5.07819	4.86893	4.40284	5.45240	3.70487	2.33818	3.71776	3.46154	3.29243	1.93364	1.66131	1.50208	8.67895	6.91286	5.42452
149370	1.11121	1.04077	0.97164	5.07863	4.87153	4.40593	5.45695	3.70530	2.34191	3.71853	3.46236	3.29458	1.93191	1.65790	1.49974	8.67585	6.91176	5.42386
149540	1.10946	1.04200	0.97411	5.07944	4.87313	4.40739	5.46268	3.70688	2.34150	3.72269	3.46579	3.29572	1.93437	1.65850	1.50115	8.67836	6.91410	5.42485
149700	1.10923	1.03764	0.97249	5.07894	4.87092	4.40436	5.45358	3.70832	2.33731	3.71659	3.46108	3.29244	1.93048	1.65662	1.49777	8.67384	6.90993	5.41901
149860	1.10730	1.03632	0.97346	5.07377	4.86765	4.40460	5.44960	3.70484	2.33826	3.71722	3.46062	3.29323	1.93176	1.65975	1.49976	8.67891	6.91263	5.42346
150030	1.11044	1.04066	0.97298	5.07481	4.86961	4.40385	5.46663	3.70699	2.34198	3.71994	3.46276	3.29508	1.93199	1.65690	1.49944	8.67557	6.90933	5.42026
150200	1.10872	1.04009	0.97398	5.07506	4.87029	4.40488	5.45870	3.70983	2.34170	3.72050	3.46433	3.29719	1.93382	1.65948	1.50192	8.67543	6.91031	5.42186	34.50	6.2	0.00	-2.04	0.01733	0.01203	0.01522	0.01859	0.01915	0.01498	0.00547	0.01516	0.02006	0.01893	0.01325	0.01687	0.01707	0.01763	0.01377	0.00583	0.01637	0.02182
150360	1.11016	1.03973	0.97332	5.07620	4.86794	4.39961	5.45171	3.70535	2.34042	3.71636	3.45952	3.29268	1.93610	1.66105	1.50363	8.67209	6.91027	5.42367
150530	1.11137	1.04330	0.97573	5.07753	4.86918	4.40297	5.45394	3.70842	2.34279	3.71822	3.46154	3.29473	1.93455	1.66130	1.50044	8.67177	6.90751	5.41884
150690	1.11216	1.03888	0.97308	5.07343	4.86655	4.40065	5.45585	3.70566	2.33858	3.71406	3.45743	3.29101	1.92958	1.65715	1.49809	8.66708	6.90268	5.41477
150860	1.11014	1.04119	0.97495	5.07264	4.86744	4.40184	5.45573	3.71290	2.34368	3.71566	3.45954	3.29394	1.93528	1.65944	1.50224	8.67173	6.90494	5.41729
151020	1.11075	1.04121	0.97265	5.07081	4.86463	4.39847	5.45260	3.70594	2.34091	3.71661	3.45754	3.29001	1.93185	1.65897	1.50096	8.66776	6.90202	5.41331
151190	1.10943	1.03865	0.97209	5.06844	4.86206	4.39630	5.45687	3.70387	2.33877	3.71439	3.45656	3.28890	1.93116	1.66093	1.50395	8.66493	6.90300	5.41651
151350	1.11235	1.04095	0.97492	5.07068	4.86481	4.39893	5.45857	3.70556	2.34003	3.71590	3.45920	3.29204	1.93249	1.66102	1.50141	8.66470	6.89986	5.41266
151520	1.10914	1.04242	0.97478	5.07057	4.86516	4.39844	5.46504	3.70750	2.34034	3.71401	3.45700	3.29162	1.93429	1.66011	1.50092	8.66343	6.89938	5.41204
151680	1.11117	1.04472	0.97640	5.07312	4.86774	4.40150	5.46300	3.70952	2.34382	3.71524	3.45844	3.29365	1.93445	1.65985	1.50250	8.66863	6.90586	5.41699
151850	1.11183	1.04279	0.97491	5.06815	4.86351	4.39755	5.45902	3.70492	2.33897	3.71669	3.45844	3.29282	1.93154	1.65863	1.49884	8.66231	6.90181	5.41473	34.50	6.1	0.00	-2.04	0.01734	0.01203	0.01522	0.01859	0.01915	0.01498	0.00547	0.01516	0.02006	0.01893	0.01325	0.01687	0.01707	0.01763	0.01377	0.00583	0.01637	0.02182
152010	1.10946	1.03985	0.97238	5.06786	4.86028	4.39491	5.45569	3.70227	2.33788	3.71410	3.45666	3.29024	1.93034	1.65793	1.49994	8.66386	6.90090	5.41581
152180	1.11164	1.04102	0.97258	5.06866	4.86235	4.39540	5.44744	3.70603	2.34008	3.71466	3.45803	3.29309	1.93086	1.65645	1.50208	8.66409	6.90064	5.41459
152350	1.11287	1.04171	0.97385	5.07062	4.86583	4.39912	5.45784	3.70525	2.34148	3.71604	3.45911	3.29331	1.93299	1.65770	1.50087	8.66701	6.90168	5.41567
152510	1.11148	1.04165	0.97535	5.07247	4.86498	4.39859	5.45150	3.70416	2.33969	3.71691	3.45854	3.29164	1.93435	1.66105	1.50125	8.66902	6.90558	5.41775
152680	1.11328	1.04217	0.97556	5.07208	4.86778	4.40021	5.46423	3.70873	2.34266	3.71508	3.45635	3.29256	1.93137	1.65814	1.50083	8.66605	6.90301	5.41374
152840	1.11139	1.04268	0.97566	5.06775	4.86387	4.39988	5.45638	3.70458	2.34158	3.71299	3.45468	3.28962	1.93081	1.65828	1.49835	8.66427	6.90366	5.41550
153010	1.11058	1.04168	0.97637	5.06817	4.86651	4.40169	5.46244	3.70342	2.33955	3.71658	3.45782	3.29189	1.93131	1.65854	1.50160	8.66559	6.90202	5.41581
153180	1.11134	1.04327	0.97747	5.07016	4.86508	4.40147	5.46276	3.70665	2.34357	3.71834	3.45790	3.29237	1.93262	1.65845	1.50049	8.66427	6.90043	5.41552
153340	1.11167	1.04161	0.97512	5.06945	4.86380	4.39845	5.45033	3.70568	2.34117	3.71693	3.45831	3.29202	1.93173	1.65791	1.50124	8.66035	6.90094	5.41741
153510	1.10908	1.04152	0.97575	5.06851	4.85960	4.39627	5.45421	3.70225	2.33616	3.71420	3.45669	3.29143	1.93184	1.65927	1.50311	8.66301	6.90502	5.41835	34.50	6.1	0.00	-2.04	0.01733	0.01203	0.01522	0.01859	0.01915	0.01498	0.00547	0.01516	0.02006	0.01893	0.01325	0.01687	0.01707	0.01763	0.01377	0.00583	0.01637	0.02182
153670	1.11235	1.04305	0.97594	5.06942	4.86274	4.39808	5.46205	3.70561	2.33857	3.71541	3.45693	3.29300	1.93244	1.65863	1.50219	8.66524	6.90222	5.41461
153840	1.11193	1.04180	0.97540	5.06609	4.86062	4.39943	5.45592	3.70744	2.34089	3.71576	3.45573	3.29100	1.93038	1.65836	1.50041	8.66283	6.90205	5.41400
154010	1.11024	1.04152	0.97488	5.06188	4.85811	4.39699	5.45482	3.70467	2.34086	3.71421	3.45269	3.28642	1.93130	1.65700	1.49711	8.65799	6.89733	5.41168
154170	1.11218	1.04331	0.97758	5.06563	4.86039	4.39859	5.46161	3.70785	2.34557	3.71695	3.45892	3.29139	1.93406	1.65956	1.50386	8.66296	6.90097	5.41427
154340	1.11227	1.04098	0.97658	5.06479	4.85881	4.39556	5.45555	3.70356	2.34100	3.71455	3.45617	3.29005	1.93258	1.65669	1.50196	8.65617	6.89684	5.41175
154500	1.10930	1.04225	0.97567	5.06357	4.85852	4.39589	5.45051	3.70197	2.33941	3.71341	3.45434	3.28790	1.92979	1.65751	1.49804	8.65503	6.89457	5.41019
154670	1.11061	1.03964	0.97491	5.06382	4.85846	4.39524	5.45693	3.70802	2.33986	3.71367	3.45277	3.28906	1.93096	1.65567	1.50005	8.65872	6.89502	5.40895
154830	1.11052	1.04122	0.97406	5.06267	4.85736	4.39345	5.44791	3.70410	2.33675	3.70828	3.44938	3.28490	1.93182	1.65864	1.49985	8.65540	6.89460	5.40921
155000	1.11247	1.04191	0.97476	5.06464	4.86135	4.39761	5.45522	3.70577	2.33967	3.71181	3.45302	3.28963	1.93124	1.65607	1.49917	8.65881	6.89519	5.41012
155160	1.11154	1.03991	0.97425	5.06594	4.86130	4.39585	5.46136	3.70516	2.33892	3.71315	3.45421	3.28878	1.93052	1.65797	1.49886	8.65927	6.89390	5.40925	34.50	5.9	0.00	-2.04	0.01733	0.01203	0.01522	0.01859	0.01915	0.01498	0.00547	0.01516	0.02006	0.01893	0.01325	0.01687	0.01707	0.01763	0.01377	0.00583	0.01637	0.02182
155330	1.11182	1.04406	0.97611	5.06706	4.86151	4.39797	5.45173	3.71014	2.34225	3.71629	3.45641	3.29141	1.93428	1.65963	1.50102	8.66296	6.89969	5.41372
155490	1.11180	1.04117	0.97707	5.06507	4.85906	4.39545	5.45283	3.70363	2.33914	3.71258	3.45217	3.28760	1.93205	1.65784	1.49879	8.66059	6.89598	5.40936
155660	1.10976	1.03959	0.97353	5.06123	4.85522	4.39387	5.45441	3.70211	2.33743	3.71086	3.45021	3.28627	1.93280	1.66036	1.50332	8.66260	6.90059	5.41310
155830	1.11267	1.04344	0.97594	5.06356	4.85729	4.39613	5.45267	3.70490	2.34147	3.71350	3.45247	3.28719	1.93094	1.65571	1.49943	8.66264	6.89977	5.41121
155990	1.11192	1.04069	0.97623	5.06311	4.85834	4.39516	5.45397	3.70563	2.34204	3.71213	3.45175	3.28675	1.93049	1.65844	1.50060	8.66552	6.89950	5.41115
156160	1.11139	1.04374	0.97572	5.06445	4.86109	4.39802	5.45994	3.70834	2.34370	3.71629	3.45437	3.28825	1.93212	1.66063	1.50241	8.66524	6.90280	5.41485
156320	1.11173	1.04105	0.97514	5.06355	4.85856	4.39633	5.45080	3.70524	2.34027	3.71469	3.45392	3.28886	1.93042	1.65529	1.49874	8.65890	6.89673	5.41074
156490	1.10877	1.03717	0.97292	5.06345	4.85605	4.39198	5.45523	3.70241	2.33764	3.70901	3.44923	3.28522	1.93035	1.65795	1.50126	8.66255	6.89836	5.41078
156650	1.10992	1.04216	0.97392	5.06552	4.86045	4.39476	5.45665	3.70394	2.33938	3.71126	3.45372	3.29002	1.92974	1.65728	1.49926	8.66757	6.89847	5.41076
156820	1.10983	1.04166	0.97388	5.06600	4.86143	4.39618	5.45661	3.70348	2.33705	3.71412	3.45421	3.28879	1.93137	1.65891	1.50091	8.66673	6.90384	5.41510	34.50	5.9	0.00	-2.04	0.01733	0.01203	0.01522	0.01859	0.01915	0.01498	0.00547	0.01516	0.02006	0.01893	0.01325	0.01687	0.01707	0.01763	0.01377	0.00583	0.01637	0.02182
156980	1.11316	1.04073	0.97530	5.06947	4.86600	4.40011	5.47007	3.70563	2.34077	3.71713	3.45707	3.29230	1.93078	1.65646	1.50046	8.66823	6.90314	5.41526
157150	1.11050	1.04244	0.97255	5.07054	4.86780	4.40004	5.45645	3.70685	2.33884	3.71672	3.45833	3.29123	1.92855	1.65426	1.49693	8.66600	6.90150	5.41281
157320	1.10825	1.03878	0.97510	5.06865	4.86828	4.40119	5.45827	3.70623	2.34298	3.72082	3.46262	3.29794	1.93220	1.65525	1.50065	8.67161	6.90509	5.41681
157480	1.10913	1.04009	0.97280	5.07364	4.86890	4.40136	5.45494	3.70224	2.33891	3.71741	3.46056	3.29322	1.92881	1.65716	1.49765	8.66819	6.90470	5.41690
157650	1.10922	1.03769	0.97301	5.07187	4.86744	4.40201	5.45535	3.70225	2.33674	3.71859	3.46249	3.29792	1.92967	1.65657	1.50195	8.67448	6.90909	5.42143
157810	1.10994	1.04031	0.97233	5.07947	4.87364	4.40665	5.44865	3.70250	2.34060	3.72056	3.46414	3.29982	1.92709	1.65481	1.50034	8.67462	6.90846	5.42043
157980	1.10946	1.04066	0.97278	5.07973	4.87533	4.40716	5.45356	3.70555	2.33771	3.72212	3.46687	3.30223	1.92959	1.65412	1.49829	8.67074	6.90689	5.41974
158140	1.10730	1.03970	0.97436	5.08001	4.87582	4.40945	5.46539	3.70464	2.33981	3.72698	3.47065	3.30363	1.92899	1.65712	1.49875	8.67599	6.91263	5.42584
158310	1.10972	1.04161	0.97237	5.08071	4.87745	4.41164	5.45384	3.70350	2.33814	3.72629	3.47030	3.30257	1.92968	1.65685	1.49908	8.66878	6.91089	5.42509
158480	1.10864	1.03823	0.96951	5.07980	4.87521	4.40720	5.44828	3.69724	2.33684	3.72438	3.46900	3.30115	1.93101	1.65705	1.50058	8.67476	6.91449	5.42881	34.50	6.1	0.00	-2.04	0.01733	0.01203	0.01522	0.01859	0.01915	0.01498	0.00547	0.01516	0.02006	0.01893	0.01325	0.01687	0.01707	0.01763	0.01377	0.00583	0.01637	0.02182
158640	1.11079	1.04109	0.97435	5.08352	4.87859	4.41000	5.45218	3.70569	2.34028	3.72725	3.47133	3.30545	1.93141	1.65696	1.49974	8.67348	6.91083	5.42626
158810	1.11069	1.04090	0.97598	5.08320	4.87861	4.41194	5.45604	3.70298	2.34058	3.72722	3.47222	3.30660	1.92919	1.65502	1.49855	8.67101	6.91077	5.42662
158970	1.11025	1.03948	0.97368	5.08359	4.87899	4.41274	5.44775	3.70171	2.34006	3.73042	3.47328	3.30602	1.92923	1.65353	1.49680	8.67494	6.91317	5.42869
159140	1.11028	1.04333	0.97621	5.08915	4.88511	4.41772	5.45193	3.70603	2.34273	3.73437	3.47818	3.31267	1.93313	1.65674	1.49988	8.68307	6.91853	5.43201
159300	1.10949	1.04004	0.97548	5.08960	4.88483	4.41780	5.45721	3.70422	2.34168	3.73556	3.47958	3.31226	1.93449	1.65674	1.50244	8.67782	6.91552	5.42972
159470	1.11005	1.03963	0.97542	5.08574	4.88194	4.41571	5.45685	3.70360	2.34037	3.73351	3.47522	3.30708	1.93060	1.65548	1.49860	8.67503	6.91543	5.43058
159630	1.11005	1.04099	0.97286	5.08537	4.88246	4.41844	5.44978	3.70048	2.33883	3.73398	3.47740	3.31070	1.92928	1.65691	1.49772	8.67960	6.91829	5.43210
159800	1.10946	1.03933	0.97470	5.08824	4.88385	4.41914	5.45746	3.69996	2.34028	3.73312	3.47726	3.30986	1.93092	1.65749	1.50284	8.68275	6.92113	5.43571
159970	1.11008	1.04416	0.97480	5.08993	4.88441	4.41839	5.44738	3.70388	2.33955	3.73720	3.47879	3.31377	1.93035	1.65575	1.49813	8.67964	6.91988	5.43386
160130	1.10919	1.04050	0.97371	5.08908	4.88543	4.42045	5.45145	3.70039	2.33720	3.73541	3.47908	3.31409	1.92932	1.65372	1.49788	8.67832	6.91805	5.43384	34.50	5.9	0.00	-2.04	0.01734	0.01203	0.01522	0.01859	0.01915	0.01498	0.00547	0.01516	0.02006	0.01893	0.01325	0.01687	0.01707	0.01763	0.01377	0.00583	0.01637	0.02182
160300	1.10933	1.04072	0.97461	5.09233	4.88806	4.42332	5.45787	3.70341	2.34258	3.74059	3.48402	3.31769	1.93113	1.65630	1.50013	8.68503	6.92286	5.43790
160460	1.10979	1.03918	0.97469	5.09231	4.88736	4.42297	5.44426	3.70576	2.34062	3.74107	3.48449	3.31822	1.93127	1.65416	1.49870	8.68215	6.92290	5.43833
160630	1.10885	1.03764	0.97255	5.09210	4.88739	4.42105	5.45015	3.69761	2.33717	3.73977	3.48393	3.31773	1.93079	1.65623	1.50224	8.68947	6.92960	5.44528
160790	1.11031	1.04149	0.97562	5.09849	4.89403	4.42695	5.45352	3.70154	2.33855	3.74250	3.48765	3.32258	1.92702	1.65455	1.49711	8.68919	6.92448	5.43991
160960	1.11011	1.04018	0.97273	5.09616	4.89279	4.42470	5.46043	3.70271	2.33872	3.74181	3.48657	3.32145	1.92919	1.65335	1.49586	8.68851	6.92477	5.43738
161120	1.11024	1.04185	0.97523	5.09795	4.89605	4.43012	5.45909	3.70514	2.34189	3.74692	3.49008	3.32504	1.93180	1.65708	1.50131	8.69217	6.92824	5.44258
161290	1.11074	1.04092	0.97496	5.10187	4.89829	4.42913	5.44771	3.70232	2.33740	3.74828	3.49215	3.32468	1.92868	1.65206	1.49536	8.69148	6.92848	5.44371
161450	1.10840	1.03627	0.97332	5.10088	4.89833	4.43065	5.43939	3.69607	2.33498	3.74980	3.49236	3.32516	1.92839	1.65350	1.49917	8.69185	6.93202	5.44586
161620	1.10813	1.03849	0.97388	5.10339	4.90192	4.43256	5.44738	3.69911	2.33650	3.74757	3.49322	3.32797	1.93095	1.65660	1.50273	8.69464	6.93380	5.44725
161790	1.11072	1.04224	0.97644	5.10628	4.90457	4.43343	5.45125	3.70484	2.33973	3.74989	3.49569	3.33148	1.93052	1.65291	1.49696	8.69236	6.93122	5.44727	34.50	6.0	0.00	-2.04	0.01734	0.01203	0.01522	0.01859	0.01915	0.01498	0.00547	0.01516	0.02006	0.01893	0.01325	0.01687	0.01707	0.01763	0.01377	0.00583	0.01637	0.02182
161950	1.10914	1.03842	0.97260	5.10915	4.90424	4.43030	5.44783	3.69908	2.33550	3.74760	3.49407	3.32932	1.92674	1.65257	1.49676	8.69167	6.92962	5.44607
162110	1.10544	1.03691	0.97305	5.10563	4.90421	4.43343	5.45405	3.69818	2.33757	3.74970	3.49499	3.32943	1.92843	1.65246	1.49743	8.69780	6.93383	5.44698
162280	1.10620	1.03955	0.97220	5.10649	4.90435	4.43268	5.44788	3.69585	2.33316	3.75096	3.49678	3.32829	1.92892	1.65502	1.50065	8.70160	6.93674	5.45097
162450	1.10856	1.03885	0.97232	5.11263	4.90987	4.43612	5.44053	3.70068	2.33624	3.75318	3.50075	3.33143	1.92832	1.65405	1.49960	8.69785	6.93401	5.44814
162610	1.10792	1.03661	0.97271	5.11115	4.90713	4.43431	5.44540	3.69771	2.33556	3.75148	3.49859	3.32984	1.92566	1.65099	1.49592	8.69510	6.93173	5.44680
162780	1.10644	1.03910	0.97443	5.11167	4.91005	4.43831	5.44621	3.70009	2.33707	3.75746	3.50343	3.33344	1.93004	1.65107	1.49802	8.69616	6.93629	5.45065
162940	1.10474	1.03999	0.97237	5.10930	4.90754	4.43535	5.43599	3.69373	2.33276	3.75372	3.50100	3.33033	1.92766	1.65124	1.49622	8.69369	6.93308	5.44940
163110	1.10567	1.03769	0.97068	5.10877	4.90772	4.43631	5.43814	3.69465	2.33327	3.75439	3.50197	3.33348	1.92639	1.65527	1.49512	8.69606	6.93569	5.45145
163270	1.10730	1.03774	0.97380	5.11206	4.90947	4.43584	5.44402	3.69361	2.33513	3.75602	3.50363	3.33215	1.92673	1.65117	1.49359	8.69332	6.93394	5.45037
163440	1.10657	1.04049	0.97475	5.11114	4.91091	4.44128	5.44374	3.70102	2.33744	3.75987	3.50587	3.33770	1.93063	1.65219	1.49588	8.70003	6.93701	5.45308	34.50	6.0	0.00	-2.04	0.01733	0.01203	0.01522	0.01859	0.01915	0.01498	0.00547	0.01516	0.02006	0.01893	0.01325	0.01687	0.01707	0.01763	0.01377	0.00583	0.01637	0.02182
163600	1.10623	1.03726	0.97142	5.11418	4.91269	4.44226	5.45231	3.69366	2.33475	3.75807	3.50475	3.33711	1.92511	1.65053	1.49534	8.69880	6.93585	5.45052
163770	1.10681	1.03570	0.96800	5.11010	4.90765	4.43834	5.44102	3.69134	2.33064	3.75515	3.50404	3.33678	1.92451	1.65122	1.49838	8.70154	6.93816	5.45359
163930	1.10600	1.03715	0.97078	5.11420	4.91270	4.44059	5.44463	3.69353	2.33365	3.75805	3.50593	3.33985	1.92605	1.65068	1.49346	8.69669	6.93394	5.45078
164100	1.10340	1.03574	0.97027	5.11321	4.91084	4.44088	5.44123	3.69272	2.33284	3.75819	3.50637	3.33663	1.92744	1.65419	1.49830	8.70347	6.93948	5.45506
164260	1.10790	1.03803	0.97185	5.11731	4.91491	4.44395	5.44731	3.69541	2.33519	3.75879	3.50659	3.33630	1.92673	1.65034	1.49424	8.69582	6.93761	5.45186
164430	1.10472	1.03489	0.96950	5.11125	4.90731	4.43680	5.44187	3.69217	2.33012	3.75722	3.50321	3.33331	1.92305	1.64842	1.49278	8.69235	6.93302	5.44890
164590	1.10259	1.03437	0.96998	5.10912	4.90760	4.43810	5.43916	3.69442	2.33250	3.75494	3.50277	3.33393	1.92498	1.64965	1.49506	8.69509	6.93357	5.45099
164760	1.10476	1.03581	0.96821	5.11002	4.90703	4.43746	5.43457	3.69264	2.33043	3.75559	3.50349	3.33261	1.92773	1.65365	1.49711	8.69743	6.93501	5.45118
164930	1.10734	1.03749	0.97042	5.11097	4.90816	4.43811	5.44979	3.69460	2.33167	3.75519	3.50071	3.33314	1.92652	1.65210	1.49497	8.70104	6.94092	5.45480
165090	1.10932	1.03644	0.96966	5.11128	4.90625	4.43375	5.44585	3.69224	2.33253	3.75658	3.50468	3.33556	1.92493	1.65011	1.49516	8.69159	6.92992	5.44756	34.50	6.0	0.00	-2.04	0.01733	0.01203	0.01522	0.01859	0.01915	0.01498	0.00547	0.01516	0.02006	0.01893	0.01325	0.01687	0.01707	0.01763	0.01377	0.00583	0.01637	0.02182
165260	1.10609	1.03833	0.97419	5.11520	4.91341	4.44074	5.44711	3.69859	2.33629	3.75945	3.50840	3.34095	1.92840	1.65303	1.49806	8.69878	6.93649	5.45415
165420	1.10816	1.03891	0.97437	5.11528	4.90964	4.43886	5.44610	3.69253	2.33362	3.75887	3.50626	3.33801	1.92718	1.65385	1.50087	8.70038	6.93729	5.45335
165590	1.10710	1.03677	0.97198	5.11289	4.90824	4.43662	5.44342	3.69545	2.33012	3.75827	3.50603	3.33660	1.93037	1.65627	1.50012	8.69736	6.93804	5.45483
165750	1.10863	1.03976	0.97313	5.11365	4.90926	4.43611	5.43985	3.69841	2.33609	3.75947	3.50728	3.33705	1.92915	1.65367	1.49842	8.69480	6.93043	5.44711
165920	1.10899	1.03669	0.97418	5.10961	4.91058	4.44218	5.44476	3.69538	2.33458	3.75306	3.49895	3.33315	1.92620	1.65231	1.49650	8.69663	6.93376	5.44664
166080	1.10956	1.04134	0.97754	5.11226	4.91324	4.44576	5.44719	3.69712	2.33838	3.76231	3.50532	3.33600	1.92907	1.65527	1.49692	8.70230	6.94081	5.45363
166250	1.10796	1.03821	0.97548	5.11203	4.91163	4.44247	5.45069	3.69548	2.33580	3.75829	3.50674	3.33642	1.92658	1.65046	1.49572	8.69933	6.93765	5.45157
166410	1.10733	1.03805	0.97035	5.11392	4.91222	4.44002	5.44285	3.69503	2.32977	3.75446	3.50291	3.33541	1.92576	1.65079	1.49490	8.69672	6.93154	5.44706
166580	1.10622	1.03743	0.97058	5.10786	4.90722	4.43532	5.45069	3.69429	2.33038	3.75117	3.50264	3.33760	1.92441	1.65153	1.49588	8.69548	6.93546	5.45255
166750	1.10680	1.03877	0.97223	5.11052	4.90625	4.43575	5.44550	3.69226	2.33055	3.75288	3.50194	3.33525	1.92729	1.65310	1.49959	8.69974	6.93810	5.45499	34.50	6.1	0.00	-2.04	0.01733	0.01203	0.01522	0.01859	0.01915	0.01498	0.00547	0.01516	0.02006	0.01893	0.01325	0.01687	0.01707	0.01763	0.01377	0.00583	0.01637	0.02182
166910	1.10906	1.03819	0.97555	5.11544	4.91317	4.44286	5.44684	3.69813	2.33531	3.75816	3.50639	3.33928	1.92580	1.65187	1.49644	8.70089	6.93886	5.45589
167080	1.10823	1.03555	0.97268	5.11230	4.90903	4.44121	5.44347	3.69222	2.33234	3.75713	3.50387	3.33663	1.92332	1.64714	1.49253	8.69736	6.93649	5.45416
167240	1.10241	1.03463	0.97227	5.11368	4.90988	4.43798	5.45367	3.69565	2.33332	3.76270	3.51413	3.34747	1.92522	1.65187	1.49469	8.70414	6.93652	5.45250
167410	1.10536	1.03412	0.97101	5.11620	4.90914	4.43650	5.43828	3.69470	2.33133	3.75935	3.50742	3.34203	1.92271	1.64958	1.49389	8.70020	6.93722	5.45186
167570	1.10387	1.03714	0.96974	5.11432	4.91238	4.44230	5.45054	3.69241	2.32897	3.75692	3.50370	3.33749	1.92624	1.65052	1.49807	8.70322	6.93559	5.45087
167740	1.10744	1.03553	0.97144	5.11890	4.91471	4.44202	5.45680	3.69517	2.33472	3.76405	3.51213	3.34121	1.92736	1.65266	1.49486	8.70350	6.94000	5.45724
167900	1.10710	1.03577	0.97203	5.11430	4.91106	4.44269	5.45472	3.69656	2.33379	3.76440	3.50866	3.33597	1.92252	1.64890	1.49206	8.69233	6.93611	5.45399
168070	1.10736	1.03843	0.97215	5.12291	4.92200	4.45189	5.45363	3.70020	2.33532	3.76782	3.51476	3.34317	1.92837	1.65233	1.49514	8.70240	6.94445	5.46109
168240	1.10782	1.03636	0.97320	5.12042	4.91795	4.45098	5.44879	3.69851	2.33443	3.76662	3.51004	3.33931	1.92570	1.65101	1.49585	8.70739	6.94627	5.46288
168400	1.10682	1.03707	0.97100	5.11718	4.91385	4.44647	5.43866	3.69151	2.32973	3.76294	3.50821	3.33904	1.92847	1.65312	1.49873	8.71014	6.94971	5.46580	34.50	6.1	0.00	-2.04	0.01733	0.01203	0.01522	0.01859	0.01915	0.01498	0.00547	0.01516	0.02006	0.01893	0.01325	0.01687	0.01707	0.01762	0.01377	0.00583	0.01637	0.02182
168570	1.10779	1.03889	0.97323	5.11957	4.91598	4.44786	5.44519	3.69875	2.33296	3.76565	3.51150	3.34372	1.92808	1.65054	1.49597	8.70867	6.94892	5.46447
168730	1.10751	1.03883	0.97345	5.11783	4.91313	4.44735	5.45303	3.69839	2.33500	3.76837	3.51303	3.34369	1.92725	1.65010	1.49805	8.70409	6.94449	5.46312
168900	1.10804	1.03724	0.97303	5.11691	4.91102	4.44188	5.45279	3.69723	2.33546	3.76586	3.51505	3.34514	1.93072	1.65320	1.49772	8.70455	6.94237	5.46017
169060	1.10975	1.03784	0.97416	5.11892	4.91549	4.44744	5.45388	3.69793	2.33570	3.76261	3.50979	3.34315	1.92908	1.65062	1.49553	8.70519	6.94263	5.45773
169230	1.10737	1.03664	0.97479	5.11591	4.91233	4.44188	5.44791	3.69970	2.33544	3.75816	3.50394	3.33933	1.92800	1.65278	1.49769	8.70052	6.93987	5.45374
169400	1.10629	1.03628	0.97485	5.11294	4.91147	4.44294	5.44661	3.70110	2.33887	3.76087	3.50548	3.34162	1.93133	1.65609	1.49974	8.70688	6.94029	5.45471
169560	1.11086	1.04114	0.97305	5.11674	4.91226	4.43957	5.44901	3.69856	2.33556	3.75703	3.50501	3.33867	1.93031	1.65288	1.49947	8.70015	6.93954	5.45322
169730	1.10994	1.03764	0.97516	5.11409	4.91044	4.44009	5.45750	3.69473	2.33181	3.75274	3.50230	3.33959	1.93035	1.65478	1.50096	8.70272	6.94272	5.45657
169890	1.11075	1.03999	0.97703	5.11905	4.91585	4.44407	5.44580	3.69962	2.33712	3.76307	3.50824	3.34389	1.92930	1.65271	1.49742	8.71105	6.94571	5.46143
170060	1.10875	1.03708	0.97437	5.11714	4.91278	4.44099	5.45325	3.69688	2.33332	3.76934	3.51273	3.34266	1.92794	1.65255	1.49924	8.70724	6.94807	5.46532	34.50	6.0	0.00	-2.04	0.01733	0.01203	0.01522	0.01859	0.01915	0.01498	0.00547	0.01516	0.02006	0.01893	0.01325	0.01687	0.01707	0.01762	0.01377	0.00583	0.01637	0.02182
170220	1.10646	1.03688	0.97509	5.11924	4.91296	4.44560	5.44797	3.70015	2.33664	3.76628	3.50675	3.33725	1.92737	1.65206	1.49658	8.70797	6.94215	5.45553
170390	1.10919	1.03764	0.97640	5.11730	4.91488	4.44442	5.45304	3.70058	2.33696	3.76176	3.50482	3.33693	1.93070	1.65371	1.49918	8.70875	6.94352	5.45794
170560	1.10918	1.03544	0.97345	5.11212	4.90955	4.44196	5.45849	3.69800	2.33436	3.76064	3.50268	3.33667	1.92708	1.65064	1.49468	8.70715	6.94272	5.45437
170720	1.10709	1.03417	0.97175	5.11204	4.90798	4.43927	5.43794	3.69366	2.33410	3.75629	3.49942	3.33255	1.92879	1.65502	1.49925	8.70898	6.94468	5.45811
170890	1.11032	1.03893	0.97435	5.11229	4.90579	4.44008	5.44492	3.69859	2.33394	3.76350	3.50465	3.33560	1.92787	1.65461	1.49722	8.70779	6.94294	5.45746
171050	1.10777	1.03833	0.97411	5.11604	4.91045	4.43978	5.44890	3.69773	2.33599	3.76091	3.50636	3.34037	1.92882	1.65098	1.49794	8.70261	6.93897	5.45470
171220	1.10858	1.03821	0.97447	5.11553	4.91194	4.43997	5.44776	3.69870	2.33689	3.75725	3.50344	3.33523	1.93024	1.65551	1.49964	8.70527	6.94192	5.45296
171380	1.11009	1.04034	0.97669	5.11240	4.90770	4.44021	5.45442	3.69655	2.33517	3.75793	3.50266	3.33415	1.92811	1.65266	1.49780	8.70037	6.94109	5.45358
171550	1.10903	1.03795	0.97480	5.11180	4.90606	4.43497	5.44399	3.69627	2.33371	3.75119	3.49544	3.32992	1.92514	1.64872	1.49678	8.69675	6.93261	5.44585
171720	1.10756	1.03571	0.97430	5.10294	4.90247	4.43621	5.44558	3.69878	2.33500	3.75186	3.49844	3.33267	1.93037	1.65265	1.49450	8.70571	6.93886	5.44939	34.45	6.0	0.00	-2.04	0.01733	0.01203	0.01522	0.01859	0.01915	0.01498	0.00547	0.01516	0.02006	0.01893	0.01325	0.01687	0.01707	0.01763	0.01377	0.00583	0.01637	0.02182
171880	1.10733	1.03541	0.97464	5.10958	4.90534	4.43663	5.44039	3.69652	2.33247	3.75467	3.50149	3.33458	1.92589	1.65431	1.49477	8.70049	6.93943	5.45555
172050	1.10676	1.03195	0.97003	5.10821	4.89982	4.43384	5.43974	3.68955	2.33199	3.74778	3.49054	3.32667	1.92788	1.65344	1.50105	8.70278	6.94321	5.45535
172210	1.11015	1.03832	0.97395	5.10785	4.90453	4.43376	5.44887	3.69686	2.33550	3.74951	3.49823	3.33364	1.92731	1.65218	1.49846	8.70461	6.93977	5.45359
172380	1.10942	1.03747	0.97411	5.11219	4.90369	4.43359	5.44696	3.69438	2.33381	3.75686	3.50605	3.34093	1.92546	1.65190	1.49831	8.70168	6.93948	5.45223
172540	1.10659	1.03535	0.97356	5.11316	4.91007	4.44078	5.44968	3.69845	2.33572	3.75735	3.50322	3.33488	1.92592	1.64980	1.49749	8.70475	6.94017	5.45208
172710	1.10763	1.03624	0.97502	5.11478	4.91259	4.44194	5.45728	3.70012	2.33781	3.75906	3.50682	3.34132	1.93095	1.65314	1.49947	8.70919	6.94090	5.45530
172880	1.10814	1.03676	0.97528	5.11651	4.91404	4.44241	5.45147	3.69914	2.33705	3.76224	3.50721	3.33872	1.92754	1.65234	1.49650	8.70543	6.94262	5.46070
173040	1.10789	1.03356	0.97450	5.11852	4.91381	4.44345	5.44713	3.69491	2.33258	3.75834	3.50669	3.34242	1.92884	1.65332	1.49928	8.71240	6.94564	5.46337
173210	1.11081	1.03897	0.97530	5.12997	4.92128	4.44229	5.45249	3.69860	2.33441	3.75660	3.50779	3.34324	1.92562	1.65514	1.49860	8.71354	6.95066	5.46430
173370	1.11087	1.03693	0.97493	5.11552	4.91160	4.44374	5.45254	3.69935	2.33413	3.76655	3.51047	3.34025	1.92631	1.65325	1.49838	8.71162	6.94779	5.46252	34.50	6.0	0.00	-2.04	0.01733	0.01203	0.01522	0.01859	0.01915	0.01498	0.00547	0.01516	0.02006	0.01893	0.01325	0.01687	0.01707	0.01762	0.01377	0.00583	0.01637	0.02181
173540	1.11094	1.03849	0.97326	5.11821	4.91408	4.44228	5.45530	3.69492	2.33593	3.75760	3.50566	3.33728	1.92781	1.65640	1.49988	8.71061	6.94764	5.46075
173700	1.11186	1.04039	0.97767	5.11987	4.91803	4.44755	5.44511	3.70055	2.33619	3.76470	3.50844	3.33808	1.92880	1.65300	1.49968	8.70937	6.94585	5.45934
173870	1.11011	1.03725	0.97355	5.11462	4.91064	4.44128	5.45290	3.69730	2.33492	3.76010	3.50423	3.33680	1.92704	1.64956	1.49635	8.70379	6.94113	5.45606
174040	1.10763	1.03902	0.97731	5.11283	4.90857	4.44262	5.45002	3.69994	2.33737	3.76651	3.51147	3.34007	1.92896	1.65305	1.50073	8.71093	6.94729	5.46300
174200	1.11018	1.03683	0.97544	5.11594	4.90997	4.44125	5.45579	3.69841	2.33499	3.76077	3.50691	3.33899	1.92681	1.65168	1.49822	8.71061	6.94360	5.45765
174370	1.10911	1.03678	0.97402	5.11487	4.91207	4.44327	5.45120	3.69576	2.33225	3.75874	3.50224	3.33252	1.92902	1.65608	1.50161	8.70566	6.94573	5.46109
174530	1.11210	1.03877	0.97617	5.11827	4.91217	4.44114	5.44665	3.70090	2.33567	3.75973	3.50565	3.33756	1.92732	1.65154	1.49917	8.70099	6.93996	5.45705
174700	1.11028	1.03730	0.97577	5.11937	4.91518	4.44156	5.44604	3.69984	2.33615	3.75589	3.50514	3.33899	1.92633	1.65389	1.49681	8.70566	6.94045	5.45414
174860	1.11123	1.03781	0.97741	5.11789	4.91521	4.44452	5.45453	3.70059	2.33735	3.76051	3.50539	3.33527	1.92848	1.65450	1.50135	8.70575	6.94424	5.45762
175030	1.11044	1.03511	0.97584	5.11577	4.91346	4.44318	5.45021	3.69678	2.33556	3.75408	3.50076	3.33328	1.92665	1.65335	1.50012	8.70597	6.94213	5.45676	34.50	6.2	0.00	-2.04	0.01733	0.01203	0.01522	0.01859	0.01915	0.01498	0.00547	0.01516	0.02006	0.01893	0.01325	0.01687	0.01707	0.01763	0.01377	0.00583	0.01637	0.02181
175190	1.10873	1.03420	0.97254	5.11071	4.90506	4.43598	5.45208	3.69235	2.33164	3.75276	3.49791	3.32967	1.92611	1.65417	1.49970	8.70821	6.94537	5.45810
175360	1.10869	1.03728	0.97330	5.11338	4.90767	4.43860	5.44501	3.69527	2.33174	3.75465	3.50044	3.33140	1.92646	1.65102	1.49628	8.70235	6.93792	5.45068
175530	1.10891	1.03680	0.97213	5.11155	4.90571	4.43439	5.44290	3.69589	2.33266	3.75445	3.50055	3.33060	1.92459	1.64893	1.49450	8.70034	6.93682	5.44945
175690	1.10865	1.03832	0.97403	5.11084	4.90825	4.43646	5.45395	3.69630	2.33581	3.75142	3.49864	3.33049	1.92790	1.65284	1.49921	8.70418	6.94041	5.45105
175860	1.10821	1.03577	0.97225	5.10741	4.90397	4.43688	5.44266	3.69573	2.33167	3.75334	3.49843	3.32793	1.92233	1.65105	1.49409	8.69215	6.93551	5.44924
176020	1.10460	1.03264	0.96978	5.10360	4.89928	4.43087	5.44067	3.69011	2.33000	3.75167	3.49984	3.33017	1.92097	1.64990	1.49729	8.69425	6.93595	5.45043
176190	1.10409	1.03536	0.97280	5.10993	4.90683	4.43672	5.44786	3.69349	2.33013	3.75349	3.50138	3.33461	1.92242	1.65095	1.49789	8.70729	6.93933	5.45282
176350	1.10717	1.03400	0.97235	5.11393	4.90907	4.43606	5.45127	3.69360	2.33167	3.75255	3.50309	3.33570	1.92425	1.65344	1.49818	8.69992	6.93961	5.45518
176520	1.10709	1.03785	0.97107	5.11698	4.91311	4.44002	5.45220	3.69787	2.33219	3.75561	3.50571	3.33713	1.92535	1.65187	1.49596	8.70395	6.93992	5.45526
176690	1.10707	1.03671	0.97403	5.11633	4.91249	4.44003	5.45318	3.69632	2.33188	3.75554	3.50691	3.33767	1.92407	1.65009	1.49504	8.70204	6.94006	5.45438	34.50	6.1	0.00	-2.04	0.01733	0.01203	0.01522	0.01859	0.01915	0.01498	0.00547	0.01516	0.02006	0.01892	0.01325	0.01687	0.01707	0.01763	0.01377	0.00583	0.01637	0.02181
176850	1.10598	1.03505	0.97277	5.11232	4.90833	4.43788	5.45610	3.69367	2.33217	3.75676	3.50662	3.33716	1.92414	1.65026	1.49522	8.70190	6.93962	5.45399
177020	1.10702	1.03640	0.97366	5.11810	4.91734	4.44533	5.44635	3.69741	2.33294	3.76179	3.51305	3.34363	1.92515	1.64995	1.49675	8.70790	6.94324	5.45798
177180	1.10672	1.03563	0.97195	5.12105	4.91862	4.44766	5.44741	3.69345	2.33020	3.75927	3.51136	3.34233	1.92326	1.65068	1.49440	8.70758	6.94284	5.45915
177350	1.10697	1.03477	0.97105	5.12234	4.91860	4.44543	5.44168	3.69494	2.33003	3.76171	3.51477	3.34484	1.92429	1.65277	1.49983	8.71459	6.94986	5.46671
177510	1.10993	1.03756	0.97346	5.12954	4.92680	4.45348	5.44420	3.69658	2.33459	3.76816	3.51928	3.34875	1.92522	1.65161	1.49596	8.71427	6.94957	5.46590
177680	1.10892	1.03564	0.97338	5.12621	4.92390	4.45072	5.44956	3.69631	2.32988	3.76712	3.51886	3.34724	1.92394	1.64964	1.49506	8.71335	6.94839	5.46707
177840	1.10636	1.03547	0.97163	5.12846	4.92287	4.45218	5.44769	3.69593	2.33098	3.77172	3.52140	3.34971	1.92272	1.64964	1.49502	8.71033	6.94589	5.46383
178010	1.10767	1.03837	0.97572	5.13126	4.92695	4.45345	5.45822	3.69922	2.33330	3.77013	3.52142	3.35273	1.92641	1.65201	1.49676	8.71537	6.94997	5.46736
178180	1.10894	1.03611	0.97352	5.13052	4.92549	4.45230	5.45370	3.69554	2.33352	3.77014	3.51952	3.34986	1.92338	1.64972	1.49502	8.70785	6.95021	5.46751
178340	1.10782	1.03378	0.97227	5.12788	4.92187	4.45093	5.44078	3.69164	2.32779	3.76706	3.51773	3.34876	1.92095	1.65014	1.49627	8.71543	6.95326	5.46857	34.50	6.1	0.00	-2.04	0.01733	0.01203	0.01522	0.01859	0.01915	0.01498	0.00547	0.01516	0.02006	0.01892	0.01325	0.01687	0.01707	0.01763	0.01377	0.00583	0.01637	0.02181
178510	1.10722	1.03963	0.97588	5.12846	4.92657	4.45743	5.44467	3.69765	2.33374	3.77247	3.52117	3.35264	1.92508	1.65028	1.49701	8.71722	6.95615	5.47214
178680	1.11009	1.03809	0.97634	5.12888	4.92314	4.45532	5.44658	3.69607	2.33286	3.77116	3.51866	3.34950	1.92360	1.65080	1.49864	8.71951	6.95406	5.46982
178840	1.10970	1.03777	0.97579	5.12824	4.92302	4.45463	5.45633	3.69761	2.33534	3.77328	3.51916	3.35208	1.92456	1.65288	1.49894	8.71488	6.95193	5.46866
179010	1.10708	1.03616	0.97269	5.12931	4.92346	4.45386	5.43599	3.69637	2.33196	3.76981	3.51545	3.34763	1.92626	1.65406	1.49994	8.72130	6.95787	5.47092
179170	1.11122	1.04120	0.97720	5.12971	4.92488	4.45578	5.45808	3.69542	2.33480	3.77171	3.51785	3.34973	1.92605	1.65230	1.50151	8.71635	6.95502	5.47137
179340	1.10904	1.03984	0.97532	5.12873	4.92414	4.45391	5.45328	3.69718	2.33383	3.77050	3.51787	3.35089	1.92522	1.65349	1.49926	8.71676	6.95174	5.46664
179500	1.10841	1.03890	0.97583	5.12768	4.92284	4.45265	5.44415	3.69689	2.33262	3.76801	3.51568	3.34956	1.92503	1.65179	1.49875	8.71492	6.95140	5.46652
179670	1.11065	1.03965	0.97776	5.12679	4.92357	4.45554	5.45190	3.70283	2.33705	3.77343	3.51875	3.35189	1.92719	1.65499	1.49986	8.72010	6.95566	5.47025
179840	1.11088	1.03858	0.97420	5.12929	4.92425	4.45350	5.45068	3.69911	2.33471	3.77031	3.51724	3.35037	1.92666	1.65093	1.49837	8.71777	6.95265	5.46814
180000	1.10903	1.03507	0.97156	5.12655	4.92057	4.45141	5.44045	3.69163	2.33216	3.76734	3.51460	3.34835	1.92364	1.65232	1.49781	8.71979	6.95547	5.47290	34.56	6.0	0.00	-2.04	0.01733	0.01203	0.01522	0.01859	0.01915	0.01498	0.00547	0.01516	0.02006	0.01892	0.01325	0.01687	0.01707	0.01762	0.01377	0.00583	0.01637	0.02181
180170	1.11146	1.03967	0.97674	5.12916	4.92271	4.45635	5.44321	3.69665	2.33556	3.77674	3.52159	3.35352	1.92765	1.65214	1.49785	8.72052	6.95818	5.47158
180330	1.11044	1.03737	0.97652	5.12890	4.92684	4.45931	5.44845	3.70060	2.33416	3.77533	3.52125	3.35193	1.92423	1.65211	1.49744	8.71882	6.95840	5.47307
180500	1.11246	1.04158	0.97911	5.13505	4.93008	4.46228	5.45764	3.70527	2.33890	3.77639	3.52458	3.35816	1.92861	1.65486	1.49992	8.73167	6.96388	5.47816
180660	1.11124	1.03993	0.97777	5.13558	4.93115	4.46394	5.45800	3.69859	2.33576	3.77749	3.52527	3.35733	1.92710	1.65377	1.49906	8.72428	6.96264	5.47663
180830	1.11109	1.03883	0.97510	5.13245	4.92801	4.46242	5.44821	3.69795	2.33406	3.77757	3.52432	3.35591	1.92406	1.65041	1.49900	8.72469	6.96006	5.47524
180990	1.11054	1.04064	0.97438	5.13378	4.93165	4.46529	5.45365	3.69585	2.33395	3.77861	3.52599	3.35601	1.92639	1.65192	1.49776	8.72405	6.95909	5.47583
181160	1.10985	1.03638	0.97379	5.13516	4.92926	4.46104	5.45032	3.69735	2.33318	3.77790	3.52695	3.35692	1.92619	1.65449	1.50022	8.72772	6.96410	5.47834
181320	1.11248	1.03962	0.97695	5.13720	4.93098	4.46488	5.45711	3.70331	2.33681	3.77861	3.52470	3.35713	1.92750	1.65323	1.49923	8.72488	6.96211	5.47648
181490	1.11246	1.04030	0.97894	5.13713	4.93241	4.46417	5.45032	3.70217	2.33812	3.77828	3.52623	3.35855	1.92665	1.65372	1.49844	8.72598	6.96096	5.47681
181660	1.11284	1.04203	0.97951	5.13820	4.93327	4.46570	5.45839	3.69980	2.33735	3.77706	3.52639	3.35880	1.92755	1.65403	1.50117	8.73198	6.96408	5.47895	34.56	6.0	0.00	-2.04	0.01733	0.01203	0.01522	0.01859	0.01915	0.01498	0.00547	0.01515	0.02006	0.01892	0.01325	0.01687	0.01707	0.01762	0.01377	0.00583	0.01637	0.02181
181820	1.11314	1.04019	0.97683	5.13610	4.93118	4.46286	5.44194	3.69829	2.33647	3.77807	3.52468	3.35722	1.92805	1.65403	1.50000	8.72977	6.96127	5.47615
181990	1.11208	1.03963	0.97632	5.13305	4.92714	4.45897	5.44896	3.69533	2.33425	3.77296	3.52237	3.35373	1.92987	1.65721	1.50174	8.72729	6.96267	5.47704
182150	1.11360	1.04227	0.97834	5.13391	4.92943	4.46142	5.44705	3.70114	2.33884	3.77418	3.52148	3.35387	1.92841	1.65671	1.50091	8.72555	6.96065	5.47492
182320	1.11259	1.04259	0.97906	5.13457	4.93056	4.46089	5.44904	3.70347	2.33642	3.77739	3.52547	3.35612	1.92904	1.65498	1.50179	8.72541	6.96184	5.47593
182490	1.11297	1.04232	0.97965	5.13680	4.93135	4.46113	5.45790	3.70342	2.33942	3.77468	3.52365	3.35642	1.92836	1.65233	1.49976	8.72491	6.95659	5.47192
182650	1.11281	1.04604	0.98021	5.13644	4.93239	4.46032	5.45071	3.70537	2.34103	3.77394	3.52417	3.35519	1.93146	1.65794	1.50085	8.72051	6.95702	5.47394
182820	1.11494	1.04401	0.97884	5.13504	4.92930	4.45807	5.45705	3.70333	2.33710	3.77174	3.52051	3.35156	1.92920	1.65271	1.49978	8.71555	6.95370	5.46845
182980	1.11155	1.04021	0.97492	5.12865	4.92447	4.45391	5.45010	3.69603	2.33338	3.76406	3.51304	3.34630	1.92600	1.65305	1.49951	8.71537	6.95083	5.46672
183150	1.11405	1.03983	0.97809	5.12620	4.92168	4.45186	5.45802	3.70443	2.34027	3.76962	3.51774	3.34931	1.92903	1.65412	1.50064	8.71377	6.95149	5.46741
183310	1.11416	1.04156	0.97882	5.12750	4.92056	4.45035	5.45520	3.70072	2.33726	3.76994	3.51598	3.34658	1.92995	1.65931	1.50451	8.71405	6.95260	5.47018	34.56	6.1	0.00	-2.04	0.01733	0.01203	0.01522	0.01859	0.01915	0.01498	0.00547	0.01515	0.02006	0.01893	0.01325	0.01687	0.01707	0.01762	0.01377	0.00583	0.01637	0.02181
183480	1.11719	1.04445	0.98152	5.13025	4.92429	4.45228	5.44931	3.70518	2.34146	3.77020	3.51875	3.35008	1.93143	1.65705	1.50239	8.71767	6.95306	5.46788
183640	1.11391	1.04301	0.98025	5.12800	4.92329	4.45101	5.45065	3.70635	2.33770	3.76556	3.51304	3.34446	1.93035	1.65499	1.50072	8.70791	6.94712	5.46341
183810	1.11326	1.04053	0.97673	5.12215	4.91841	4.44630	5.45797	3.70267	2.33764	3.76343	3.51217	3.34494	1.92845	1.65336	1.50129	8.70864	6.94685	5.46321
183970	1.11414	1.04175	0.97867	5.12449	4.91842	4.44727	5.46362	3.70273	2.33757	3.76365	3.51097	3.34413	1.93083	1.65609	1.50165	8.70960	6.94617	5.45967
184140	1.11239	1.04159	0.97741	5.11782	4.91571	4.44720	5.44188	3.69631	2.33778	3.76178	3.50777	3.34097	1.93006	1.65747	1.50573	8.70690	6.94851	5.46443
184310	1.11492	1.04092	0.97811	5.12285	4.91912	4.44904	5.44688	3.70347	2.34009	3.76593	3.51194	3.34377	1.93026	1.65755	1.50161	8.70754	6.94485	5.46239
184470	1.11361	1.04275	0.97955	5.12221	4.91620	4.44589	5.45512	3.70598	2.34172	3.76263	3.51016	3.34365	1.93137	1.65785	1.50495	8.70530	6.94346	5.46021
184640	1.11624	1.04582	0.98090	5.12353	4.91995	4.44775	5.46122	3.70775	2.34514	3.76242	3.51050	3.34372	1.93282	1.65676	1.50348	8.71116	6.94706	5.46186
184800	1.11389	1.04326	0.97903	5.12066	4.91531	4.44577	5.44878	3.70542	2.34196	3.76100	3.50726	3.33963	1.93115	1.65471	1.50222	8.70434	6.94378	5.46024
184970	1.11387	1.04184	0.97845	5.12071	4.91514	4.44508	5.45393	3.70202	2.33991	3.75977	3.50725	3.34082	1.92945	1.66014	1.50409	8.70746	6.94693	5.46411	34.50	6.0	0.00	-2.04	0.01733	0.01203	0.01522	0.01859	0.01915	0.01498	0.00547	0.01515	0.02006	0.01893	0.01325	0.01687	0.01707	0.01762	0.01377	0.00583	0.01637	0.02181
185130	1.11627	1.04634	0.98005	5.12417	4.91811	4.44783	5.46166	3.70381	2.34238	3.76211	3.51066	3.34370	1.93180	1.65869	1.50352	8.70728	6.94583	5.46251
185300	1.11632	1.04625	0.98097	5.12264	4.91903	4.44743	5.46007	3.70667	2.34268	3.76232	3.50862	3.34284	1.93285	1.65852	1.50466	8.70714	6.94583	5.46135
185470	1.11608	1.04307	0.97813	5.12037	4.91554	4.44601	5.44942	3.70382	2.34176	3.76086	3.50736	3.34056	1.93146	1.66028	1.50695	8.71401	6.94822	5.46196
185630	1.11881	1.04582	0.98187	5.12163	4.91754	4.44849	5.45113	3.70566	2.34407	3.76275	3.50777	3.33975	1.93113	1.65738	1.50359	8.71328	6.94739	5.46179
185800	1.11423	1.04521	0.98005	5.11963	4.91537	4.44596	5.46011	3.70394	2.34146	3.76325	3.50848	3.34092	1.93098	1.65600	1.50105	8.70636	6.94223	5.45798
185960	1.11206	1.04357	0.98131	5.11691	4.91397	4.44654	5.46105	3.70946	2.34508	3.76324	3.50944	3.34326	1.93370	1.65928	1.50695	8.71388	6.94823	5.46004
186130	1.11699	1.04677	0.98069	5.11750	4.91548	4.44750	5.45523	3.70952	2.34292	3.76088	3.50581	3.34026	1.93266	1.65672	1.50493	8.70975	6.94575	5.45953
186290	1.11487	1.04144	0.97758	5.11501	4.90975	4.44306	5.45857	3.70704	2.34051	3.76120	3.50287	3.33738	1.93218	1.66006	1.50792	8.71062	6.94960	5.46353
186460	1.11709	1.04433	0.98087	5.11792	4.91185	4.44659	5.46349	3.70797	2.34320	3.76465	3.50592	3.33802	1.93258	1.65864	1.50494	8.70618	6.94549	5.45843
186630	1.11557	1.04451	0.98024	5.11334	4.90906	4.44232	5.46288	3.70506	2.34300	3.76218	3.50415	3.33881	1.93067	1.65632	1.50243	8.70760	6.94488	5.45705	34.50	5.9	0.00	-2.04	0.01733	0.01203	0.01522	0.01859	0.01915	0.01498	0.00547	0.01516	0.02006	0.01893	0.01325	0.01687	0.01707	0.01762	0.01377	0.00583	0.01637	0.02181
186790	1.11769	1.04626	0.98432	5.11615	4.91150	4.44495	5.47557	3.71286	2.34733	3.76238	3.50547	3.34125	1.93519	1.66068	1.50599	8.70512	6.94446	5.45813
186950	1.11695	1.04550	0.98059	5.11272	4.90738	4.43986	5.46532	3.70568	2.34414	3.75821	3.49974	3.33462	1.93404	1.65707	1.50502	8.70178	6.94187	5.45297
187120	1.11498	1.04299	0.98125	5.10755	4.90622	4.43932	5.45706	3.70514	2.34239	3.75898	3.49984	3.33262	1.93400	1.65781	1.50411	8.70348	6.94223	5.45477
187290	1.11458	1.04550	0.98134	5.10811	4.90440	4.43808	5.46068	3.70837	2.34505	3.75730	3.49841	3.33310	1.93294	1.65799	1.50383	8.70714	6.93998	5.44950
187450	1.11794	1.04637	0.98350	5.11112	4.91012	4.44116	5.46219	3.71239	2.34509	3.75852	3.50136	3.33658	1.93809	1.66140	1.50474	8.70787	6.94378	5.45591
187620	1.11704	1.04552	0.98082	5.11277	4.90806	4.43670	5.45633	3.70846	2.34371	3.75790	3.49894	3.33353	1.93251	1.65856	1.50458	8.70320	6.93896	5.45103
187780	1.11634	1.04221	0.98038	5.10647	4.90259	4.43306	5.45950	3.70604	2.34143	3.75507	3.49820	3.33222	1.93217	1.65923	1.50487	8.70137	6.93919	5.45205
187950	1.11813	1.04556	0.98335	5.11156	4.90780	4.43791	5.46365	3.71012	2.34668	3.75639	3.49946	3.33461	1.93466	1.65977	1.50687	8.71076	6.94093	5.45324
188110	1.11685	1.04415	0.98247	5.11099	4.90820	4.43575	5.45511	3.70864	2.34467	3.75533	3.50104	3.33513	1.93672	1.66220	1.50842	8.71172	6.94279	5.45656
188280	1.12207	1.04829	0.98444	5.11536	4.91119	4.44048	5.45774	3.71635	2.34756	3.75800	3.50392	3.33721	1.93535	1.66019	1.50759	8.70418	6.94110	5.45384	34.50	6.1	0.00	-2.04	0.01733	0.01203	0.01522	0.01859	0.01915	0.01498	0.00547	0.01516	0.02006	0.01893	0.01325	0.01687	0.01707	0.01763	0.01377	0.00583	0.01637	0.02181
188440	1.11842	1.04750	0.98212	5.11350	4.91015	4.43823	5.46592	3.71033	2.34637	3.75594	3.50272	3.33516	1.93615	1.65647	1.50633	8.70088	6.93904	5.45180
188610	1.11692	1.04526	0.98299	5.10997	4.90632	4.43645	5.45571	3.70773	2.34443	3.75738	3.50230	3.33538	1.93336	1.65721	1.50485	8.70038	6.93751	5.45259
188780	1.11679	1.04741	0.98194	5.11331	4.91078	4.43918	5.46510	3.71017	2.34549	3.75967	3.50612	3.33933	1.93356	1.65902	1.50430	8.70482	6.94052	5.45587
188940	1.11752	1.04421	0.97995	5.11317	4.90502	4.43278	5.45978	3.70556	2.34228	3.75599	3.50263	3.33641	1.93632	1.66222	1.50904	8.70248	6.94131	5.45665
189110	1.12069	1.04704	0.98408	5.11639	4.91084	4.43808	5.46726	3.70913	2.34561	3.75847	3.50493	3.33859	1.93705	1.66115	1.50673	8.70194	6.93864	5.45328
189270	1.11679	1.04646	0.98281	5.11349	4.91116	4.43826	5.46287	3.70824	2.34508	3.75727	3.50289	3.33605	1.93573	1.65847	1.50663	8.70523	6.94003	5.45521
189440	1.11864	1.04496	0.98107	5.11404	4.91148	4.43778	5.46083	3.71195	2.34576	3.75868	3.50618	3.33754	1.93261	1.65861	1.50334	8.69956	6.93910	5.45403
189600	1.11898	1.04929	0.98433	5.11766	4.91445	4.44225	5.47581	3.71326	2.34877	3.76149	3.50875	3.34178	1.93633	1.66317	1.50958	8.70377	6.94198	5.45494
189770	1.11839	1.04577	0.98263	5.11527	4.91241	4.43986	5.46148	3.71104	2.34647	3.75854	3.50688	3.33827	1.93594	1.66066	1.50760	8.70175	6.93888	5.45403
189940	1.11865	1.04703	0.98045	5.11185	4.90855	4.43592	5.45962	3.70738	2.34519	3.75607	3.50423	3.33616	1.93199	1.65974	1.50609	8.70101	6.93714	5.45241	34.50	6.1	0.00	-2.04	0.01733	0.01203	0.01522	0.01859	0.01915	0.01498	0.00547	0.01516	0.02006	0.01893	0.01325	0.01687	0.01707	0.01762	0.01377	0.00583	0.01637	0.02181
190100	1.11781	1.04672	0.98379	5.11477	4.90960	4.43799	5.46589	3.71203	2.34607	3.75742	3.50540	3.33774	1.93404	1.66073	1.50913	8.70302	6.94009	5.45441
190270	1.11833	1.04966	0.98423	5.11619	4.91410	4.44159	5.46194	3.71338	2.35008	3.75861	3.50657	3.33971	1.93565	1.66116	1.50689	8.70385	6.94066	5.45541
190440	1.11979	1.04867	0.98337	5.11732	4.91476	4.44167	5.46898	3.71546	2.34755	3.76053	3.50794	3.34084	1.93488	1.66284	1.50839	8.70266	6.94044	5.45685
190600	1.11904	1.04919	0.98290	5.11678	4.91329	4.44005	5.46328	3.71145	2.34848	3.75903	3.50710	3.33883	1.93693	1.65943	1.50683	8.70257	6.94006	5.45554
190770	1.11920	1.04586	0.98239	5.11541	4.91037	4.43761	5.46369	3.71293	2.34829	3.75903	3.50540	3.33681	1.93416	1.66252	1.50736	8.70165	6.93860	5.45444
190930	1.11881	1.04629	0.98253	5.11181	4.90702	4.43488	5.45995	3.70660	2.34275	3.75435	3.50302	3.33705	1.93970	1.66360	1.51039	8.70376	6.94113	5.45575
191100	1.12063	1.04977	0.98366	5.11732	4.91361	4.43930	5.46637	3.71206	2.34816	3.75598	3.50363	3.33750	1.93792	1.66286	1.50707	8.70064	6.93817	5.45292
191270	1.11793	1.04743	0.98499	5.11378	4.91071	4.43829	5.46393	3.71201	2.34593	3.75506	3.50287	3.33482	1.93448	1.66092	1.50494	8.69831	6.93521	5.45114
191430	1.11771	1.04744	0.98484	5.11099	4.90723	4.43552	5.45247	3.71186	2.34683	3.75234	3.50065	3.33391	1.93566	1.66036	1.50687	8.69945	6.93244	5.44795
191600	1.11879	1.04956	0.98586	5.10955	4.90778	4.43862	5.45610	3.71468	2.35051	3.75791	3.50444	3.33646	1.93765	1.66069	1.50842	8.69998	6.93881	5.45274	34.56	6.0	0.00	-2.04	0.01733	0.01203	0.01522	0.01859	0.01915	0.01498	0.00547	0.01515	0.02006	0.01893	0.01325	0.01687	0.01707	0.01762	0.01377	0.00583	0.01637	0.02181
191760	1.11894	1.04791	0.98335	5.11127	4.90728	4.43676	5.46615	3.71100	2.34639	3.75395	3.50125	3.33434	1.93769	1.65883	1.50648	8.69522	6.93218	5.44687
191930	1.11792	1.04516	0.98170	5.10551	4.90186	4.43232	5.45956	3.70745	2.34064	3.74971	3.49685	3.33133	1.93301	1.66301	1.51024	8.69500	6.93351	5.44997
192090	1.11870	1.04678	0.98202	5.10828	4.90306	4.43206	5.45846	3.71132	2.34365	3.75183	3.49860	3.33461	1.93648	1.65901	1.50615	8.69129	6.93155	5.44622
192260	1.11660	1.04659	0.98320	5.10635	4.90314	4.43327	5.46550	3.71056	2.34374	3.75037	3.49897	3.33237	1.93810	1.66574	1.51054	8.69765	6.93658	5.45100
192420	1.12093	1.04959	0.98398	5.11150	4.90593	4.43600	5.47038	3.71535	2.34764	3.75516	3.49866	3.33251	1.93749	1.66294	1.50648	8.69870	6.93346	5.44766
192590	1.11709	1.04533	0.98284	5.10523	4.90120	4.43104	5.45029	3.71224	2.34575	3.75026	3.49602	3.32891	1.93227	1.65898	1.50501	8.69152	6.92636	5.44181
192750	1.11452	1.04476	0.98261	5.10199	4.90103	4.43087	5.46883	3.71237	2.34620	3.74856	3.49482	3.32974	1.93674	1.65953	1.50389	8.68740	6.92777	5.44368
192920	1.11651	1.04538	0.97920	5.10254	4.89940	4.42885	5.45976	3.70824	2.34239	3.74617	3.49081	3.32591	1.93493	1.66111	1.50870	8.69426	6.92994	5.44549
193080	1.11863	1.04749	0.98217	5.10567	4.90172	4.42966	5.46485	3.71009	2.34427	3.74869	3.49459	3.32735	1.93395	1.65987	1.50614	8.69303	6.92901	5.44421
193250	1.11684	1.04573	0.98240	5.10434	4.89854	4.42845	5.46419	3.70673	2.34353	3.74934	3.49427	3.32973	1.93197	1.65801	1.50293	8.68739	6.92417	5.44017	34.50	6.0	0.00	-2.04	0.01733	0.01203	0.01522	0.01859	0.01915	0.01498	0.00547	0.01515	0.02006	0.01893	0.01325	0.01687	0.01707	0.01762	0.01377	0.00583	0.01637	0.02182
193420	1.11737	1.04570	0.98346	5.10337	4.90058	4.42889	5.46952	3.71306	2.34535	3.74856	3.49412	3.32969	1.93456	1.65836	1.50448	8.68977	6.92803	5.44262
193580	1.11878	1.04535	0.98052	5.10257	4.89779	4.42837	5.45646	3.70867	2.34437	3.74672	3.49055	3.32506	1.93243	1.65901	1.50623	8.68712	6.92451	5.44064
193750	1.11680	1.04652	0.97974	5.10004	4.89634	4.42628	5.45305	3.70937	2.34308	3.74565	3.49160	3.32515	1.93350	1.66135	1.50718	8.68959	6.92911	5.44523
193910	1.11820	1.04583	0.98288	5.10152	4.89846	4.42900	5.46634	3.70974	2.34383	3.74707	3.49003	3.32540	1.93442	1.65887	1.50344	8.68899	6.92733	5.44285
194080	1.11808	1.04519	0.98074	5.10233	4.89963	4.43039	5.46402	3.70863	2.34480	3.74838	3.49347	3.32841	1.93348	1.65889	1.50435	8.69160	6.92661	5.44256
194240	1.11814	1.04780	0.98507	5.10408	4.90053	4.43271	5.47448	3.71263	2.35049	3.75371	3.49841	3.33171	1.93842	1.66272	1.50554	8.69265	6.93185	5.44597
194410	1.12027	1.04617	0.98337	5.10397	4.89991	4.43186	5.45841	3.71226	2.34786	3.75339	3.49489	3.33102	1.93806	1.66097	1.50755	8.69581	6.93092	5.44665
194570	1.11736	1.04647	0.98372	5.10359	4.89962	4.43272	5.46728	3.71010	2.34333	3.75244	3.49527	3.33165	1.93420	1.66089	1.50512	8.69009	6.93172	5.44779
194740	1.11901	1.04873	0.98246	5.10581	4.90305	4.43428	5.45199	3.70783	2.34719	3.75707	3.49964	3.33330	1.93616	1.65927	1.50888	8.69489	6.93676	5.45131
194910	1.11967	1.05079	0.98481	5.10938	4.90683	4.43587	5.46088	3.71030	2.34832	3.75840	3.50209	3.33640	1.93859	1.66625	1.51093	8.70418	6.93962	5.45416	34.56	6.1	0.00	-2.04	0.01733	0.01203	0.01522	0.01859	0.01915	0.01498	0.00547	0.01515	0.02006	0.01893	0.01325	0.01687	0.01707	0.01763	0.01377	0.00583	0.01637	0.02181
195070	1.12224	1.05140	0.98705	5.11422	4.91183	4.44111	5.46247	3.71603	2.35084	3.76068	3.50354	3.34003	1.93939	1.66330	1.50975	8.70290	6.94148	5.45514
