WetView ver 7.1	07-20-2019	15:31:10
AC9 Absorption and Attenuation Meter
00000311		; Serial number
2	; structure version number
Reserved
0.000000	0.000000		; Depth calibration
19200			; Baud rate
0.100000			; Path length (meters)
23			; number of temperature calibration bins
				12.61517	13.44096	14.46844	15.49904	16.50682	17.50108	18.49752	19.51783	20.49177	21.49009	22.48286	23.50673	24.54012	25.54812	26.49986	27.49321	28.50960	29.48671	30.47471	31.49432	32.50437	33.48679	34.49133	; temperature bins
a650	Blue	18.61587		0.01156	0.01096	0.01010	0.00930	0.00851	0.00774	0.00661	0.00573	0.00499	0.00402	0.00285	0.00203	0.00096	0.00000	-0.00110	-0.00152	-0.00210	-0.00247	-0.00259	-0.00317	-0.00346	-0.00380	-0.00403		; offset and temperature correction info
a676	Green	18.78942		0.00964	0.00899	0.00863	0.00813	0.00730	0.00639	0.00545	0.00448	0.00385	0.00301	0.00233	0.00165	0.00046	0.00000	-0.00106	-0.00167	-0.00251	-0.00280	-0.00316	-0.00329	-0.00377	-0.00392	-0.00441		; offset and temperature correction info
a715	Brown	18.59217		0.01171	0.01109	0.01043	0.00975	0.00878	0.00789	0.00685	0.00572	0.00469	0.00356	0.00255	0.00160	0.00061	0.00000	-0.00063	-0.00113	-0.00152	-0.00183	-0.00226	-0.00293	-0.00364	-0.00404	-0.00473		; offset and temperature correction info
c510	Red	18.18396		-0.00549	-0.00480	-0.00383	-0.00272	-0.00202	-0.00118	-0.00044	-0.00038	-0.00015	-0.00021	0.00013	0.00007	-0.00007	0.00000	-0.00007	-0.00065	-0.00045	-0.00018	0.00007	0.00039	-0.00001	-0.00002	-0.00045		; offset and temperature correction info
c532	Magenta	18.26528		-0.00721	-0.00645	-0.00581	-0.00518	-0.00465	-0.00345	-0.00281	-0.00270	-0.00182	-0.00141	-0.00108	-0.00072	-0.00022	0.00000	0.00044	0.00030	0.00031	-0.00006	-0.00052	-0.00089	-0.00142	-0.00149	-0.00154		; offset and temperature correction info
c555	Black	18.37125		-0.00430	-0.00419	-0.00381	-0.00319	-0.00286	-0.00254	-0.00205	-0.00196	-0.00138	-0.00137	-0.00067	-0.00051	-0.00030	0.00000	0.00067	0.00087	0.00057	0.00027	-0.00015	-0.00089	-0.00127	-0.00137	-0.00150		; offset and temperature correction info
a412	LtBlue	15.33566		-0.06011	-0.05567	-0.05012	-0.04441	-0.03922	-0.03412	-0.02941	-0.02503	-0.02049	-0.01588	-0.01121	-0.00784	-0.00311	0.00000	0.00273	0.00611	0.00757	0.00871	0.01066	0.01299	0.01539	0.01781	0.02175		; offset and temperature correction info
a440	LtGreen	16.05925		-0.01380	-0.01214	-0.01039	-0.00858	-0.00690	-0.00532	-0.00426	-0.00322	-0.00230	-0.00158	-0.00055	0.00006	0.00001	0.00000	0.00017	0.00016	-0.00094	-0.00222	-0.00363	-0.00486	-0.00567	-0.00651	-0.00782		; offset and temperature correction info
a488	Yellow	16.82827		0.00255	0.00293	0.00331	0.00354	0.00373	0.00378	0.00363	0.00350	0.00291	0.00225	0.00215	0.00142	0.00099	0.00000	-0.00092	-0.00169	-0.00295	-0.00396	-0.00479	-0.00542	-0.00582	-0.00604	-0.00663		; offset and temperature correction info
c650	Blue	18.49287		-0.00570	-0.00516	-0.00456	-0.00403	-0.00346	-0.00232	-0.00132	-0.00122	-0.00073	-0.00066	-0.00035	-0.00016	0.00003	0.00000	0.00044	0.00078	0.00108	0.00057	0.00040	-0.00042	-0.00033	-0.00029	-0.00034		; offset and temperature correction info
c676	Green	18.50570		0.00299	0.00293	0.00287	0.00293	0.00278	0.00294	0.00317	0.00251	0.00243	0.00215	0.00139	0.00123	0.00068	0.00000	-0.00041	-0.00106	-0.00205	-0.00268	-0.00325	-0.00413	-0.00495	-0.00610	-0.00674		; offset and temperature correction info
c715	Brown	17.88888		0.00826	0.00812	0.00773	0.00790	0.00766	0.00758	0.00753	0.00650	0.00571	0.00461	0.00359	0.00222	0.00101	0.00000	-0.00146	-0.00284	-0.00385	-0.00448	-0.00463	-0.00513	-0.00623	-0.00715	-0.00838		; offset and temperature correction info
a510	Red	17.18050		0.00353	0.00364	0.00354	0.00361	0.00381	0.00381	0.00356	0.00332	0.00277	0.00229	0.00176	0.00116	0.00036	0.00000	-0.00014	-0.00069	-0.00088	-0.00147	-0.00150	-0.00129	-0.00120	-0.00134	-0.00091		; offset and temperature correction info
a532	Magenta	17.40228		0.00550	0.00548	0.00526	0.00479	0.00464	0.00422	0.00393	0.00328	0.00253	0.00212	0.00136	0.00085	0.00039	0.00000	-0.00059	-0.00146	-0.00188	-0.00262	-0.00330	-0.00393	-0.00491	-0.00540	-0.00605		; offset and temperature correction info
a555	Black	17.72308		0.00849	0.00832	0.00800	0.00760	0.00724	0.00655	0.00580	0.00495	0.00435	0.00347	0.00252	0.00153	0.00049	0.00000	-0.00050	-0.00155	-0.00214	-0.00306	-0.00350	-0.00411	-0.00470	-0.00539	-0.00570		; offset and temperature correction info
c412	LtBlue	16.72802		-0.05949	-0.05458	-0.04744	-0.04134	-0.03547	-0.03064	-0.02511	-0.02047	-0.01574	-0.01163	-0.00761	-0.00442	-0.00204	0.00000	0.00100	0.00051	-0.00043	-0.00239	-0.00475	-0.00629	-0.00827	-0.00955	-0.01337		; offset and temperature correction info
c440	LtGreen	17.42637		-0.02723	-0.02503	-0.02216	-0.01930	-0.01691	-0.01394	-0.01125	-0.00926	-0.00732	-0.00582	-0.00401	-0.00226	-0.00093	0.00000	0.00082	0.00123	0.00133	0.00097	0.00038	-0.00003	-0.00022	-0.00023	-0.00125		; offset and temperature correction info
c488	Yellow	18.03666		-0.00640	-0.00554	-0.00465	-0.00357	-0.00276	-0.00154	-0.00067	-0.00031	-0.00014	-0.00012	0.00046	0.00032	0.00020	0.00000	0.00001	-0.00024	-0.00060	-0.00084	-0.00126	-0.00180	-0.00276	-0.00304	-0.00427		; offset and temperature correction info
0.003500	0.004000	0.015000	0.020000	0.015000	0.020000	2500.000000	2000.000000	1000.000000	; maxANoise	maxCNoise	maxADifference	maxCDifference	minACounts	minCCounts	minRCounts	maxTempSdev	maxDepthSdev
0			; auxilliary capabilities
1			; acquisition binsize
0	2.01480	1.86315	1.63442	8.58632	7.98931	7.25689	16.41839	10.29537	5.73486	6.31942	6.05478	5.88780	4.64516	3.83891	3.23251	20.15017	14.04179	9.56676	33.19	6.1	0.00	-2.04	0.01729	0.01197	0.01514	0.01832	0.01896	0.01483	0.00542	0.01505	0.01999	0.01871	0.01300	0.01656	0.01700	0.01758	0.01373	0.00571	0.01609	0.02153
170	2.01689	1.86657	1.63484	8.59098	7.99225	7.25781	16.42955	10.29484	5.73644	6.32206	6.05965	5.89221	4.64383	3.83546	3.23119	20.15707	14.04369	9.57003
330	2.01551	1.86414	1.63595	8.58929	7.99096	7.25873	16.45439	10.29648	5.73333	6.32744	6.05885	5.89056	4.64420	3.83562	3.22953	20.15090	14.04026	9.56697
500	2.01773	1.86675	1.63715	8.59025	7.99437	7.26308	16.43656	10.29988	5.73836	6.32907	6.06037	5.89177	4.64210	3.83518	3.23269	20.14855	14.04195	9.56839
660	2.01766	1.86740	1.63615	8.59089	7.99477	7.26045	16.44922	10.30278	5.73581	6.32965	6.06076	5.89594	4.64197	3.83540	3.22973	20.15721	14.04332	9.56845
830	2.01495	1.86542	1.63721	8.59127	7.99433	7.26302	16.45230	10.29917	5.73748	6.32977	6.06315	5.89628	4.64539	3.83420	3.23073	20.15222	14.04464	9.56892
990	2.01687	1.86600	1.63450	8.59184	7.99452	7.26186	16.43385	10.29677	5.73240	6.32864	6.06072	5.89287	4.64411	3.83778	3.23162	20.15222	14.04723	9.57301
1160	2.01999	1.86579	1.63728	8.59521	8.00151	7.26595	16.46597	10.29924	5.73778	6.32957	6.06559	5.89948	4.64217	3.83509	3.22912	20.15442	14.04496	9.57046
1320	2.01558	1.86520	1.63525	8.59348	7.99725	7.26381	16.45722	10.29670	5.73355	6.32739	6.06299	5.89554	4.64283	3.83192	3.22917	20.15398	14.04408	9.57029
1490	2.01491	1.86715	1.63467	8.59450	7.99848	7.26456	16.43680	10.29468	5.73309	6.33184	6.06772	5.89786	4.64213	3.83637	3.23085	20.16206	14.04950	9.57486
1650	2.01478	1.86501	1.63524	8.59364	7.99746	7.26411	16.43588	10.29295	5.73153	6.32893	6.06458	5.89802	4.64311	3.83642	3.23123	20.16755	14.05152	9.57634	33.13	6.1	0.00	-2.04	0.01729	0.01197	0.01514	0.01832	0.01896	0.01483	0.00542	0.01505	0.01999	0.01871	0.01300	0.01655	0.01699	0.01758	0.01373	0.00571	0.01609	0.02153
1820	2.01730	1.86545	1.63366	8.59937	8.00119	7.26721	16.44277	10.29804	5.73208	6.33236	6.06667	5.90002	4.64117	3.83095	3.22875	20.17461	14.04946	9.57096
1980	2.01712	1.86848	1.63676	8.59689	8.00115	7.27109	16.44695	10.30118	5.73985	6.33817	6.07254	5.90088	4.64614	3.83709	3.23265	20.17623	14.05149	9.57754
2150	2.01775	1.86752	1.63468	8.59804	8.00215	7.27028	16.43097	10.30174	5.73414	6.33459	6.06742	5.90223	4.64277	3.83278	3.22879	20.15668	14.04668	9.57287
2310	2.01561	1.86452	1.63530	8.59547	7.99838	7.26462	16.43404	10.28964	5.73366	6.33190	6.06744	5.90051	4.64298	3.83661	3.22980	20.15903	14.04896	9.57619
2480	2.01634	1.86590	1.63464	8.59697	8.00080	7.26781	16.44633	10.30125	5.73422	6.33309	6.06713	5.90247	4.64154	3.83370	3.23013	20.15815	14.04755	9.57340
2640	2.01727	1.86505	1.63457	8.59959	8.00367	7.26991	16.45261	10.29504	5.73639	6.33605	6.07103	5.90377	4.64435	3.83503	3.22812	20.15624	14.05062	9.57803
2810	2.01399	1.86324	1.63272	8.59678	7.99860	7.26760	16.45445	10.29486	5.73142	6.33519	6.06753	5.89867	4.64334	3.83638	3.23297	20.17579	14.05591	9.57921
2970	2.01708	1.86747	1.63452	8.60117	8.00484	7.26984	16.44978	10.29464	5.73347	6.33592	6.07191	5.90556	4.64239	3.83289	3.22913	20.15550	14.05028	9.57684
3140	2.01955	1.86826	1.63771	8.60299	8.00677	7.27469	16.42986	10.30487	5.73913	6.33913	6.07421	5.90947	4.64684	3.83679	3.23300	20.16902	14.05244	9.58045
3300	2.01667	1.86454	1.63471	8.60375	8.00527	7.27035	16.43279	10.29638	5.73303	6.33745	6.07300	5.90671	4.64129	3.83444	3.22931	20.16279	14.05414	9.57539	33.13	6.1	0.00	-2.04	0.01729	0.01196	0.01514	0.01832	0.01896	0.01483	0.00542	0.01505	0.01999	0.01871	0.01300	0.01655	0.01699	0.01758	0.01373	0.00571	0.01609	0.02153
3470	2.01389	1.86526	1.63445	8.60171	8.00935	7.27663	16.43611	10.30074	5.73599	6.33403	6.07076	5.90999	4.64379	3.83280	3.23016	20.15456	14.05020	9.57619
3630	2.01683	1.86707	1.63601	8.59629	7.99528	7.26533	16.43267	10.29322	5.73220	6.34487	6.07621	5.90673	4.64069	3.83605	3.22916	20.14722	14.04880	9.58358
3800	2.01541	1.86637	1.63664	8.60237	7.99702	7.26696	16.43894	10.29952	5.73465	6.33006	6.07420	5.90718	4.64231	3.83265	3.22838	20.17661	14.04729	9.57674
3960	2.01488	1.86415	1.63744	8.60468	8.00367	7.27558	16.46639	10.30181	5.73743	6.33021	6.07316	5.90555	4.64556	3.83362	3.23003	20.16676	14.05210	9.58156
4130	2.01626	1.86497	1.63477	8.60420	8.00442	7.27064	16.43365	10.29545	5.73101	6.33571	6.07220	5.90572	4.64384	3.83833	3.23245	20.16029	14.05239	9.58678
4290	2.01841	1.86524	1.63609	8.61119	8.00891	7.27290	16.45936	10.29932	5.73514	6.34273	6.07727	5.90790	4.64296	3.83385	3.23020	20.17705	14.05244	9.58254
4460	2.01806	1.86586	1.63631	8.60654	8.00856	7.26901	16.44459	10.29927	5.73666	6.34975	6.08326	5.91075	4.64222	3.83346	3.22923	20.17514	14.05646	9.58716
4620	2.01712	1.86716	1.63797	8.60906	8.00901	7.27459	16.46368	10.30177	5.74025	6.34402	6.08063	5.91563	4.64391	3.83536	3.22809	20.16999	14.06122	9.58287
4790	2.01683	1.86608	1.63527	8.60539	8.00844	7.27206	16.43758	10.30083	5.73598	6.34084	6.07760	5.90950	4.64539	3.83643	3.23007	20.16823	14.05874	9.58551
4950	2.01432	1.86505	1.63512	8.60851	8.00236	7.26501	16.43734	10.29952	5.73655	6.33910	6.07542	5.90167	4.64541	3.83778	3.23106	20.16334	14.05717	9.58327	33.19	6.1	0.00	-2.04	0.01729	0.01196	0.01514	0.01832	0.01896	0.01483	0.00542	0.01505	0.01999	0.01871	0.01300	0.01655	0.01699	0.01758	0.01373	0.00571	0.01609	0.02153
5120	2.01529	1.86549	1.63571	8.60375	8.00973	7.28239	16.44250	10.29445	5.73413	6.34804	6.07907	5.91566	4.64031	3.83089	3.22823	20.18100	14.06039	9.57987
5280	2.01631	1.86644	1.63846	8.60486	8.00718	7.27136	16.42641	10.30210	5.74272	6.33731	6.07899	5.90717	4.64533	3.84026	3.23151	20.17496	14.06008	9.58547
5450	2.01573	1.86204	1.63448	8.60445	8.01625	7.29021	16.42321	10.29076	5.72889	6.35897	6.07302	5.90397	4.64270	3.83781	3.23075	20.16864	14.05947	9.57385
5610	2.02005	1.87044	1.63942	8.60712	8.01625	7.28361	16.44656	10.30188	5.73709	6.34218	6.07776	5.91187	4.64603	3.83668	3.23241	20.17746	14.06000	9.58495
5780	2.01599	1.86300	1.63533	8.60132	8.00570	7.28042	16.43550	10.29783	5.72943	6.35460	6.07887	5.90066	4.64111	3.83605	3.23404	20.16790	14.06108	9.58811
5940	2.01922	1.86706	1.63813	8.59825	8.01055	7.28777	16.45481	10.30328	5.73554	6.34564	6.06933	5.90869	4.64304	3.83441	3.22793	20.18659	14.06653	9.58350
6110	2.01530	1.86594	1.63623	8.60348	8.01050	7.28253	16.47761	10.29809	5.73703	6.34480	6.08009	5.91015	4.64621	3.83671	3.23094	20.16952	14.05592	9.58359
6270	2.01654	1.86399	1.63639	8.60590	8.00795	7.27539	16.42751	10.28936	5.73156	6.34588	6.07972	5.91281	4.64126	3.83541	3.22939	20.16893	14.06415	9.59215
6440	2.01575	1.86614	1.63703	8.60852	8.00746	7.27529	16.45111	10.30123	5.73289	6.33984	6.07503	5.90932	4.64345	3.83393	3.23162	20.16967	14.05746	9.58171
6600	2.01716	1.86762	1.63550	8.60666	8.01717	7.28180	16.45173	10.29912	5.73583	6.33199	6.08153	5.92601	4.64146	3.83259	3.22748	20.16564	14.05383	9.58880	33.13	6.1	0.00	-2.04	0.01729	0.01196	0.01514	0.01832	0.01896	0.01483	0.00542	0.01505	0.01999	0.01871	0.01300	0.01655	0.01699	0.01758	0.01373	0.00571	0.01609	0.02153
6760	2.01409	1.86330	1.63430	8.61430	8.00206	7.26828	16.42751	10.29525	5.73304	6.35330	6.08377	5.90832	4.64260	3.83518	3.22968	20.16932	14.06917	9.58674
6930	2.01770	1.86640	1.63687	8.60020	8.01164	7.28278	16.47983	10.29765	5.73378	6.33435	6.07255	5.91438	4.64149	3.83474	3.22883	20.17785	14.06150	9.58035
7090	2.01838	1.86643	1.63905	8.61023	8.01825	7.28493	16.44164	10.29965	5.73587	6.33793	6.07814	5.91991	4.64123	3.83737	3.23119	20.16167	14.05914	9.58303
7260	2.01619	1.86486	1.63589	8.61106	8.01115	7.27546	16.43402	10.29447	5.73110	6.33778	6.08052	5.91334	4.64486	3.83666	3.23150	20.18315	14.06356	9.58863
7420	2.01964	1.86625	1.63840	8.60784	8.01184	7.27908	16.43095	10.30023	5.73706	6.34490	6.08137	5.91660	4.64421	3.83566	3.23280	20.16917	14.05936	9.58401
7590	2.01852	1.86801	1.63872	8.61328	8.01657	7.28003	16.47033	10.30755	5.74197	6.34396	6.08169	5.91877	4.64514	3.83753	3.23270	20.18418	14.06414	9.58610
7750	2.01933	1.86738	1.63707	8.60972	8.01664	7.28042	16.45591	10.29892	5.73501	6.33594	6.08087	5.92333	4.64711	3.83325	3.23055	20.16197	14.05399	9.58321
7920	2.01560	1.86528	1.63852	8.61181	8.01164	7.27500	16.44090	10.29634	5.73321	6.34453	6.08267	5.91368	4.64332	3.83722	3.23318	20.16888	14.06179	9.58881
8080	2.01746	1.86768	1.64015	8.61167	8.01525	7.28190	16.45038	10.30014	5.73403	6.34277	6.07914	5.91610	4.64339	3.83407	3.23028	20.16550	14.06049	9.58535
8250	2.01747	1.86843	1.63857	8.61332	8.01763	7.28265	16.46703	10.30164	5.73738	6.34388	6.08104	5.91621	4.64485	3.83629	3.23341	20.17748	14.06467	9.58857	33.19	6.2	0.00	-2.04	0.01729	0.01196	0.01514	0.01832	0.01896	0.01483	0.00542	0.01505	0.01999	0.01871	0.01300	0.01655	0.01699	0.01758	0.01373	0.00571	0.01609	0.02153
8410	2.01709	1.86442	1.63668	8.61063	8.01562	7.28216	16.43147	10.29237	5.73193	6.34465	6.08149	5.91864	4.64067	3.83275	3.22906	20.17307	14.05885	9.58549
8580	2.01450	1.86547	1.63729	8.61006	8.01091	7.27715	16.48023	10.29408	5.73483	6.34862	6.08297	5.91716	4.64344	3.83490	3.23035	20.16292	14.06462	9.58904
8750	2.01793	1.86586	1.63642	8.61164	8.01189	7.28034	16.44105	10.29815	5.73293	6.34699	6.08139	5.91926	4.64513	3.83779	3.23232	20.17483	14.06452	9.59203
8910	2.01919	1.86903	1.63785	8.61466	8.01149	7.27976	16.43835	10.29866	5.73605	6.35238	6.08647	5.92563	4.64309	3.83356	3.22779	20.17675	14.06462	9.58616
9080	2.01882	1.86599	1.63830	8.61265	8.01459	7.27374	16.40117	10.29501	5.73562	6.35045	6.09604	5.93100	4.64368	3.83433	3.23095	20.16248	14.05349	9.59184
9240	2.01764	1.86669	1.63895	8.61352	8.00566	7.27270	16.42582	10.30053	5.73779	6.36083	6.09568	5.92431	4.64536	3.83435	3.23224	20.16130	14.06430	9.59169
9410	2.01752	1.86691	1.63633	8.61431	8.01292	7.27402	16.42447	10.29450	5.73603	6.34751	6.09712	5.93259	4.64333	3.83937	3.23397	20.17189	14.06071	9.59931
9570	2.02184	1.86881	1.63961	8.62278	8.00707	7.26743	16.45016	10.30331	5.73778	6.36452	6.10682	5.92853	4.64462	3.83694	3.23075	20.15264	14.05370	9.60045
9740	2.01846	1.86501	1.63887	8.60813	7.99552	7.26948	16.45434	10.29839	5.73485	6.37414	6.08856	5.90059	4.64350	3.83367	3.23013	20.17719	14.07524	9.59667
9900	2.01587	1.86808	1.63980	8.60233	8.01326	7.28987	16.43982	10.29755	5.73691	6.35355	6.08163	5.91941	4.64197	3.83600	3.23086	20.17645	14.06503	9.58974	33.19	6.2	0.00	-2.04	0.01729	0.01196	0.01514	0.01832	0.01896	0.01483	0.00542	0.01505	0.01999	0.01871	0.01300	0.01655	0.01699	0.01758	0.01373	0.00571	0.01609	0.02153
10070	2.01609	1.86455	1.63666	8.60792	8.01286	7.28485	16.43773	10.29442	5.73286	6.34468	6.07572	5.91216	4.64434	3.83904	3.23286	20.18602	14.07128	9.59324
10230	2.01897	1.86678	1.63847	8.61739	8.01911	7.28516	16.44917	10.30082	5.73709	6.34798	6.08575	5.91861	4.64370	3.83489	3.22909	20.17616	14.06733	9.59384
10400	2.01657	1.86851	1.64014	8.61666	8.02256	7.28780	16.48085	10.30352	5.73848	6.35395	6.08726	5.91973	4.64506	3.83780	3.23257	20.18190	14.06961	9.59520
10560	2.01857	1.86717	1.63881	8.61171	8.01733	7.28752	16.45471	10.29989	5.73692	6.34963	6.08544	5.91975	4.64392	3.83720	3.23304	20.17748	14.06783	9.59354
10720	2.01971	1.86660	1.63912	8.61693	8.02018	7.28606	16.46161	10.29936	5.73549	6.35084	6.09006	5.92349	4.64239	3.83328	3.23175	20.16821	14.06582	9.59120
10890	2.01762	1.86766	1.63800	8.61708	8.02160	7.28764	16.44241	10.30398	5.73409	6.34993	6.08638	5.92315	4.64527	3.83632	3.23035	20.18190	14.06553	9.59027
11050	2.01944	1.86517	1.63527	8.61381	8.01808	7.28372	16.45914	10.29653	5.73005	6.34630	6.08401	5.92142	4.64062	3.83127	3.22636	20.17778	14.06122	9.58627
11210	2.01949	1.86787	1.64076	8.61589	8.02251	7.29085	16.46740	10.29691	5.73605	6.35165	6.08637	5.91996	4.64646	3.83924	3.23350	20.19236	14.07199	9.59377
11380	2.01767	1.86655	1.63681	8.61312	8.01972	7.28811	16.45360	10.29697	5.73170	6.34804	6.08007	5.92022	4.64314	3.83171	3.22780	20.17513	14.06603	9.58825
11540	2.01660	1.86579	1.63762	8.61604	8.01954	7.28589	16.42678	10.29377	5.73284	6.34875	6.08569	5.92222	4.64250	3.83367	3.22739	20.17887	14.06412	9.58903	33.19	6.3	0.00	-2.04	0.01729	0.01197	0.01514	0.01832	0.01896	0.01483	0.00542	0.01505	0.01999	0.01871	0.01300	0.01655	0.01699	0.01758	0.01373	0.00571	0.01609	0.02153
11710	2.01256	1.86637	1.64000	8.61484	8.02051	7.29066	16.42506	10.29739	5.73656	6.35744	6.09299	5.92884	4.64451	3.83553	3.22990	20.19140	14.07254	9.59775
11870	2.01615	1.86483	1.63683	8.61853	8.02189	7.29098	16.47317	10.29032	5.73010	6.36482	6.08993	5.91613	4.64434	3.83375	3.22792	20.19081	14.07879	9.60032
12030	2.01711	1.86258	1.63571	8.61370	8.02411	7.29627	16.48119	10.29148	5.72925	6.35736	6.08460	5.92344	4.64051	3.83111	3.22789	20.18963	14.07450	9.59729
12200	2.01363	1.86193	1.63328	8.61276	8.02078	7.29424	16.44878	10.29590	5.73090	6.35265	6.08370	5.92087	4.64456	3.83492	3.23435	20.18653	14.07240	9.59995
12360	2.01883	1.86725	1.63839	8.61973	8.02416	7.29556	16.45617	10.30048	5.73564	6.36133	6.08847	5.92527	4.64459	3.83754	3.23008	20.18373	14.07328	9.59712
12530	2.01747	1.86894	1.63745	8.61939	8.02701	7.29546	16.46072	10.30200	5.73520	6.35971	6.08816	5.92528	4.64343	3.83605	3.22853	20.18152	14.07683	9.60254
12690	2.01509	1.86293	1.63528	8.61859	8.01970	7.28770	16.43636	10.29052	5.73198	6.35537	6.08230	5.92038	4.64171	3.83488	3.23009	20.19095	14.07948	9.59543
12850	2.01605	1.86269	1.63378	8.61097	8.02458	7.29740	16.46134	10.29119	5.72968	6.34767	6.08415	5.92840	4.63955	3.83265	3.22872	20.18889	14.06999	9.59753
13020	2.01443	1.86034	1.63270	8.61940	8.02146	7.28672	16.42776	10.29546	5.72888	6.35843	6.08709	5.92465	4.64082	3.83356	3.23136	20.18476	14.07892	9.59736
13180	2.01698	1.86688	1.63805	8.61651	8.02757	7.30100	16.42174	10.29804	5.73298	6.35765	6.09255	5.93201	4.64345	3.83262	3.22871	20.18692	14.06604	9.59612	33.13	6.0	0.00	-2.04	0.01729	0.01197	0.01514	0.01832	0.01896	0.01482	0.00542	0.01505	0.01999	0.01871	0.01300	0.01655	0.01700	0.01758	0.01373	0.00571	0.01609	0.02153
13350	2.01696	1.86636	1.64040	8.61891	8.02352	7.30006	16.45283	10.29871	5.73373	6.37561	6.09016	5.91557	4.64400	3.83725	3.23096	20.20063	14.08490	9.58684
13510	2.01581	1.86282	1.63644	8.61719	8.04017	7.31243	16.45197	10.29429	5.72982	6.35126	6.08262	5.92788	4.64274	3.83507	3.23035	20.17882	14.07065	9.59218
13680	2.01603	1.86569	1.63660	8.62158	8.02732	7.29546	16.46416	10.29700	5.73270	6.36206	6.09301	5.92673	4.63967	3.83366	3.22637	20.19090	14.07343	9.59755
13840	2.01744	1.86691	1.63783	8.61522	8.02440	7.29905	16.45074	10.30370	5.73503	6.37082	6.09453	5.93052	4.64363	3.83306	3.22984	20.18412	14.08013	9.59964
14010	2.01602	1.86330	1.63527	8.61453	8.01890	7.29442	16.46207	10.29667	5.73114	6.36160	6.08844	5.92227	4.64381	3.83715	3.23044	20.19444	14.07997	9.60111
14170	2.01714	1.86373	1.63766	8.61694	8.02317	7.29785	16.44225	10.29362	5.73226	6.36512	6.08989	5.92062	4.64260	3.83611	3.23136	20.17499	14.07390	9.59358
14340	2.01647	1.86736	1.64084	8.61591	8.03358	7.30616	16.43599	10.29798	5.73584	6.35495	6.08732	5.93477	4.64263	3.83443	3.22901	20.19414	14.07131	9.59197
14500	2.01746	1.86432	1.63698	8.62326	8.02755	7.29061	16.42899	10.29544	5.73465	6.35882	6.09441	5.92630	4.64113	3.83277	3.22941	20.17970	14.07502	9.59702
14660	2.01610	1.86582	1.63745	8.61248	8.02036	7.29529	16.46798	10.28949	5.73044	6.36153	6.08634	5.92167	4.64392	3.83582	3.23101	20.19798	14.07920	9.59793
14830	2.01870	1.86803	1.63766	8.62024	8.03023	7.29844	16.43189	10.29975	5.73536	6.35561	6.08731	5.92841	4.64548	3.83585	3.23147	20.18636	14.07309	9.59730	33.19	6.0	0.00	-2.04	0.01729	0.01197	0.01514	0.01832	0.01896	0.01482	0.00542	0.01505	0.01999	0.01871	0.01300	0.01655	0.01700	0.01758	0.01373	0.00571	0.01609	0.02153
14990	2.01550	1.86543	1.63768	8.61998	8.02377	7.29310	16.43299	10.29808	5.73544	6.36116	6.09261	5.92707	4.64303	3.83371	3.22922	20.17870	14.07444	9.60025
15160	2.01666	1.86397	1.63756	8.61591	8.02195	7.29406	16.44516	10.29390	5.73295	6.35367	6.08563	5.92386	4.64444	3.83572	3.22904	20.18769	14.07868	9.60212
15320	2.01579	1.86426	1.63943	8.61926	8.02324	7.29314	16.45587	10.29944	5.73309	6.36310	6.09306	5.92325	4.64254	3.83225	3.22903	20.18489	14.08189	9.60600
15490	2.01647	1.86596	1.63680	8.61762	8.02186	7.29442	16.46523	10.29537	5.73698	6.35973	6.08955	5.92443	4.64401	3.83352	3.23228	20.19152	14.08395	9.60204
15650	2.01624	1.86512	1.63576	8.61653	8.02584	7.29630	16.42612	10.29395	5.73214	6.35550	6.08847	5.92832	4.64429	3.83449	3.23321	20.18238	14.07977	9.60451
15820	2.01925	1.86585	1.63931	8.62642	8.02442	7.29246	16.42673	10.29564	5.73689	6.36363	6.09485	5.92862	4.64088	3.83477	3.23047	20.18179	14.07362	9.60050
15980	2.01707	1.86795	1.63941	8.62228	8.02611	7.29739	16.45427	10.30220	5.73615	6.36871	6.09964	5.93121	4.64478	3.83711	3.23263	20.19019	14.07762	9.60302
16150	2.01815	1.86859	1.64000	8.62112	8.02904	7.29662	16.44897	10.29688	5.73522	6.36179	6.09289	5.92924	4.64380	3.83616	3.22993	20.20583	14.07876	9.60357
16310	2.01730	1.86664	1.63844	8.61944	8.02599	7.29423	16.46264	10.29797	5.73523	6.36553	6.09352	5.93084	4.64258	3.83520	3.22930	20.18518	14.08040	9.60388
16480	2.01650	1.86458	1.63884	8.62382	8.02555	7.29523	16.46802	10.30049	5.73401	6.36612	6.09587	5.93253	4.64343	3.83646	3.22989	20.19465	14.07774	9.60359	33.13	6.0	0.00	-2.04	0.01729	0.01197	0.01514	0.01832	0.01896	0.01482	0.00542	0.01505	0.01999	0.01871	0.01300	0.01655	0.01700	0.01758	0.01373	0.00571	0.01609	0.02152
16640	2.01846	1.86530	1.63947	8.62311	8.02993	7.29716	16.45090	10.30461	5.73597	6.36743	6.09619	5.93257	4.64515	3.83703	3.23094	20.20025	14.08485	9.60639
16810	2.01652	1.86507	1.63821	8.62115	8.02735	7.29871	16.43762	10.29773	5.73130	6.36021	6.09149	5.92949	4.64372	3.83897	3.23342	20.20482	14.07885	9.60207
16970	2.01817	1.86626	1.63885	8.63487	8.03876	7.30137	16.43308	10.29286	5.73603	6.35975	6.09860	5.93636	4.64274	3.83464	3.23125	20.19863	14.07827	9.61501
17140	2.01777	1.86532	1.64046	8.62672	8.02035	7.29519	16.47332	10.30049	5.73884	6.37897	6.09885	5.92183	4.64782	3.83832	3.23157	20.19966	14.09949	9.61681
17300	2.01675	1.86671	1.63709	8.61426	8.02471	7.30494	16.46876	10.29406	5.73398	6.36619	6.08853	5.92788	4.64405	3.83455	3.22905	20.20394	14.08609	9.60309
17460	2.01540	1.86333	1.63708	8.62678	8.03226	7.30013	16.44721	10.29493	5.73281	6.36157	6.09434	5.93335	4.64416	3.83710	3.23452	20.19656	14.08196	9.60974
17630	2.01951	1.86815	1.63957	8.62844	8.03401	7.30108	16.46482	10.30005	5.73605	6.36692	6.09584	5.93780	4.64392	3.83269	3.23089	20.20379	14.08628	9.60736
17790	2.01716	1.86501	1.63867	8.62684	8.03151	7.30069	16.46346	10.29778	5.73582	6.36736	6.09809	5.93616	4.64389	3.83589	3.23105	20.18831	14.08469	9.60805
17960	2.01652	1.86191	1.63726	8.62488	8.02789	7.29811	16.44844	10.29760	5.73142	6.36890	6.09748	5.93108	4.64181	3.83625	3.23218	20.19907	14.08344	9.60961
18120	2.01571	1.86617	1.63828	8.62659	8.02815	7.29745	16.43661	10.29705	5.73389	6.36791	6.10041	5.93501	4.64413	3.83325	3.22892	20.19913	14.08514	9.61045	33.13	6.3	0.00	-2.04	0.01729	0.01197	0.01514	0.01832	0.01896	0.01482	0.00543	0.01506	0.01999	0.01871	0.01299	0.01655	0.01700	0.01758	0.01373	0.00571	0.01609	0.02152
18290	2.01488	1.86313	1.63579	8.62554	8.02612	7.29587	16.44201	10.29214	5.73294	6.36576	6.09737	5.93403	4.64383	3.83751	3.23344	20.20356	14.09050	9.61149
18450	2.01753	1.86565	1.63772	8.63066	8.03365	7.30322	16.43906	10.30145	5.73533	6.37066	6.10173	5.93757	4.64468	3.83525	3.23041	20.19397	14.08845	9.61115
18610	2.01756	1.86630	1.63811	8.63035	8.03816	7.30811	16.44816	10.29836	5.74148	6.37236	6.10193	5.93878	4.64790	3.83729	3.23011	20.21064	14.09233	9.61404
18780	2.01752	1.86497	1.63785	8.63112	8.03233	7.30209	16.43476	10.29663	5.73398	6.37381	6.10261	5.93625	4.64257	3.83610	3.23267	20.19220	14.08824	9.61363
18940	2.01639	1.86628	1.63762	8.63059	8.03496	7.30593	16.41574	10.29745	5.73339	6.37010	6.09965	5.93725	4.64268	3.83342	3.22747	20.20341	14.08299	9.60798
19110	2.01553	1.86300	1.63730	8.63075	8.03413	7.30427	16.43575	10.29467	5.73127	6.37025	6.10163	5.93757	4.64397	3.83226	3.22729	20.18837	14.08508	9.61006
19270	2.01687	1.86286	1.63592	8.62908	8.03392	7.30314	16.43108	10.29318	5.73266	6.37262	6.09432	5.93172	4.64013	3.83058	3.22777	20.19972	14.08063	9.60282
19430	2.01554	1.86375	1.63810	8.63851	8.04375	7.30149	16.42359	10.29627	5.73294	6.36966	6.10665	5.94203	4.64240	3.83289	3.22843	20.17541	14.08617	9.62151
19600	2.01278	1.86323	1.63669	8.62876	8.01992	7.29425	16.43390	10.29538	5.72946	6.38071	6.10319	5.92593	4.64260	3.83316	3.23046	20.19014	14.09488	9.61829
19760	2.01491	1.86569	1.63678	8.62443	8.02970	7.30692	16.42936	10.29321	5.73507	6.37537	6.10165	5.93361	4.64057	3.83266	3.22850	20.20422	14.09419	9.61324	33.13	6.0	0.00	-2.04	0.01729	0.01197	0.01514	0.01832	0.01896	0.01482	0.00543	0.01506	0.01999	0.01871	0.01299	0.01655	0.01700	0.01758	0.01373	0.00571	0.01609	0.02152
19930	2.01706	1.86577	1.63895	8.62874	8.03465	7.30576	16.44312	10.30082	5.73651	6.37666	6.10201	5.93852	4.64339	3.83338	3.22789	20.20879	14.09084	9.60583
20090	2.01744	1.86304	1.63753	8.62968	8.04098	7.30803	16.43796	10.29717	5.73205	6.36633	6.10299	5.94410	4.64161	3.83524	3.22796	20.20171	14.08824	9.61213
20260	2.01551	1.86729	1.63730	8.63296	8.03720	7.30643	16.42887	10.29815	5.73389	6.37765	6.10771	5.94382	4.64158	3.83616	3.22994	20.20628	14.08572	9.60973
20420	2.01532	1.86486	1.63820	8.63384	8.04030	7.30913	16.42151	10.29135	5.73507	6.37185	6.10197	5.94230	4.64440	3.83445	3.23125	20.21736	14.08832	9.61235
20590	2.01750	1.86626	1.63830	8.63608	8.03949	7.30648	16.41476	10.29390	5.73297	6.37451	6.10537	5.94369	4.64165	3.83352	3.22820	20.19404	14.08877	9.61043
20750	2.01493	1.86635	1.64064	8.63007	8.03810	7.30830	16.45210	10.29819	5.74078	6.37857	6.11172	5.95243	4.64387	3.83532	3.23206	20.19581	14.08761	9.60897
20920	2.01845	1.86563	1.63748	8.63405	8.03618	7.30642	16.45838	10.29770	5.73204	6.38430	6.12034	5.94891	4.64196	3.83626	3.23031	20.19846	14.08888	9.61747
21090	2.01456	1.86419	1.63857	8.62494	8.03174	7.31267	16.45801	10.29555	5.73503	6.38263	6.10384	5.93964	4.64221	3.83728	3.23253	20.21308	14.09291	9.61040
21250	2.01693	1.86405	1.63979	8.63335	8.03991	7.31067	16.44349	10.29726	5.73372	6.38266	6.11265	5.94750	4.64039	3.83403	3.22787	20.20008	14.08970	9.61486
21420	2.01895	1.86689	1.63968	8.63557	8.04067	7.31164	16.47496	10.30024	5.73804	6.38400	6.11475	5.95208	4.64337	3.83567	3.23078	20.21828	14.08944	9.61774	33.19	6.1	0.00	-2.04	0.01729	0.01197	0.01514	0.01832	0.01895	0.01482	0.00543	0.01506	0.01999	0.01871	0.01299	0.01655	0.01700	0.01758	0.01373	0.00571	0.01609	0.02152
21580	2.01736	1.86508	1.63762	8.64045	8.04242	7.30874	16.44725	10.29719	5.73470	6.38205	6.11240	5.94547	4.64339	3.83755	3.23028	20.20219	14.09374	9.62133
21750	2.01618	1.86631	1.63768	8.63802	8.04024	7.30985	16.43459	10.29459	5.73138	6.37746	6.11043	5.94719	4.64175	3.83564	3.23188	20.19688	14.09263	9.61773
21910	2.01789	1.86837	1.63989	8.63587	8.04121	7.31097	16.42084	10.29970	5.73250	6.38246	6.11275	5.95022	4.64190	3.83520	3.23083	20.19673	14.09180	9.61547
22080	2.02001	1.86784	1.64049	8.63825	8.04374	7.31270	16.41091	10.30106	5.73748	6.38281	6.11548	5.95196	4.64243	3.83805	3.23336	20.20661	14.09393	9.62210
22240	2.01698	1.86542	1.63803	8.63604	8.04032	7.30894	16.45278	10.29628	5.73222	6.37970	6.11130	5.94778	4.64532	3.83757	3.23155	20.21592	14.09948	9.62514
22410	2.01902	1.86701	1.64014	8.64110	8.04154	7.31167	16.43508	10.30022	5.73475	6.38608	6.11536	5.95190	4.64435	3.83617	3.23352	20.21474	14.09478	9.61855
22570	2.01773	1.86840	1.63947	8.64109	8.04643	7.31412	16.45672	10.30039	5.73484	6.37909	6.11430	5.95249	4.64364	3.83388	3.22774	20.21636	14.09470	9.61780
22740	2.01929	1.86635	1.64259	8.64090	8.04640	7.31701	16.43262	10.29735	5.73499	6.38430	6.11361	5.95283	4.64611	3.83582	3.23192	20.21784	14.09528	9.61755
22900	2.01831	1.86739	1.64069	8.64181	8.04672	7.31502	16.43668	10.29343	5.73329	6.38209	6.11644	5.95479	4.64500	3.83579	3.23080	20.20012	14.09403	9.61718
23070	2.01793	1.86729	1.63962	8.64217	8.04599	7.31574	16.43920	10.29962	5.73566	6.38244	6.11346	5.95065	4.64440	3.83548	3.23375	20.20425	14.09812	9.62085	33.19	6.1	0.00	-2.04	0.01729	0.01197	0.01514	0.01832	0.01895	0.01482	0.00543	0.01506	0.01999	0.01871	0.01299	0.01655	0.01700	0.01758	0.01373	0.00571	0.01609	0.02152
23230	2.01708	1.86614	1.63910	8.63731	8.04073	7.31275	16.43257	10.29677	5.73449	6.38371	6.11253	5.95003	4.64376	3.83604	3.23405	20.20824	14.09929	9.62059
23400	2.01761	1.86708	1.63975	8.64279	8.04374	7.31389	16.43527	10.29742	5.73748	6.38320	6.11527	5.95109	4.64287	3.83428	3.22993	20.21356	14.09350	9.61839
23560	2.01660	1.86577	1.64084	8.64003	8.04698	7.31584	16.44535	10.29570	5.73468	6.39327	6.12196	5.95208	4.64609	3.83913	3.23378	20.20160	14.09846	9.62581
23730	2.01828	1.86546	1.63820	8.64173	8.04692	7.31931	16.45408	10.29724	5.73509	6.38468	6.11374	5.95425	4.64375	3.83702	3.23300	20.20661	14.09241	9.61826
23890	2.01666	1.86843	1.64066	8.64479	8.05306	7.31744	16.42851	10.29693	5.73606	6.38408	6.11464	5.95473	4.64255	3.83604	3.23119	20.21843	14.09692	9.61965
24060	2.01853	1.86704	1.64076	8.64231	8.05240	7.32241	16.43908	10.30206	5.73639	6.38886	6.11488	5.95200	4.64723	3.83516	3.23049	20.21016	14.09544	9.61792
24220	2.02121	1.86827	1.64446	8.64662	8.06136	7.33126	16.41931	10.29784	5.74047	6.38344	6.10945	5.95613	4.64772	3.83744	3.23521	20.22346	14.09833	9.61811
24390	2.02103	1.86621	1.64083	8.65228	8.05695	7.31721	16.45125	10.29615	5.73450	6.38617	6.12211	5.96000	4.64365	3.83382	3.23037	20.20765	14.09666	9.62677
24550	2.01701	1.86544	1.63993	8.64168	8.04471	7.31822	16.43748	10.29530	5.73209	6.39081	6.11440	5.94878	4.64586	3.83877	3.23135	20.20780	14.10481	9.62635
24720	2.01804	1.86814	1.64079	8.64216	8.05049	7.31971	16.46945	10.29989	5.73766	6.38796	6.11703	5.95655	4.64359	3.83440	3.23242	20.20325	14.09978	9.62336	33.19	6.0	0.00	-2.04	0.01729	0.01197	0.01514	0.01832	0.01895	0.01482	0.00543	0.01506	0.01999	0.01871	0.01299	0.01655	0.01700	0.01758	0.01373	0.00571	0.01609	0.02152
24880	2.01942	1.86881	1.64217	8.64551	8.04989	7.32143	16.46428	10.29800	5.73833	6.39011	6.12142	5.95913	4.64610	3.83677	3.23198	20.21256	14.10395	9.62142
25050	2.02034	1.86651	1.64068	8.64061	8.04880	7.31952	16.42959	10.29633	5.73177	6.39134	6.12713	5.96631	4.64619	3.84081	3.23575	20.19352	14.09770	9.63116
25210	2.02295	1.87098	1.64274	8.64597	8.04510	7.32026	16.43930	10.29766	5.73626	6.40508	6.12513	5.95265	4.64819	3.83515	3.23282	20.21448	14.10971	9.62994
25380	2.02072	1.86920	1.64183	8.64037	8.05079	7.32581	16.43450	10.29955	5.73637	6.39476	6.12332	5.95960	4.64574	3.83835	3.23453	20.22704	14.10847	9.63195
25540	2.02132	1.86962	1.64363	8.64802	8.05752	7.32717	16.45639	10.29853	5.73723	6.39314	6.12294	5.96128	4.64711	3.83731	3.23184	20.22364	14.10692	9.63118
25710	2.02015	1.86624	1.64131	8.64690	8.05302	7.32268	16.44901	10.29931	5.73492	6.39241	6.12278	5.96181	4.64568	3.83803	3.23298	20.20635	14.10214	9.62878
25870	2.01920	1.86506	1.64070	8.64885	8.05007	7.32109	16.45627	10.29524	5.73617	6.39423	6.12634	5.96178	4.64609	3.83835	3.23173	20.21256	14.10211	9.62814
26040	2.01947	1.86648	1.64113	8.64707	8.05489	7.32448	16.42886	10.29675	5.73494	6.39274	6.12421	5.96167	4.64715	3.83914	3.23414	20.20251	14.10328	9.62951
26200	2.02085	1.87120	1.64108	8.64913	8.05465	7.32621	16.42260	10.29806	5.73530	6.40012	6.12448	5.95890	4.64528	3.83728	3.23551	20.21980	14.10355	9.62805
26370	2.01889	1.86896	1.64205	8.64790	8.05909	7.33278	16.42706	10.30067	5.73904	6.40328	6.12579	5.96070	4.64809	3.84056	3.23428	20.22015	14.10871	9.62996	33.19	6.3	0.00	-2.04	0.01729	0.01197	0.01514	0.01832	0.01895	0.01482	0.00543	0.01506	0.01999	0.01871	0.01299	0.01655	0.01700	0.01758	0.01373	0.00571	0.01609	0.02152
26530	2.01936	1.86862	1.64093	8.64599	8.05813	7.32950	16.43123	10.30130	5.73429	6.39922	6.12448	5.96621	4.64736	3.84012	3.23702	20.20804	14.10608	9.63027
26700	2.02289	1.87148	1.64416	8.65322	8.05922	7.32681	16.45878	10.30265	5.73779	6.40505	6.13516	5.96985	4.64714	3.83792	3.23305	20.20833	14.10310	9.63193
26860	2.01960	1.86879	1.64114	8.64965	8.05149	7.32239	16.43885	10.29718	5.73372	6.40331	6.13038	5.96382	4.64501	3.83698	3.23197	20.21158	14.10804	9.62992
27030	2.01982	1.86596	1.64257	8.64817	8.05323	7.32452	16.44008	10.30232	5.73667	6.39818	6.12827	5.96808	4.64592	3.83682	3.23242	20.21262	14.10414	9.63154
27190	2.01759	1.86653	1.64073	8.65076	8.05624	7.32501	16.41663	10.30023	5.73579	6.39496	6.12598	5.96411	4.64652	3.83723	3.23293	20.21498	14.10762	9.63223
27360	2.02026	1.87188	1.64377	8.65058	8.05793	7.32581	16.41994	10.29950	5.73611	6.39620	6.12768	5.96890	4.64522	3.83819	3.23397	20.21173	14.10515	9.63029
27520	2.02007	1.87250	1.64350	8.65502	8.05772	7.32573	16.46185	10.29941	5.73912	6.39953	6.12890	5.96612	4.64665	3.83808	3.23293	20.21971	14.10932	9.63433
27690	2.01804	1.86547	1.64011	8.64916	8.05658	7.32709	16.45213	10.29901	5.73497	6.39542	6.12639	5.96469	4.64765	3.84010	3.23820	20.22518	14.12265	9.63915
27850	2.02218	1.86892	1.64424	8.65191	8.06056	7.33667	16.43332	10.29912	5.73660	6.39144	6.12446	5.96737	4.64676	3.83735	3.23359	20.22208	14.10919	9.63966
28020	2.02160	1.87053	1.64260	8.65389	8.05342	7.32340	16.43173	10.29849	5.73903	6.40909	6.13345	5.96109	4.64659	3.84040	3.23701	20.21909	14.11515	9.64200	33.19	6.0	0.00	-2.04	0.01729	0.01197	0.01514	0.01832	0.01895	0.01482	0.00543	0.01506	0.01999	0.01871	0.01299	0.01655	0.01700	0.01758	0.01373	0.00571	0.01609	0.02152
28180	2.02357	1.87069	1.64561	8.65013	8.06062	7.33449	16.44659	10.29924	5.73983	6.40520	6.13053	5.96951	4.64689	3.84044	3.23462	20.21909	14.11185	9.63411
28350	2.01940	1.87174	1.64505	8.65562	8.06470	7.33353	16.46124	10.30454	5.73884	6.40187	6.13144	5.97178	4.64817	3.83951	3.23398	20.23788	14.11225	9.63609
28510	2.02126	1.86798	1.64323	8.65747	8.06157	7.32941	16.44106	10.29957	5.73689	6.40201	6.13265	5.96920	4.64627	3.84174	3.23667	20.21747	14.11339	9.64152
28680	2.02157	1.86948	1.64314	8.65872	8.06358	7.33146	16.44450	10.30091	5.73799	6.40564	6.13192	5.97116	4.64739	3.83882	3.23270	20.21525	14.11116	9.63500
28840	2.01864	1.86866	1.64401	8.65779	8.06129	7.33271	16.44672	10.30349	5.73910	6.40519	6.13249	5.97089	4.64688	3.84030	3.23322	20.23403	14.11129	9.63314
29000	2.02096	1.86676	1.64182	8.65600	8.06248	7.33286	16.43959	10.29615	5.73630	6.40867	6.13615	5.97424	4.64542	3.83859	3.23141	20.21732	14.11483	9.64062
29170	2.02101	1.86863	1.64052	8.65320	8.05950	7.33690	16.42313	10.30002	5.73809	6.40530	6.12850	5.96994	4.64628	3.83898	3.23543	20.23241	14.11379	9.63537
29330	2.01811	1.86812	1.64158	8.65733	8.06511	7.33273	16.44475	10.29846	5.73337	6.40031	6.13329	5.97508	4.64855	3.84205	3.23925	20.23137	14.11557	9.64206
29500	2.02498	1.87168	1.64406	8.66435	8.06746	7.33475	16.44155	10.30456	5.74114	6.40315	6.13430	5.97688	4.64875	3.84030	3.23710	20.23477	14.11735	9.64141
29660	2.02117	1.86948	1.64303	8.66008	8.06378	7.33173	16.47195	10.29982	5.73786	6.40671	6.13641	5.97372	4.64641	3.83592	3.23342	20.22295	14.11522	9.63911	33.19	6.0	0.00	-2.04	0.01729	0.01197	0.01514	0.01832	0.01895	0.01482	0.00543	0.01506	0.01999	0.01871	0.01299	0.01655	0.01700	0.01758	0.01373	0.00571	0.01609	0.02152
29830	2.02077	1.87068	1.64389	8.65943	8.06646	7.33785	16.47454	10.30614	5.74117	6.41125	6.13872	5.97607	4.64662	3.84128	3.23510	20.23805	14.11972	9.64136
29990	2.02192	1.86769	1.64334	8.65633	8.06541	7.33777	16.42607	10.29806	5.73642	6.40857	6.13315	5.97267	4.64810	3.84204	3.23803	20.23790	14.12329	9.64318
30160	2.02368	1.87350	1.64444	8.65664	8.06596	7.34133	16.45704	10.30253	5.73799	6.40655	6.13525	5.97656	4.64893	3.83943	3.23496	20.23079	14.11924	9.63977
30320	2.02075	1.87071	1.64483	8.65958	8.06919	7.33803	16.44547	10.30315	5.74110	6.40801	6.13951	5.98024	4.64577	3.83909	3.23285	20.22828	14.11719	9.63981
30490	2.01999	1.87031	1.64544	8.66046	8.06692	7.33629	16.46566	10.30493	5.74066	6.41000	6.13956	5.98186	4.64813	3.83972	3.23546	20.23449	14.11834	9.64238
30650	2.01930	1.86955	1.64197	8.66209	8.06742	7.33527	16.44388	10.29553	5.73898	6.41275	6.14056	5.97763	4.64822	3.84005	3.23357	20.23124	14.12105	9.64528
30820	2.02097	1.87093	1.64498	8.66183	8.06883	7.33809	16.45150	10.30467	5.73859	6.41462	6.14157	5.98021	4.65139	3.84212	3.23859	20.22310	14.12569	9.64927
30980	2.02384	1.87396	1.64645	8.66550	8.07341	7.34216	16.45556	10.30409	5.74180	6.41393	6.14145	5.98054	4.65121	3.84030	3.23966	20.23849	14.12497	9.64766
31150	2.02179	1.86981	1.64321	8.66296	8.06943	7.34018	16.43773	10.29877	5.73800	6.41121	6.13954	5.98002	4.64716	3.83961	3.23566	20.23420	14.11988	9.64408
31310	2.02151	1.86901	1.64201	8.66372	8.06968	7.33915	16.44014	10.29749	5.73724	6.41085	6.14132	5.98197	4.64903	3.84317	3.23950	20.24558	14.12723	9.65151	33.19	6.1	0.00	-2.04	0.01729	0.01197	0.01514	0.01832	0.01895	0.01482	0.00543	0.01506	0.01999	0.01871	0.01299	0.01655	0.01700	0.01758	0.01373	0.00571	0.01609	0.02152
31480	2.02478	1.87356	1.64690	8.66771	8.07414	7.34201	16.47448	10.30049	5.74184	6.42242	6.14703	5.98470	4.65042	3.84150	3.23697	20.24350	14.12712	9.65234
31640	2.02397	1.86666	1.64217	8.66486	8.07296	7.34194	16.46782	10.30107	5.73708	6.41741	6.14233	5.98298	4.64641	3.83781	3.23472	20.23180	14.12036	9.64390
31810	2.01957	1.86786	1.63959	8.66447	8.07345	7.34390	16.46216	10.29818	5.73559	6.41251	6.13949	5.97919	4.64719	3.84094	3.23467	20.23713	14.12731	9.64851
31970	2.02216	1.87476	1.64634	8.66366	8.07477	7.34740	16.41927	10.30074	5.74123	6.41957	6.14256	5.98199	4.64499	3.83946	3.23358	20.23254	14.12483	9.64477
32130	2.02312	1.87434	1.64469	8.66587	8.07853	7.35209	16.45354	10.31022	5.74290	6.41946	6.14614	5.98986	4.64903	3.84026	3.23473	20.24543	14.12337	9.64694
32300	2.02242	1.86949	1.64356	8.66486	8.07175	7.34427	16.45625	10.29593	5.73786	6.42550	6.14617	5.98382	4.64858	3.84002	3.23791	20.22751	14.12866	9.65302
32460	2.02336	1.87204	1.64399	8.66583	8.06928	7.34216	16.46573	10.30361	5.73714	6.43156	6.15747	5.99148	4.64836	3.83920	3.23516	20.22855	14.12334	9.64863
32630	2.02257	1.87168	1.64492	8.66940	8.06520	7.33670	16.43780	10.30995	5.73912	6.43580	6.16633	5.99534	4.65032	3.84055	3.23551	20.22071	14.12470	9.66150
32790	2.02212	1.86907	1.64228	8.66020	8.05526	7.33734	16.44936	10.30496	5.73609	6.43762	6.15136	5.97696	4.64805	3.84127	3.23566	20.23891	14.13330	9.65540
32960	2.02383	1.87023	1.64555	8.66002	8.06993	7.35038	16.45978	10.29853	5.73928	6.42352	6.14501	5.98255	4.64994	3.84051	3.23411	20.23207	14.12444	9.64775	33.19	6.0	0.00	-2.04	0.01729	0.01197	0.01514	0.01832	0.01895	0.01482	0.00543	0.01506	0.01999	0.01871	0.01299	0.01654	0.01700	0.01758	0.01373	0.00571	0.01609	0.02152
33120	2.02266	1.87207	1.64563	8.66746	8.07878	7.35089	16.44071	10.30100	5.74055	6.41694	6.14605	5.98844	4.64827	3.84144	3.23672	20.23163	14.12575	9.64988
33290	2.02248	1.87081	1.64264	8.66956	8.07515	7.34568	16.43518	10.30000	5.73685	6.41689	6.14488	5.98490	4.64608	3.84051	3.23545	20.24199	14.13254	9.65523
33450	2.02176	1.87018	1.64312	8.66715	8.07426	7.34593	16.45879	10.30340	5.73880	6.41751	6.14377	5.98734	4.65045	3.83837	3.23429	20.24599	14.12907	9.64678
33620	2.02229	1.87211	1.64707	8.66953	8.08722	7.35491	16.43297	10.29964	5.74253	6.41082	6.14772	5.99443	4.64827	3.84232	3.23669	20.24614	14.12465	9.65232
33780	2.02181	1.86986	1.64695	8.67724	8.08181	7.34688	16.45350	10.29986	5.73893	6.41884	6.15181	5.99023	4.64705	3.84004	3.23544	20.23355	14.13209	9.65727
33950	2.02348	1.87228	1.64649	8.66707	8.07608	7.35204	16.44600	10.29575	5.73887	6.42003	6.14508	5.98737	4.64953	3.83946	3.23623	20.23459	14.12846	9.65436
34110	2.02189	1.87240	1.64540	8.67606	8.08181	7.34693	16.44870	10.29806	5.73657	6.42353	6.15140	5.99052	4.65044	3.84104	3.23721	20.24940	14.12846	9.65579
34280	2.02237	1.87018	1.64448	8.67559	8.08330	7.35313	16.45153	10.30031	5.74097	6.42374	6.14719	5.99110	4.64925	3.84070	3.23577	20.24481	14.12798	9.65055
34440	2.02161	1.87352	1.64698	8.67443	8.08487	7.35050	16.45522	10.30360	5.74208	6.42455	6.15632	5.99779	4.64918	3.84182	3.23526	20.26068	14.13235	9.65727
34610	2.02320	1.87143	1.64423	8.67184	8.07697	7.34787	16.44223	10.29416	5.73827	6.42497	6.15394	5.99335	4.65042	3.84052	3.23924	20.24654	14.13652	9.65838	33.19	6.1	0.00	-2.04	0.01729	0.01197	0.01514	0.01832	0.01895	0.01482	0.00543	0.01506	0.01999	0.01871	0.01299	0.01654	0.01700	0.01758	0.01373	0.00571	0.01609	0.02152
34770	2.02411	1.87442	1.64655	8.67569	8.08262	7.35133	16.41964	10.30643	5.74091	6.42646	6.16125	6.00367	4.64913	3.84146	3.23618	20.24743	14.12674	9.65630
34940	2.02205	1.87002	1.64621	8.67436	8.07699	7.34394	16.42614	10.29865	5.73904	6.42968	6.15924	5.99771	4.64476	3.83850	3.23621	20.24506	14.12906	9.65725
35100	2.02313	1.87046	1.64500	8.67492	8.07957	7.34791	16.45564	10.30223	5.73825	6.43055	6.15784	5.99780	4.64791	3.83987	3.23556	20.24476	14.13220	9.65679
35270	2.02234	1.86827	1.64304	8.67492	8.08103	7.34902	16.44961	10.30387	5.73576	6.42681	6.15086	5.99226	4.64769	3.84095	3.23449	20.24298	14.13726	9.66058
35430	2.02341	1.87409	1.64570	8.67646	8.08458	7.35479	16.46155	10.30025	5.74059	6.42667	6.15114	5.99478	4.64920	3.83927	3.23327	20.24594	14.13468	9.65724
35600	2.02390	1.87199	1.64639	8.67798	8.08871	7.35751	16.45170	10.30080	5.74324	6.43091	6.15686	5.99998	4.65281	3.83983	3.23609	20.24076	14.13878	9.66330
35760	2.02306	1.86993	1.64600	8.67843	8.08275	7.35406	16.45047	10.30269	5.73626	6.43149	6.15481	5.99587	4.64706	3.83925	3.23397	20.24180	14.13814	9.66035
35930	2.01910	1.86850	1.64323	8.67583	8.08146	7.34948	16.47929	10.29874	5.73728	6.42888	6.14861	5.99300	4.64533	3.83790	3.23251	20.25989	14.14492	9.65505
36090	2.02164	1.87086	1.64674	8.67455	8.09361	7.35999	16.46943	10.29593	5.73553	6.42146	6.15493	6.00447	4.64870	3.83874	3.23432	20.25410	14.12983	9.65643
36260	2.02133	1.87163	1.64218	8.67962	8.08741	7.35529	16.47043	10.29694	5.73662	6.43367	6.15655	5.99695	4.64724	3.83764	3.23424	20.24426	14.13415	9.66017	33.19	6.1	0.00	-2.04	0.01729	0.01197	0.01514	0.01832	0.01895	0.01482	0.00543	0.01506	0.02000	0.01870	0.01299	0.01654	0.01700	0.01758	0.01373	0.00571	0.01609	0.02152
36420	2.02031	1.86874	1.64158	8.67620	8.08336	7.35432	16.43770	10.29550	5.73788	6.43248	6.15911	5.99946	4.64619	3.84121	3.23509	20.24249	14.13869	9.66086
36590	2.02305	1.87001	1.64546	8.67812	8.08803	7.35810	16.45036	10.29948	5.73840	6.43418	6.16376	6.00257	4.64849	3.84380	3.23957	20.25731	14.13991	9.66552
36750	2.02527	1.87510	1.64770	8.68354	8.09050	7.36073	16.44655	10.30524	5.74193	6.44227	6.16601	6.00179	4.64957	3.84289	3.23757	20.24160	14.14114	9.66505
36920	2.02278	1.87080	1.64618	8.67872	8.08462	7.35853	16.41684	10.29672	5.73599	6.44047	6.16254	6.00050	4.64667	3.83832	3.23434	20.23686	14.13794	9.66286
37080	2.02038	1.87064	1.64619	8.67694	8.08522	7.36037	16.44470	10.30079	5.73642	6.44613	6.16394	5.99820	4.64868	3.84253	3.23514	20.24827	14.14709	9.66365
37250	2.02201	1.86897	1.64221	8.67452	8.09030	7.36516	16.45196	10.29585	5.73568	6.43219	6.15324	6.00075	4.64619	3.83946	3.23491	20.26593	14.13970	9.66168
37410	2.02236	1.87070	1.64581	8.68440	8.09355	7.36067	16.43168	10.29581	5.73618	6.43828	6.16490	6.00551	4.64638	3.83850	3.23208	20.24960	14.14007	9.66450
37580	2.02289	1.87347	1.64603	8.68356	8.09438	7.36351	16.43180	10.30099	5.74005	6.44127	6.16874	6.01064	4.64830	3.84092	3.23717	20.26162	14.14496	9.66629
37740	2.02406	1.87040	1.64308	8.68709	8.09253	7.36064	16.46636	10.30039	5.73640	6.43904	6.16737	6.00673	4.64505	3.83786	3.23498	20.25984	14.14381	9.66403
37910	2.02159	1.87054	1.64415	8.68445	8.09393	7.36590	16.45091	10.29377	5.73873	6.43845	6.16517	6.00536	4.64758	3.83764	3.23558	20.24458	14.14077	9.66603	33.13	6.1	0.00	-2.04	0.01729	0.01197	0.01515	0.01832	0.01895	0.01482	0.00543	0.01506	0.02000	0.01870	0.01299	0.01654	0.01700	0.01758	0.01374	0.00571	0.01609	0.02152
38070	2.02190	1.86945	1.64412	8.68609	8.09225	7.36345	16.42842	10.29635	5.73520	6.44106	6.16456	6.00611	4.64743	3.83943	3.23600	20.25466	14.14384	9.66861
38230	2.02133	1.87169	1.64518	8.68477	8.09315	7.36378	16.43837	10.30013	5.73675	6.44006	6.16555	6.00810	4.64591	3.83965	3.23592	20.24265	14.14466	9.67017
38400	2.02052	1.87076	1.64464	8.68941	8.09484	7.36632	16.45521	10.29971	5.73551	6.43731	6.16170	6.00300	4.64629	3.83832	3.23662	20.25852	14.15051	9.67158
38570	2.02066	1.87167	1.64546	8.68749	8.09651	7.36610	16.45497	10.29813	5.73682	6.44324	6.16784	6.00679	4.64666	3.83747	3.23327	20.25110	14.14362	9.66776
38730	2.02258	1.87436	1.64942	8.69396	8.10418	7.37423	16.46506	10.30398	5.74376	6.44149	6.17024	6.01500	4.64961	3.84185	3.23747	20.27010	14.14765	9.67146
38890	2.02264	1.87128	1.64418	8.69391	8.09950	7.36693	16.44734	10.29986	5.73746	6.44436	6.17187	6.01043	4.64619	3.83789	3.23143	20.26535	14.14594	9.67098
39060	2.01994	1.87220	1.64402	8.68541	8.09375	7.36566	16.44980	10.30195	5.73528	6.44538	6.16735	6.00911	4.64588	3.83901	3.23493	20.26327	14.15187	9.67108
39220	2.02284	1.87203	1.64305	8.69107	8.09390	7.36675	16.45201	10.29742	5.73799	6.44135	6.16883	6.01191	4.64756	3.83868	3.23511	20.27783	14.15508	9.67019
39390	2.02301	1.87179	1.64587	8.69148	8.10297	7.37021	16.42082	10.29813	5.73909	6.43928	6.16986	6.01774	4.64559	3.83793	3.23675	20.25941	14.14506	9.67042
39560	2.01890	1.87069	1.64484	8.69348	8.10051	7.36832	16.43865	10.29551	5.73922	6.44567	6.17047	6.01482	4.64837	3.84092	3.23768	20.25570	14.15385	9.67514	33.13	6.2	0.00	-2.04	0.01729	0.01197	0.01515	0.01832	0.01895	0.01482	0.00543	0.01506	0.02000	0.01870	0.01299	0.01654	0.01700	0.01758	0.01374	0.00571	0.01609	0.02152
39720	2.02270	1.87194	1.64588	8.69107	8.09816	7.36926	16.43657	10.29576	5.73613	6.44784	6.17369	6.01299	4.65096	3.84443	3.23988	20.26208	14.15475	9.67840
39880	2.02348	1.87271	1.64405	8.69666	8.10291	7.37632	16.45033	10.30121	5.73767	6.44887	6.16954	6.00991	4.64910	3.84155	3.23749	20.27084	14.15401	9.67172
40050	2.02007	1.87007	1.64435	8.69591	8.10750	7.37533	16.43718	10.29309	5.73416	6.44190	6.16847	6.01365	4.64549	3.83715	3.23486	20.25971	14.14861	9.67135
40210	2.01973	1.86895	1.64422	8.70123	8.10886	7.37072	16.41264	10.29558	5.73697	6.44413	6.17468	6.01595	4.64655	3.84070	3.23693	20.26030	14.15059	9.67867
40380	2.01977	1.86991	1.64301	8.69874	8.10035	7.36609	16.45070	10.30196	5.73603	6.44750	6.17375	6.01388	4.64645	3.84121	3.23572	20.26787	14.15425	9.67712
40540	2.02245	1.87066	1.64529	8.69538	8.10435	7.37523	16.44001	10.29963	5.73800	6.45236	6.17796	6.01633	4.64698	3.83800	3.23569	20.25511	14.15310	9.67824
40710	2.02447	1.87334	1.64667	8.69765	8.11016	7.38127	16.44517	10.30472	5.74106	6.44686	6.17328	6.02137	4.65104	3.84246	3.23658	20.27411	14.15288	9.67617
40870	2.02235	1.87097	1.64593	8.70271	8.10636	7.37302	16.45242	10.29449	5.73539	6.45345	6.17714	6.01522	4.64483	3.83905	3.23464	20.27159	14.15529	9.67794
41040	2.02055	1.87168	1.64562	8.69873	8.10878	7.37704	16.43865	10.29702	5.73907	6.44920	6.17417	6.01908	4.64590	3.83866	3.23418	20.27545	14.15678	9.67952
41200	2.01930	1.86769	1.64394	8.69885	8.10736	7.37528	16.42245	10.29307	5.73668	6.45360	6.17974	6.02096	4.64612	3.83888	3.23397	20.27505	14.15586	9.67977	33.19	6.0	0.00	-2.04	0.01729	0.01197	0.01515	0.01831	0.01895	0.01482	0.00543	0.01506	0.02000	0.01870	0.01299	0.01654	0.01700	0.01758	0.01373	0.00571	0.01609	0.02152
41370	2.02212	1.87395	1.64340	8.70022	8.10599	7.37678	16.41644	10.29816	5.73734	6.45871	6.18104	6.01845	4.64552	3.84063	3.23302	20.26925	14.15837	9.68068
41530	2.02279	1.87085	1.64558	8.69897	8.10709	7.37675	16.45046	10.29022	5.73544	6.45243	6.17756	6.01815	4.64791	3.83859	3.23710	20.26940	14.16027	9.68375
41700	2.02402	1.87152	1.64675	8.70139	8.10880	7.37861	16.45132	10.29760	5.73846	6.45485	6.18002	6.01974	4.65009	3.84266	3.23961	20.28189	14.16642	9.68729
41860	2.02407	1.87429	1.64730	8.70076	8.11487	7.38582	16.44050	10.30630	5.74037	6.45028	6.17725	6.02642	4.65043	3.84083	3.23442	20.28888	14.15770	9.68241
42030	2.02206	1.87020	1.64468	8.70675	8.11147	7.37597	16.44824	10.29300	5.73759	6.45063	6.17897	6.02000	4.64756	3.83660	3.23320	20.26791	14.16054	9.68559
42190	2.02024	1.86931	1.64514	8.70117	8.10697	7.37940	16.45636	10.29456	5.73273	6.45573	6.17705	6.01593	4.64783	3.84208	3.23814	20.28963	14.16722	9.68783
42360	2.02710	1.87350	1.64913	8.70831	8.11537	7.38514	16.45833	10.29853	5.74060	6.45729	6.18504	6.02602	4.64583	3.83885	3.23546	20.28367	14.16313	9.68457
42520	2.02244	1.87137	1.64381	8.70278	8.10891	7.38092	16.44062	10.29451	5.73376	6.45802	6.18514	6.02173	4.64465	3.83837	3.23429	20.27386	14.16048	9.68524
42690	2.02105	1.87223	1.64538	8.70159	8.10737	7.37663	16.44443	10.29256	5.73697	6.45511	6.18296	6.02261	4.64705	3.84019	3.23665	20.28144	14.16567	9.69001
42850	2.02480	1.87433	1.64767	8.70244	8.10827	7.38245	16.42612	10.29717	5.73813	6.45541	6.18482	6.03138	4.64574	3.84011	3.23472	20.28460	14.15940	9.67747	33.19	5.9	0.00	-2.04	0.01729	0.01197	0.01515	0.01831	0.01895	0.01482	0.00543	0.01506	0.02000	0.01870	0.01299	0.01654	0.01700	0.01758	0.01373	0.00571	0.01609	0.02152
43010	2.02378	1.87418	1.64887	8.71040	8.11806	7.38021	16.45573	10.30712	5.74403	6.45614	6.19315	6.03946	4.65148	3.84160	3.23713	20.27255	14.16151	9.68719
43180	2.02286	1.87210	1.64693	8.70889	8.11134	7.37891	16.44417	10.30149	5.73807	6.45316	6.18374	6.03180	4.64853	3.83964	3.23305	20.28296	14.16718	9.68521
43340	2.02640	1.87180	1.64647	8.70389	8.11872	7.38873	16.43778	10.29924	5.73622	6.44585	6.17863	6.03703	4.64552	3.83827	3.23354	20.27627	14.15692	9.67357
43510	2.02052	1.87241	1.64642	8.71424	8.12511	7.38443	16.44737	10.29626	5.73610	6.44522	6.18481	6.03851	4.64832	3.83821	3.23238	20.27999	14.15932	9.68162
43670	2.02137	1.87038	1.64536	8.70617	8.11688	7.38364	16.43594	10.29973	5.73452	6.45011	6.18143	6.02907	4.64620	3.83712	3.23162	20.27389	14.16103	9.68376
43840	2.02358	1.87414	1.64721	8.71228	8.12154	7.38842	16.42747	10.30400	5.74303	6.46068	6.18726	6.02950	4.64949	3.84222	3.23679	20.27329	14.16897	9.69442
44000	2.02350	1.87103	1.64615	8.71094	8.11645	7.38404	16.46447	10.29697	5.73604	6.45927	6.18473	6.02465	4.65048	3.84332	3.23479	20.28058	14.17152	9.69586
44160	2.02418	1.87245	1.64558	8.71170	8.11661	7.38482	16.43962	10.29157	5.73819	6.46356	6.18893	6.02599	4.64905	3.83679	3.23316	20.28073	14.16577	9.69373
44330	2.02438	1.87166	1.64714	8.70482	8.11273	7.38846	16.44675	10.29955	5.73899	6.46719	6.18849	6.02930	4.64854	3.83844	3.23432	20.28326	14.16459	9.68722
44490	2.02243	1.86981	1.64474	8.70513	8.11833	7.38779	16.45141	10.29663	5.73621	6.46091	6.18486	6.02804	4.64498	3.83604	3.23195	20.28467	14.16622	9.68830	33.19	5.9	0.00	-2.04	0.01729	0.01197	0.01515	0.01831	0.01895	0.01482	0.00543	0.01506	0.02000	0.01870	0.01299	0.01654	0.01700	0.01758	0.01374	0.00571	0.01609	0.02152
44660	2.02509	1.87267	1.64790	8.70908	8.11978	7.39136	16.45338	10.29723	5.74031	6.46422	6.19079	6.03613	4.64875	3.84302	3.23635	20.28244	14.16793	9.69245
44820	2.02297	1.87217	1.64767	8.71298	8.11740	7.38852	16.42598	10.29419	5.73614	6.46317	6.18781	6.02929	4.64777	3.83740	3.23295	20.28557	14.16544	9.69128
44980	2.02194	1.87197	1.64552	8.70806	8.11680	7.38439	16.46988	10.29523	5.73537	6.46499	6.19000	6.03058	4.64632	3.84160	3.23574	20.27679	14.16940	9.69546
45150	2.02306	1.87147	1.64723	8.71043	8.11668	7.39070	16.42157	10.29783	5.73870	6.46485	6.18896	6.03340	4.64586	3.84010	3.23394	20.28110	14.16657	9.69028
45310	2.02222	1.87260	1.64601	8.70983	8.11950	7.38879	16.43310	10.29365	5.73759	6.46538	6.18929	6.03120	4.64782	3.83967	3.23442	20.28319	14.16678	9.69395
45480	2.02166	1.87236	1.64709	8.71222	8.12009	7.38759	16.42267	10.29241	5.73670	6.46355	6.18987	6.03398	4.64766	3.83904	3.23702	20.28869	14.16788	9.69201
45640	2.02368	1.87255	1.64747	8.71351	8.12249	7.39229	16.42365	10.29272	5.73838	6.46779	6.19008	6.03354	4.64702	3.83983	3.23386	20.28780	14.16911	9.69305
45810	2.02389	1.87240	1.64795	8.71452	8.12373	7.39453	16.44195	10.29868	5.73848	6.46676	6.18930	6.03470	4.64978	3.84196	3.23435	20.28884	14.17197	9.69420
45970	2.02253	1.87129	1.64770	8.71173	8.11901	7.38820	16.46483	10.29688	5.73672	6.46552	6.18926	6.03115	4.64604	3.83824	3.23577	20.29703	14.17577	9.69665
46140	2.02307	1.87227	1.64550	8.71052	8.11933	7.39215	16.44365	10.29154	5.73801	6.46286	6.18690	6.03305	4.64233	3.83654	3.23489	20.28836	14.17255	9.69376	33.19	5.9	0.00	-2.04	0.01729	0.01197	0.01515	0.01831	0.01895	0.01482	0.00543	0.01506	0.02000	0.01870	0.01299	0.01654	0.01700	0.01758	0.01374	0.00571	0.01609	0.02152
46300	2.02388	1.87554	1.64825	8.71256	8.12159	7.39374	16.43050	10.30081	5.74081	6.47033	6.19177	6.03489	4.65085	3.84123	3.23594	20.29477	14.17386	9.69601
46470	2.02479	1.87375	1.64484	8.71756	8.12340	7.38920	16.43849	10.29578	5.73623	6.46676	6.19311	6.03578	4.65034	3.84243	3.23778	20.28568	14.17321	9.70068
46630	2.02548	1.87311	1.64675	8.71523	8.12339	7.39280	16.43541	10.29838	5.73595	6.46768	6.19089	6.03269	4.64722	3.84028	3.23527	20.28375	14.17105	9.69550
46790	2.02345	1.87171	1.64638	8.71650	8.12401	7.39261	16.43431	10.29925	5.73925	6.47146	6.19653	6.03910	4.64724	3.83996	3.23756	20.28122	14.16933	9.69726
46960	2.02190	1.87015	1.64611	8.71572	8.12198	7.38960	16.44721	10.30016	5.73756	6.46880	6.19268	6.03652	4.64558	3.83850	3.23301	20.28747	14.16990	9.69143
47120	2.02262	1.87107	1.64551	8.71446	8.12555	7.39756	16.45250	10.29607	5.73794	6.47274	6.19603	6.03379	4.64551	3.83768	3.23539	20.28226	14.16893	9.69410
47290	2.02222	1.86854	1.64468	8.71226	8.12647	7.39551	16.40305	10.29507	5.73540	6.46183	6.19002	6.03944	4.64766	3.84245	3.23809	20.28643	14.17343	9.70014
47450	2.02657	1.87429	1.64937	8.72044	8.12791	7.39460	16.45557	10.30232	5.73796	6.47811	6.20170	6.03495	4.64606	3.84087	3.23416	20.28092	14.17236	9.70434
47620	2.02420	1.87223	1.64710	8.71824	8.13151	7.40284	16.44119	10.29710	5.73827	6.46238	6.18702	6.03780	4.64824	3.84240	3.23986	20.28628	14.16856	9.69564
47780	2.02491	1.87270	1.64885	8.73215	8.13544	7.39273	16.44042	10.30101	5.73969	6.47095	6.20319	6.04406	4.65024	3.84286	3.23706	20.28177	14.17180	9.70049	33.19	6.2	0.00	-2.04	0.01729	0.01197	0.01515	0.01831	0.01895	0.01482	0.00543	0.01506	0.02000	0.01870	0.01299	0.01654	0.01700	0.01759	0.01374	0.00571	0.01609	0.02152
47950	2.02289	1.87386	1.64980	8.72510	8.13306	7.39762	16.46379	10.30528	5.73960	6.46908	6.19483	6.04045	4.64977	3.83811	3.23698	20.27657	14.17035	9.69873
48110	2.02223	1.87031	1.64636	8.72608	8.13419	7.39354	16.43673	10.29701	5.73773	6.46383	6.19786	6.04364	4.64734	3.84035	3.23821	20.28043	14.17201	9.70268
48280	2.02383	1.87410	1.64818	8.72481	8.12577	7.39077	16.46071	10.29247	5.73693	6.47376	6.19920	6.03924	4.64682	3.83704	3.23518	20.29591	14.17439	9.69985
48440	2.02331	1.87099	1.64909	8.72024	8.12755	7.39786	16.44017	10.29561	5.73948	6.47318	6.20107	6.04290	4.64968	3.84154	3.23700	20.28862	14.17659	9.70593
48610	2.02359	1.87245	1.64616	8.71936	8.12237	7.39119	16.45111	10.29572	5.73447	6.47739	6.20184	6.03978	4.64801	3.84199	3.23867	20.29249	14.17782	9.70457
48770	2.02533	1.87666	1.64685	8.71967	8.12781	7.39911	16.43219	10.29532	5.73862	6.47867	6.19955	6.04208	4.64745	3.83983	3.23586	20.29174	14.17613	9.70258
48940	2.02457	1.87507	1.65060	8.72553	8.13004	7.39731	16.44755	10.29774	5.74073	6.48091	6.20556	6.04415	4.64869	3.84287	3.23876	20.30083	14.18133	9.70501
49100	2.02254	1.87292	1.64798	8.72296	8.13315	7.40082	16.43735	10.29476	5.73523	6.47449	6.19857	6.04543	4.64698	3.83889	3.23540	20.30202	14.17688	9.70308
49270	2.02178	1.87185	1.64580	8.72133	8.12804	7.39659	16.42483	10.29541	5.73477	6.47767	6.20243	6.04598	4.64650	3.84118	3.23561	20.28668	14.18119	9.70623
49430	2.02549	1.87269	1.64830	8.72261	8.13211	7.40137	16.43905	10.30042	5.73852	6.47778	6.19996	6.04508	4.64857	3.83912	3.23578	20.28649	14.17734	9.70196	33.19	6.0	0.00	-2.04	0.01730	0.01197	0.01515	0.01831	0.01895	0.01482	0.00543	0.01506	0.02000	0.01870	0.01299	0.01654	0.01700	0.01759	0.01374	0.00571	0.01608	0.02152
49600	2.02470	1.87489	1.64911	8.72402	8.13411	7.40206	16.41611	10.29580	5.74018	6.48153	6.20408	6.04729	4.64984	3.84165	3.23621	20.29840	14.18064	9.70613
49760	2.02084	1.87191	1.64751	8.72406	8.13153	7.39854	16.43967	10.29322	5.73446	6.47744	6.20340	6.04628	4.64801	3.84360	3.23729	20.30108	14.18460	9.71009
49930	2.02528	1.87599	1.64810	8.72512	8.13516	7.40312	16.47043	10.29744	5.73827	6.48498	6.20182	6.04488	4.64888	3.84066	3.23555	20.29110	14.18503	9.70588
50090	2.02450	1.87317	1.64861	8.72461	8.13602	7.39939	16.44754	10.29527	5.73638	6.47677	6.20308	6.04948	4.64833	3.83935	3.23537	20.28619	14.18345	9.70344
50260	2.02413	1.87339	1.64771	8.72627	8.13864	7.40617	16.45430	10.29540	5.74025	6.48152	6.20659	6.05318	4.64817	3.84160	3.23587	20.29438	14.18316	9.70794
50420	2.02290	1.87329	1.64689	8.72427	8.13292	7.40057	16.44655	10.29427	5.73377	6.47691	6.20139	6.04819	4.64619	3.84028	3.23583	20.30347	14.18289	9.70700
50590	2.02372	1.87406	1.64936	8.72710	8.13535	7.40158	16.42985	10.29956	5.73999	6.48315	6.20923	6.05224	4.64867	3.84051	3.23476	20.30049	14.18270	9.71197
50750	2.02479	1.87399	1.64859	8.72458	8.13260	7.40088	16.44901	10.29480	5.73860	6.48436	6.20522	6.04789	4.64842	3.84181	3.23563	20.29512	14.18814	9.70859
50920	2.02535	1.87162	1.65187	8.72741	8.13641	7.40559	16.41157	10.29527	5.73743	6.48063	6.20772	6.05229	4.64745	3.83850	3.23811	20.29542	14.18345	9.70791
51080	2.02408	1.87367	1.65064	8.72805	8.13833	7.40591	16.43266	10.29709	5.74410	6.48497	6.20804	6.05214	4.65109	3.84386	3.24001	20.29710	14.18845	9.71283	33.19	6.0	0.00	-2.04	0.01730	0.01197	0.01515	0.01831	0.01895	0.01482	0.00543	0.01506	0.02000	0.01870	0.01299	0.01654	0.01700	0.01759	0.01374	0.00571	0.01608	0.02152
51250	2.02691	1.87459	1.65169	8.73203	8.14203	7.40647	16.44593	10.29756	5.74142	6.48515	6.20818	6.04865	4.64885	3.84371	3.23787	20.29368	14.18564	9.71467
51410	2.02658	1.87159	1.64635	8.73029	8.13408	7.39744	16.44617	10.29324	5.73534	6.48481	6.21011	6.04841	4.64706	3.84285	3.23985	20.28713	14.19411	9.72162
51580	2.02583	1.87369	1.64850	8.72548	8.13367	7.40837	16.42554	10.29233	5.73705	6.48506	6.20428	6.04762	4.64759	3.83768	3.23783	20.30172	14.18564	9.70947
51740	2.02848	1.87594	1.65067	8.73208	8.14155	7.41027	16.44876	10.30045	5.74114	6.49010	6.20995	6.05282	4.65009	3.84324	3.23853	20.29949	14.18883	9.71142
51910	2.02562	1.87346	1.65007	8.73346	8.14492	7.41128	16.42628	10.29731	5.73595	6.48087	6.20601	6.05487	4.64825	3.84010	3.23753	20.29412	14.18004	9.70892
52070	2.02327	1.87378	1.64947	8.73454	8.14072	7.40296	16.42984	10.29520	5.73540	6.48721	6.21277	6.05471	4.64623	3.83771	3.23702	20.31052	14.18770	9.71543
52240	2.02414	1.87258	1.64799	8.73014	8.13915	7.40797	16.45737	10.28796	5.73699	6.48812	6.20754	6.05011	4.64595	3.84120	3.23475	20.29293	14.18462	9.71136
52400	2.02507	1.87444	1.64895	8.73659	8.14427	7.40671	16.44335	10.29569	5.73572	6.48761	6.21416	6.05965	4.64653	3.84093	3.23515	20.29040	14.18816	9.71434
52570	2.02214	1.87398	1.64869	8.73174	8.13889	7.40800	16.43549	10.29156	5.73463	6.48708	6.20646	6.05423	4.64573	3.84248	3.23715	20.30381	14.19071	9.71390
52730	2.02611	1.87397	1.65105	8.73362	8.14853	7.41337	16.43414	10.30000	5.73494	6.48422	6.20882	6.05856	4.64459	3.83938	3.23474	20.29539	14.18580	9.71078	33.19	5.9	0.00	-2.04	0.01730	0.01197	0.01515	0.01831	0.01895	0.01482	0.00543	0.01506	0.02000	0.01870	0.01299	0.01654	0.01700	0.01759	0.01374	0.00571	0.01608	0.02152
52900	2.02569	1.87647	1.65079	8.73574	8.14670	7.41226	16.44568	10.29780	5.74013	6.49415	6.21357	6.05825	4.65102	3.84040	3.23989	20.31269	14.19425	9.71903
53060	2.02474	1.87165	1.64807	8.73149	8.14293	7.41229	16.42150	10.29771	5.73647	6.49152	6.21031	6.05772	4.64700	3.83815	3.23523	20.30076	14.18988	9.71675
53230	2.02438	1.87210	1.64926	8.73252	8.13955	7.40899	16.40581	10.29611	5.73484	6.49106	6.21317	6.05951	4.64651	3.83812	3.23711	20.29867	14.19226	9.71560
53390	2.02306	1.87211	1.64841	8.73249	8.14088	7.40855	16.40153	10.28969	5.73107	6.48817	6.21200	6.05699	4.64726	3.84193	3.23579	20.30955	14.19221	9.71901
53560	2.02399	1.87186	1.64905	8.73502	8.14210	7.40807	16.44089	10.29278	5.73360	6.49294	6.21255	6.05875	4.64619	3.83965	3.23629	20.29718	14.19149	9.71360
53720	2.02236	1.87237	1.65017	8.73334	8.14596	7.41571	16.41990	10.29796	5.73782	6.49200	6.21545	6.05956	4.64762	3.84034	3.23741	20.31254	14.19347	9.72008
53890	2.02411	1.87226	1.64728	8.73568	8.14587	7.40809	16.41696	10.29487	5.73519	6.49373	6.22238	6.05710	4.64864	3.84489	3.23983	20.29465	14.19766	9.73159
54050	2.02645	1.87303	1.64964	8.73638	8.13822	7.40940	16.41500	10.29589	5.73735	6.49986	6.21369	6.05392	4.64625	3.84086	3.23843	20.30359	14.19712	9.71611
54210	2.02474	1.87468	1.64932	8.73707	8.15045	7.41906	16.44679	10.29714	5.73911	6.49291	6.21750	6.06300	4.65130	3.84106	3.23790	20.30210	14.19562	9.72013
54380	2.02297	1.87303	1.64941	8.73588	8.14442	7.41065	16.43110	10.29881	5.73573	6.49414	6.21787	6.06092	4.64937	3.84228	3.23973	20.30687	14.19950	9.72231	33.19	6.1	0.00	-2.04	0.01730	0.01197	0.01515	0.01831	0.01895	0.01482	0.00543	0.01506	0.02000	0.01870	0.01299	0.01654	0.01700	0.01759	0.01374	0.00571	0.01608	0.02151
54540	2.02562	1.87382	1.64861	8.73462	8.14643	7.41945	16.45211	10.29937	5.73875	6.49786	6.21749	6.05904	4.64672	3.83842	3.23526	20.28913	14.19374	9.71816
54710	2.02616	1.87384	1.64815	8.73634	8.14820	7.41881	16.43908	10.29710	5.73832	6.49593	6.21861	6.06530	4.64752	3.84044	3.23630	20.30672	14.18977	9.71180
54870	2.02647	1.87313	1.64749	8.73595	8.14327	7.41054	16.42214	10.29301	5.73700	6.50153	6.22286	6.06044	4.64809	3.84093	3.24064	20.29569	14.19908	9.72521
55040	2.02542	1.87325	1.64620	8.72618	8.14053	7.41303	16.43319	10.29545	5.73371	6.50431	6.22394	6.06566	4.64467	3.83805	3.23442	20.29718	14.19081	9.72258
55200	2.02432	1.87136	1.64790	8.73107	8.13176	7.40976	16.43736	10.29203	5.73597	6.51391	6.22031	6.05391	4.64433	3.83877	3.23385	20.30240	14.20291	9.72219
55370	2.02238	1.87017	1.64552	8.72786	8.14400	7.41905	16.43687	10.29321	5.73673	6.49259	6.21254	6.06331	4.64419	3.83994	3.23456	20.31060	14.19355	9.71566
55530	2.02246	1.87339	1.64797	8.73731	8.14575	7.41160	16.44240	10.29528	5.73510	6.50114	6.22756	6.06849	4.64398	3.83816	3.23337	20.30404	14.19151	9.72221
55700	2.02619	1.87272	1.64823	8.73516	8.14138	7.41354	16.41871	10.29912	5.73849	6.50321	6.21780	6.06245	4.64428	3.83959	3.23380	20.31299	14.19647	9.71871
55860	2.02208	1.86929	1.64567	8.73629	8.14896	7.41557	16.40609	10.29616	5.73466	6.49633	6.21910	6.06405	4.64388	3.83806	3.23416	20.31836	14.19583	9.72129
56030	2.02422	1.87380	1.64840	8.73654	8.14827	7.41621	16.42567	10.29330	5.73664	6.50248	6.22188	6.07003	4.64407	3.83851	3.23651	20.30703	14.19635	9.72061	33.19	6.1	0.00	-2.04	0.01730	0.01197	0.01515	0.01831	0.01895	0.01482	0.00543	0.01506	0.02000	0.01870	0.01299	0.01654	0.01700	0.01759	0.01374	0.00571	0.01608	0.02151
56190	2.02405	1.87192	1.64817	8.73747	8.14646	7.41927	16.46882	10.29254	5.73740	6.50012	6.21427	6.06012	4.64891	3.84324	3.23609	20.31688	14.20427	9.72188
56360	2.02488	1.87463	1.65082	8.73965	8.15156	7.41613	16.41783	10.29757	5.73821	6.50343	6.22744	6.07344	4.64712	3.83815	3.23689	20.31017	14.19611	9.72541
56520	2.02448	1.87146	1.64858	8.73888	8.14162	7.41026	16.41942	10.29274	5.73758	6.50025	6.22006	6.06499	4.64489	3.83696	3.23260	20.32271	14.20123	9.72229
56690	2.02314	1.87303	1.65006	8.73985	8.15143	7.42141	16.45959	10.29608	5.73799	6.49871	6.22478	6.07168	4.64657	3.83591	3.23490	20.32226	14.19702	9.72453
56850	2.02304	1.87044	1.64834	8.74225	8.14730	7.41308	16.42666	10.28839	5.73324	6.49816	6.22002	6.06484	4.64793	3.83813	3.23679	20.32256	14.20617	9.72662
57020	2.02567	1.87206	1.64733	8.74486	8.15802	7.42707	16.44544	10.30119	5.73778	6.49921	6.22330	6.06993	4.64606	3.84050	3.23455	20.31927	14.19858	9.72528
57180	2.02249	1.86954	1.64777	8.74386	8.15227	7.42076	16.41207	10.29545	5.73755	6.50376	6.22331	6.06705	4.64228	3.83940	3.23372	20.31166	14.20083	9.72354
57350	2.02492	1.87297	1.64752	8.74179	8.15375	7.42585	16.42862	10.29581	5.73634	6.50563	6.22548	6.06950	4.64599	3.83844	3.23207	20.31345	14.20129	9.72569
57510	2.02508	1.87143	1.64664	8.74264	8.15181	7.41976	16.42506	10.29441	5.73427	6.50591	6.22462	6.07138	4.64271	3.83807	3.23850	20.30823	14.20037	9.72528
57680	2.02314	1.87130	1.64718	8.74271	8.15759	7.42733	16.43050	10.29905	5.73589	6.49810	6.21857	6.06893	4.64352	3.83725	3.23184	20.31465	14.19837	9.72262	33.19	6.0	0.00	-2.04	0.01730	0.01197	0.01515	0.01831	0.01895	0.01482	0.00543	0.01506	0.02000	0.01870	0.01299	0.01654	0.01701	0.01759	0.01374	0.00571	0.01608	0.02151
57840	2.02468	1.87426	1.64887	8.74551	8.15703	7.42361	16.42057	10.30029	5.73635	6.50583	6.22677	6.07313	4.64887	3.83647	3.23591	20.30987	14.20028	9.72682
58010	2.02529	1.86913	1.64836	8.74401	8.15373	7.42143	16.42866	10.29680	5.73762	6.50132	6.21998	6.06762	4.64512	3.84297	3.23854	20.31270	14.20377	9.72760
58170	2.02544	1.87470	1.64877	8.74723	8.15708	7.42407	16.41775	10.29713	5.73780	6.50859	6.22664	6.07068	4.64761	3.83811	3.23632	20.31062	14.20388	9.72847
58340	2.02503	1.87190	1.64907	8.74774	8.15478	7.42139	16.43775	10.29593	5.73844	6.50482	6.22651	6.06891	4.64603	3.83987	3.23767	20.32167	14.20586	9.72938
58500	2.02599	1.87264	1.64979	8.74432	8.15568	7.42570	16.43038	10.29707	5.73605	6.50633	6.22873	6.07471	4.64549	3.84006	3.23677	20.29496	14.19896	9.72636
58670	2.02226	1.87010	1.64893	8.74490	8.15598	7.42540	16.43750	10.29718	5.73948	6.50560	6.22170	6.06961	4.64788	3.83890	3.23580	20.30793	14.20307	9.72866
58830	2.02152	1.87152	1.64527	8.74880	8.14946	7.41495	16.43824	10.28849	5.73240	6.50779	6.22507	6.05932	4.64538	3.83975	3.23525	20.31091	14.21441	9.73669
59000	2.02470	1.87236	1.64635	8.74080	8.14904	7.42676	16.42376	10.29276	5.73814	6.50554	6.21867	6.06053	4.64619	3.83923	3.23221	20.32137	14.20648	9.73271
59160	2.02117	1.86927	1.64817	8.74471	8.15335	7.42065	16.44426	10.30191	5.73634	6.51274	6.22624	6.06297	4.64568	3.83793	3.23388	20.31868	14.21537	9.73008
59330	2.02208	1.87249	1.64752	8.74003	8.15559	7.42848	16.40373	10.28984	5.73392	6.50232	6.22104	6.06987	4.64729	3.84171	3.23750	20.31314	14.20489	9.73118	33.13	6.1	0.00	-2.04	0.01730	0.01197	0.01515	0.01831	0.01895	0.01482	0.00543	0.01507	0.02000	0.01870	0.01299	0.01654	0.01701	0.01759	0.01374	0.00571	0.01608	0.02151
59490	2.02540	1.87378	1.64889	8.74758	8.15728	7.42427	16.42860	10.29995	5.73533	6.50953	6.22912	6.07816	4.64552	3.83736	3.23284	20.30702	14.20304	9.72839
59650	2.02564	1.87411	1.65101	8.74966	8.15178	7.42380	16.42357	10.29583	5.73839	6.51697	6.23524	6.08014	4.64665	3.83872	3.23538	20.31956	14.20634	9.73085
59820	2.02306	1.87124	1.64730	8.74696	8.15274	7.42253	16.42578	10.29915	5.73399	6.51432	6.22980	6.07128	4.64785	3.84196	3.23642	20.33346	14.21362	9.73664
59980	2.02698	1.87143	1.64951	8.74889	8.16134	7.42910	16.42382	10.29668	5.73574	6.50615	6.22739	6.07793	4.64449	3.83872	3.23479	20.33257	14.20562	9.72862
60150	2.02469	1.87321	1.64920	8.75285	8.16567	7.42953	16.43682	10.29768	5.73813	6.50793	6.22858	6.07957	4.64710	3.83703	3.23471	20.32285	14.20744	9.73289
60310	2.02354	1.87057	1.64751	8.74949	8.15397	7.41902	16.42345	10.29657	5.73612	6.50444	6.22588	6.07574	4.64687	3.83866	3.23571	20.31284	14.20529	9.72759
60480	2.02246	1.87100	1.64744	8.75042	8.15989	7.42603	16.40116	10.29566	5.73430	6.50687	6.22717	6.07376	4.64436	3.83687	3.23523	20.32165	14.20446	9.72757
60640	2.02277	1.86950	1.64637	8.74638	8.15464	7.42049	16.43277	10.29130	5.73373	6.50520	6.22470	6.07053	4.64578	3.83959	3.23547	20.32210	14.20962	9.73338
60810	2.02453	1.87263	1.65097	8.75060	8.15834	7.42649	16.41119	10.29615	5.73805	6.50664	6.22647	6.07351	4.64377	3.83772	3.23321	20.31284	14.20862	9.73205
60970	2.02524	1.87110	1.64962	8.74676	8.15626	7.42546	16.42257	10.29346	5.73667	6.50724	6.22639	6.07248	4.64704	3.83968	3.23668	20.32119	14.20668	9.72928	33.19	6.1	0.00	-2.04	0.01730	0.01197	0.01515	0.01831	0.01895	0.01482	0.00543	0.01507	0.02001	0.01870	0.01299	0.01654	0.01701	0.01759	0.01374	0.00571	0.01608	0.02151
61140	2.02491	1.87221	1.64873	8.74909	8.15957	7.42652	16.43607	10.29728	5.73930	6.50764	6.22963	6.07551	4.64472	3.83866	3.23302	20.32193	14.20676	9.72934
61300	2.02347	1.87322	1.64816	8.74671	8.15834	7.42620	16.45068	10.29492	5.73496	6.50864	6.22950	6.07494	4.64740	3.83958	3.24069	20.31088	14.20314	9.72797
61470	2.02537	1.87541	1.65131	8.75359	8.16420	7.42827	16.44712	10.29923	5.73601	6.50970	6.23010	6.07684	4.64780	3.83936	3.23713	20.30760	14.20692	9.73024
61630	2.02449	1.87450	1.64930	8.75764	8.16711	7.42819	16.45917	10.29504	5.73585	6.50416	6.23090	6.08373	4.64767	3.84459	3.23783	20.30730	14.20056	9.73433
61800	2.02512	1.87407	1.65016	8.75782	8.15921	7.42452	16.43472	10.29770	5.73877	6.51705	6.23441	6.07647	4.64624	3.84010	3.23680	20.31924	14.20523	9.73148
61960	2.02453	1.87307	1.64930	8.74830	8.16005	7.43199	16.41448	10.29726	5.73776	6.51430	6.22971	6.07608	4.64683	3.83860	3.23547	20.33135	14.20859	9.72942
62130	2.02565	1.87470	1.65079	8.75099	8.16339	7.43273	16.43987	10.29501	5.74050	6.51139	6.23179	6.08017	4.64720	3.83779	3.23768	20.31790	14.20926	9.72998
62290	2.02291	1.87357	1.64606	8.75115	8.16142	7.42870	16.39710	10.29166	5.73431	6.51557	6.22846	6.07380	4.64666	3.83876	3.23753	20.32821	14.21361	9.73712
62460	2.02609	1.87254	1.65126	8.75136	8.15933	7.42561	16.41889	10.29923	5.73990	6.50989	6.23037	6.08069	4.64484	3.83891	3.23344	20.32283	14.21813	9.73507
62620	2.02407	1.87470	1.64960	8.74950	8.16526	7.43502	16.43621	10.29761	5.73586	6.49484	6.22868	6.09223	4.64617	3.83720	3.23644	20.31745	14.19997	9.72729	33.19	6.0	0.00	-2.04	0.01730	0.01197	0.01515	0.01831	0.01895	0.01482	0.00543	0.01507	0.02001	0.01870	0.01298	0.01653	0.01701	0.01759	0.01374	0.00571	0.01608	0.02151
62790	2.02470	1.87363	1.65124	8.76178	8.16586	7.42275	16.45562	10.30641	5.73996	6.51260	6.24053	6.09232	4.64756	3.84047	3.23622	20.32447	14.21133	9.73037
62950	2.02504	1.87362	1.64940	8.75729	8.16808	7.42813	16.45759	10.29408	5.73870	6.50531	6.23875	6.09537	4.64844	3.84061	3.23662	20.32089	14.20884	9.73887
63120	2.02421	1.87552	1.65045	8.76175	8.16300	7.42417	16.45538	10.29519	5.73979	6.51389	6.23271	6.07970	4.64913	3.83775	3.23429	20.32403	14.22144	9.73393
63280	2.02189	1.87353	1.65059	8.75191	8.17265	7.44259	16.41095	10.29590	5.73721	6.50468	6.22782	6.08578	4.64392	3.83840	3.23346	20.32986	14.21279	9.73434
63450	2.02316	1.87397	1.65109	8.75745	8.16725	7.43465	16.44100	10.29948	5.73926	6.51770	6.23497	6.08530	4.64749	3.83752	3.23447	20.32701	14.21574	9.73824
63610	2.02311	1.87143	1.64783	8.75663	8.17167	7.43742	16.46596	10.29717	5.73387	6.51375	6.23168	6.08139	4.64359	3.83775	3.23487	20.31686	14.20932	9.73757
63780	2.02428	1.87266	1.64839	8.76509	8.16809	7.43094	16.43302	10.29521	5.73865	6.52327	6.24299	6.08377	4.64747	3.84113	3.23726	20.31954	14.22169	9.74887
63940	2.02653	1.87614	1.65215	8.75707	8.16447	7.43865	16.45292	10.29941	5.73834	6.52912	6.23771	6.08538	4.64812	3.83679	3.23663	20.33015	14.22082	9.74188
64110	2.02326	1.86982	1.64714	8.75587	8.16620	7.43695	16.43019	10.29314	5.73297	6.52069	6.23660	6.08418	4.64398	3.83739	3.23368	20.32552	14.21308	9.73947
64270	2.02342	1.87208	1.64797	8.75840	8.16777	7.43684	16.42304	10.29332	5.73646	6.52041	6.24021	6.08436	4.64853	3.84319	3.24077	20.32622	14.21816	9.74483	33.19	6.1	0.00	-2.04	0.01730	0.01197	0.01515	0.01831	0.01895	0.01482	0.00543	0.01507	0.02001	0.01870	0.01298	0.01653	0.01701	0.01759	0.01374	0.00571	0.01608	0.02151
64440	2.02844	1.87733	1.65101	8.76082	8.17147	7.44228	16.43580	10.29952	5.74274	6.52426	6.24466	6.09009	4.64783	3.83823	3.23887	20.33146	14.21463	9.74013
64600	2.02547	1.87475	1.65010	8.75920	8.17036	7.43927	16.45103	10.30208	5.73742	6.52443	6.24148	6.08653	4.64673	3.84076	3.23615	20.32981	14.21541	9.73970
64760	2.02539	1.87247	1.64809	8.75764	8.16998	7.43757	16.44587	10.29585	5.73503	6.52033	6.23961	6.08760	4.64492	3.83786	3.23350	20.31756	14.21324	9.73721
64930	2.02343	1.87022	1.64885	8.75822	8.16919	7.43753	16.44661	10.29521	5.73635	6.52176	6.23962	6.08495	4.64573	3.83648	3.23077	20.33280	14.21496	9.73633
65090	2.02277	1.87189	1.64865	8.75584	8.16819	7.43704	16.44501	10.29186	5.73463	6.52047	6.23849	6.08501	4.64659	3.83996	3.23451	20.31815	14.21848	9.74072
65260	2.02364	1.87197	1.64987	8.75897	8.17247	7.44109	16.43396	10.29134	5.73838	6.51933	6.24060	6.09079	4.64461	3.83625	3.23335	20.32443	14.20990	9.73772
65420	2.02352	1.87280	1.64821	8.76322	8.17416	7.44024	16.42611	10.29132	5.73589	6.52045	6.24234	6.08985	4.64871	3.83905	3.23479	20.32951	14.21595	9.73947
65590	2.02320	1.87448	1.64667	8.76067	8.17344	7.43957	16.43555	10.29092	5.73419	6.52031	6.23855	6.08771	4.64453	3.83971	3.23454	20.31980	14.21918	9.74140
65750	2.02389	1.87166	1.64851	8.76077	8.16914	7.44043	16.42930	10.29643	5.73557	6.52435	6.24032	6.08853	4.64362	3.83708	3.23466	20.32727	14.22098	9.74323
65920	2.02515	1.87413	1.64927	8.76173	8.17094	7.43992	16.45814	10.30009	5.74025	6.52258	6.24273	6.09400	4.64872	3.84114	3.23752	20.32681	14.21962	9.73819	33.19	6.2	0.00	-2.04	0.01730	0.01197	0.01515	0.01831	0.01894	0.01481	0.00543	0.01507	0.02001	0.01870	0.01298	0.01653	0.01701	0.01759	0.01374	0.00571	0.01608	0.02151
66080	2.02475	1.87439	1.64858	8.76245	8.16986	7.44030	16.42890	10.29455	5.73461	6.52115	6.23848	6.08600	4.64696	3.84372	3.23775	20.32830	14.22277	9.74737
66250	2.02732	1.87406	1.64993	8.76707	8.16982	7.43672	16.43185	10.29775	5.73859	6.53046	6.24395	6.08600	4.64628	3.83878	3.23804	20.33055	14.21755	9.73922
66410	2.02267	1.87182	1.64930	8.76183	8.17488	7.44305	16.46048	10.29329	5.73652	6.52471	6.24096	6.09019	4.64491	3.83868	3.23435	20.31859	14.21551	9.74084
66580	2.02381	1.87275	1.64953	8.76386	8.17684	7.44523	16.44363	10.29538	5.73878	6.52634	6.24528	6.09448	4.64842	3.83923	3.23518	20.33533	14.21728	9.74195
66740	2.02398	1.87218	1.64781	8.76276	8.17547	7.44757	16.46183	10.29298	5.73224	6.52642	6.23910	6.08577	4.64443	3.83984	3.23661	20.34357	14.21863	9.74166
66910	2.02321	1.87273	1.65137	8.77075	8.17937	7.43978	16.40783	10.29475	5.73489	6.52824	6.24790	6.09381	4.64744	3.83930	3.23554	20.32995	14.22320	9.74894
67070	2.02512	1.87357	1.64843	8.76656	8.17632	7.44940	16.44683	10.29753	5.73711	6.52611	6.24462	6.09236	4.64645	3.83960	3.23700	20.32890	14.21962	9.74731
67240	2.02563	1.87261	1.64917	8.77191	8.17957	7.44177	16.44437	10.29238	5.73710	6.53073	6.24875	6.09487	4.64495	3.83822	3.23555	20.33743	14.22336	9.74664
67400	2.02239	1.87341	1.65206	8.76653	8.17961	7.44881	16.45273	10.30053	5.73865	6.53193	6.25103	6.09948	4.64888	3.83979	3.23719	20.33204	14.22667	9.75173
67570	2.02342	1.87179	1.64918	8.76905	8.17830	7.44711	16.44117	10.29090	5.73668	6.53253	6.24969	6.09554	4.64776	3.83671	3.23755	20.33073	14.22359	9.74788	33.19	6.1	0.00	-2.04	0.01730	0.01197	0.01515	0.01831	0.01894	0.01481	0.00543	0.01507	0.02001	0.01870	0.01298	0.01653	0.01701	0.01759	0.01374	0.00571	0.01608	0.02151
67730	2.02438	1.87339	1.64934	8.76655	8.17794	7.44525	16.40195	10.29551	5.73500	6.53509	6.25234	6.09877	4.64635	3.83882	3.23773	20.33073	14.22531	9.74911
67900	2.02348	1.87490	1.65072	8.76833	8.17845	7.44924	16.44977	10.29276	5.73771	6.53550	6.25186	6.09810	4.64586	3.83991	3.23320	20.33043	14.22620	9.75121
68060	2.02600	1.87418	1.65268	8.77073	8.18211	7.45440	16.43957	10.29598	5.73854	6.53609	6.25226	6.09846	4.64987	3.83985	3.23510	20.33058	14.22986	9.75360
68230	2.02536	1.87271	1.65002	8.77103	8.17752	7.44494	16.43896	10.29392	5.73847	6.53678	6.25118	6.09796	4.64655	3.83777	3.23599	20.34300	14.23107	9.74880
68390	2.02394	1.87369	1.64979	8.76904	8.18203	7.45133	16.43933	10.29680	5.73435	6.53284	6.25147	6.09652	4.64623	3.83896	3.23751	20.34345	14.22865	9.75131
68560	2.02601	1.87472	1.64906	8.77098	8.18732	7.45021	16.44215	10.29891	5.73680	6.53074	6.25005	6.10400	4.64579	3.83890	3.23317	20.33701	14.23244	9.75196
68720	2.02439	1.87440	1.65066	8.77065	8.18496	7.45769	16.43528	10.29485	5.73937	6.53097	6.25095	6.10343	4.64871	3.83950	3.23688	20.33342	14.23034	9.75360
68890	2.02370	1.87348	1.64989	8.77291	8.18202	7.44669	16.43331	10.29352	5.73600	6.53522	6.25226	6.10008	4.64810	3.84256	3.23906	20.34135	14.23662	9.75739
69050	2.02691	1.87520	1.65097	8.77256	8.18447	7.45457	16.44461	10.28854	5.73715	6.54303	6.25989	6.10206	4.64687	3.84130	3.23679	20.33985	14.22862	9.75543
69220	2.02482	1.87263	1.65076	8.76709	8.18092	7.45919	16.45134	10.29488	5.73934	6.54734	6.25029	6.09264	4.65003	3.84237	3.23909	20.34522	14.23420	9.75229	33.19	6.0	0.00	-2.04	0.01730	0.01197	0.01515	0.01831	0.01894	0.01481	0.00543	0.01507	0.02001	0.01870	0.01298	0.01653	0.01701	0.01759	0.01374	0.00571	0.01608	0.02151
69380	2.02723	1.87384	1.65098	8.77367	8.19119	7.45913	16.43427	10.29328	5.73767	6.54078	6.25926	6.11107	4.64843	3.84172	3.23634	20.32621	14.23234	9.75286
69550	2.02501	1.87322	1.65103	8.77265	8.18390	7.45520	16.45048	10.29866	5.74144	6.54344	6.26019	6.10744	4.64829	3.83908	3.23682	20.33938	14.23374	9.75634
69710	2.02392	1.87206	1.64945	8.77293	8.18237	7.45304	16.42115	10.29266	5.73629	6.53618	6.25406	6.10438	4.64785	3.84141	3.23714	20.32636	14.23207	9.75700
69870	2.02447	1.87201	1.65058	8.77729	8.18533	7.45259	16.46167	10.29397	5.73837	6.54164	6.25760	6.10430	4.64599	3.83619	3.23405	20.33444	14.23746	9.75649
70040	2.02194	1.87188	1.64823	8.76889	8.18399	7.45625	16.42360	10.29650	5.73564	6.53836	6.25291	6.10142	4.64662	3.83819	3.23306	20.33683	14.23380	9.75735
70200	2.02371	1.87136	1.64907	8.77235	8.18153	7.45228	16.41527	10.28993	5.73356	6.53790	6.25371	6.10654	4.64289	3.83699	3.23295	20.33683	14.22774	9.74984
70370	2.02431	1.87127	1.65105	8.77695	8.19012	7.45955	16.43488	10.29735	5.73819	6.54229	6.26104	6.10937	4.64903	3.83967	3.23481	20.34462	14.23679	9.75876
70530	2.02283	1.87251	1.64966	8.77423	8.18581	7.46036	16.42372	10.29109	5.73309	6.54309	6.25239	6.10065	4.64729	3.84041	3.23677	20.34776	14.23531	9.75470
70700	2.02237	1.87142	1.64732	8.77521	8.18959	7.45988	16.42470	10.29275	5.73493	6.53991	6.25663	6.10419	4.64317	3.83515	3.23250	20.34028	14.22720	9.75405
70860	2.02334	1.87110	1.64926	8.77634	8.18782	7.45563	16.42242	10.28678	5.73544	6.53938	6.25776	6.10681	4.64526	3.83673	3.23514	20.34251	14.23124	9.75588	33.19	6.1	0.00	-2.04	0.01730	0.01197	0.01515	0.01831	0.01894	0.01481	0.00543	0.01507	0.02001	0.01870	0.01298	0.01653	0.01701	0.01759	0.01374	0.00571	0.01608	0.02151
71030	2.02258	1.87018	1.64835	8.77286	8.18232	7.45321	16.41384	10.29270	5.73396	6.54304	6.25723	6.10351	4.64727	3.84047	3.23452	20.34101	14.23655	9.75668
71190	2.02276	1.86955	1.64853	8.77201	8.18398	7.45489	16.40369	10.29637	5.73473	6.54095	6.25827	6.10805	4.64580	3.83631	3.23507	20.33682	14.23197	9.75449
71360	2.02406	1.87321	1.65049	8.77421	8.18463	7.45498	16.41850	10.29421	5.73666	6.54251	6.25805	6.10801	4.64550	3.83965	3.23522	20.34086	14.23404	9.75667
71520	2.02118	1.87080	1.64752	8.77501	8.18534	7.45358	16.42683	10.29268	5.73669	6.53934	6.25560	6.10372	4.64652	3.83784	3.23512	20.34191	14.23972	9.76098
71690	2.02375	1.87337	1.65100	8.77494	8.18630	7.45595	16.45310	10.29550	5.73835	6.54013	6.25997	6.11108	4.64591	3.83814	3.23579	20.34251	14.23784	9.75666
71850	2.02503	1.87423	1.65070	8.77735	8.18803	7.45574	16.43014	10.29577	5.73755	6.54013	6.25719	6.10775	4.64403	3.83748	3.23549	20.34386	14.23768	9.76265
72020	2.02419	1.87292	1.64830	8.77657	8.18505	7.45774	16.43358	10.29426	5.73917	6.54601	6.25785	6.10266	4.64681	3.83975	3.23530	20.35540	14.23800	9.75699
72180	2.02353	1.87377	1.65005	8.77732	8.19519	7.46302	16.43395	10.29468	5.73437	6.54063	6.26194	6.11261	4.64412	3.83751	3.23643	20.33353	14.23393	9.75873
72350	2.02393	1.87274	1.65000	8.77778	8.18675	7.45649	16.44929	10.29481	5.73666	6.55109	6.26203	6.10930	4.64537	3.83820	3.23856	20.33188	14.24164	9.76361
72510	2.02651	1.87241	1.64788	8.77826	8.18882	7.45633	16.44360	10.29038	5.73570	6.54490	6.26034	6.10978	4.64696	3.84132	3.23782	20.34338	14.24789	9.76611	33.19	6.1	0.00	-2.04	0.01730	0.01197	0.01515	0.01831	0.01894	0.01481	0.00543	0.01507	0.02001	0.01870	0.01298	0.01653	0.01701	0.01759	0.01374	0.00571	0.01608	0.02151
72680	2.02631	1.87419	1.65203	8.77948	8.19490	7.46460	16.44397	10.29246	5.74026	6.54381	6.26352	6.11166	4.64772	3.83995	3.23522	20.34697	14.23996	9.76403
72840	2.02399	1.87059	1.64989	8.78272	8.19402	7.46029	16.43832	10.29222	5.73509	6.54259	6.26114	6.11415	4.64500	3.83450	3.23208	20.34173	14.23592	9.75975
73010	2.02349	1.87215	1.64956	8.78269	8.19281	7.46301	16.42042	10.29673	5.73444	6.54591	6.25911	6.10820	4.64498	3.83800	3.23471	20.35087	14.24007	9.76285
73170	2.02110	1.87031	1.64562	8.78492	8.19104	7.45612	16.43219	10.29404	5.73594	6.54728	6.26512	6.10926	4.64533	3.84125	3.23620	20.34533	14.24382	9.76546
73340	2.02570	1.87082	1.64761	8.78355	8.19552	7.46124	16.41736	10.29304	5.73662	6.54713	6.26430	6.11193	4.64600	3.83862	3.23280	20.33290	14.23964	9.76508
73500	2.02664	1.87556	1.65145	8.78363	8.19175	7.46214	16.44139	10.29866	5.73827	6.55280	6.26785	6.11183	4.64609	3.84322	3.23647	20.34263	14.24417	9.76713
73670	2.02283	1.86888	1.64625	8.78379	8.19715	7.46314	16.44103	10.29035	5.73525	6.54735	6.26438	6.11173	4.65010	3.84486	3.23924	20.33904	14.24387	9.76917
73830	2.02661	1.87455	1.64915	8.79066	8.20319	7.47036	16.44643	10.29724	5.74179	6.54872	6.26542	6.11495	4.64608	3.83886	3.23410	20.35492	14.24250	9.76404
74000	2.02458	1.87194	1.65056	8.78819	8.19909	7.46782	16.44975	10.29759	5.73675	6.55109	6.26746	6.11394	4.64461	3.83827	3.23397	20.35237	14.23929	9.76416
74160	2.02367	1.87173	1.65111	8.78449	8.19853	7.46670	16.44326	10.29389	5.73593	6.55314	6.26854	6.11328	4.64621	3.83861	3.23281	20.34756	14.24366	9.76627	33.19	6.1	0.00	-2.04	0.01730	0.01197	0.01515	0.01831	0.01894	0.01481	0.00543	0.01507	0.02001	0.01870	0.01298	0.01653	0.01701	0.01759	0.01374	0.00571	0.01608	0.02151
74330	2.02263	1.87155	1.64794	8.78532	8.19719	7.46712	16.42780	10.29362	5.73554	6.54805	6.26688	6.11725	4.64631	3.83829	3.23450	20.35386	14.24530	9.76729
74490	2.02288	1.87271	1.64906	8.78602	8.19637	7.46408	16.43491	10.29464	5.73633	6.55017	6.26747	6.12085	4.64353	3.83795	3.23354	20.35761	14.24398	9.76311
74660	2.02398	1.87230	1.65058	8.79088	8.20037	7.46266	16.44916	10.29924	5.73697	6.55487	6.27550	6.12253	4.64624	3.83922	3.23383	20.35701	14.24576	9.77102
74820	2.02172	1.87000	1.64753	8.78503	8.19449	7.46389	16.44068	10.28931	5.73341	6.55035	6.26736	6.11536	4.64218	3.83776	3.23497	20.35491	14.24606	9.77039
