WetView ver 7.1	07-16-2019	05:52:48
AC9 Absorption and Attenuation Meter
00000311		; Serial number
2	; structure version number
Reserved
0.000000	0.000000		; Depth calibration
19200			; Baud rate
0.100000			; Path length (meters)
23			; number of temperature calibration bins
				12.61517	13.44096	14.46844	15.49904	16.50682	17.50108	18.49752	19.51783	20.49177	21.49009	22.48286	23.50673	24.54012	25.54812	26.49986	27.49321	28.50960	29.48671	30.47471	31.49432	32.50437	33.48679	34.49133	; temperature bins
a650	Blue	18.61587		0.01156	0.01096	0.01010	0.00930	0.00851	0.00774	0.00661	0.00573	0.00499	0.00402	0.00285	0.00203	0.00096	0.00000	-0.00110	-0.00152	-0.00210	-0.00247	-0.00259	-0.00317	-0.00346	-0.00380	-0.00403		; offset and temperature correction info
a676	Green	18.78942		0.00964	0.00899	0.00863	0.00813	0.00730	0.00639	0.00545	0.00448	0.00385	0.00301	0.00233	0.00165	0.00046	0.00000	-0.00106	-0.00167	-0.00251	-0.00280	-0.00316	-0.00329	-0.00377	-0.00392	-0.00441		; offset and temperature correction info
a715	Brown	18.59217		0.01171	0.01109	0.01043	0.00975	0.00878	0.00789	0.00685	0.00572	0.00469	0.00356	0.00255	0.00160	0.00061	0.00000	-0.00063	-0.00113	-0.00152	-0.00183	-0.00226	-0.00293	-0.00364	-0.00404	-0.00473		; offset and temperature correction info
c510	Red	18.18396		-0.00549	-0.00480	-0.00383	-0.00272	-0.00202	-0.00118	-0.00044	-0.00038	-0.00015	-0.00021	0.00013	0.00007	-0.00007	0.00000	-0.00007	-0.00065	-0.00045	-0.00018	0.00007	0.00039	-0.00001	-0.00002	-0.00045		; offset and temperature correction info
c532	Magenta	18.26528		-0.00721	-0.00645	-0.00581	-0.00518	-0.00465	-0.00345	-0.00281	-0.00270	-0.00182	-0.00141	-0.00108	-0.00072	-0.00022	0.00000	0.00044	0.00030	0.00031	-0.00006	-0.00052	-0.00089	-0.00142	-0.00149	-0.00154		; offset and temperature correction info
c555	Black	18.37125		-0.00430	-0.00419	-0.00381	-0.00319	-0.00286	-0.00254	-0.00205	-0.00196	-0.00138	-0.00137	-0.00067	-0.00051	-0.00030	0.00000	0.00067	0.00087	0.00057	0.00027	-0.00015	-0.00089	-0.00127	-0.00137	-0.00150		; offset and temperature correction info
a412	LtBlue	15.33566		-0.06011	-0.05567	-0.05012	-0.04441	-0.03922	-0.03412	-0.02941	-0.02503	-0.02049	-0.01588	-0.01121	-0.00784	-0.00311	0.00000	0.00273	0.00611	0.00757	0.00871	0.01066	0.01299	0.01539	0.01781	0.02175		; offset and temperature correction info
a440	LtGreen	16.05925		-0.01380	-0.01214	-0.01039	-0.00858	-0.00690	-0.00532	-0.00426	-0.00322	-0.00230	-0.00158	-0.00055	0.00006	0.00001	0.00000	0.00017	0.00016	-0.00094	-0.00222	-0.00363	-0.00486	-0.00567	-0.00651	-0.00782		; offset and temperature correction info
a488	Yellow	16.82827		0.00255	0.00293	0.00331	0.00354	0.00373	0.00378	0.00363	0.00350	0.00291	0.00225	0.00215	0.00142	0.00099	0.00000	-0.00092	-0.00169	-0.00295	-0.00396	-0.00479	-0.00542	-0.00582	-0.00604	-0.00663		; offset and temperature correction info
c650	Blue	18.49287		-0.00570	-0.00516	-0.00456	-0.00403	-0.00346	-0.00232	-0.00132	-0.00122	-0.00073	-0.00066	-0.00035	-0.00016	0.00003	0.00000	0.00044	0.00078	0.00108	0.00057	0.00040	-0.00042	-0.00033	-0.00029	-0.00034		; offset and temperature correction info
c676	Green	18.50570		0.00299	0.00293	0.00287	0.00293	0.00278	0.00294	0.00317	0.00251	0.00243	0.00215	0.00139	0.00123	0.00068	0.00000	-0.00041	-0.00106	-0.00205	-0.00268	-0.00325	-0.00413	-0.00495	-0.00610	-0.00674		; offset and temperature correction info
c715	Brown	17.88888		0.00826	0.00812	0.00773	0.00790	0.00766	0.00758	0.00753	0.00650	0.00571	0.00461	0.00359	0.00222	0.00101	0.00000	-0.00146	-0.00284	-0.00385	-0.00448	-0.00463	-0.00513	-0.00623	-0.00715	-0.00838		; offset and temperature correction info
a510	Red	17.18050		0.00353	0.00364	0.00354	0.00361	0.00381	0.00381	0.00356	0.00332	0.00277	0.00229	0.00176	0.00116	0.00036	0.00000	-0.00014	-0.00069	-0.00088	-0.00147	-0.00150	-0.00129	-0.00120	-0.00134	-0.00091		; offset and temperature correction info
a532	Magenta	17.40228		0.00550	0.00548	0.00526	0.00479	0.00464	0.00422	0.00393	0.00328	0.00253	0.00212	0.00136	0.00085	0.00039	0.00000	-0.00059	-0.00146	-0.00188	-0.00262	-0.00330	-0.00393	-0.00491	-0.00540	-0.00605		; offset and temperature correction info
a555	Black	17.72308		0.00849	0.00832	0.00800	0.00760	0.00724	0.00655	0.00580	0.00495	0.00435	0.00347	0.00252	0.00153	0.00049	0.00000	-0.00050	-0.00155	-0.00214	-0.00306	-0.00350	-0.00411	-0.00470	-0.00539	-0.00570		; offset and temperature correction info
c412	LtBlue	16.72802		-0.05949	-0.05458	-0.04744	-0.04134	-0.03547	-0.03064	-0.02511	-0.02047	-0.01574	-0.01163	-0.00761	-0.00442	-0.00204	0.00000	0.00100	0.00051	-0.00043	-0.00239	-0.00475	-0.00629	-0.00827	-0.00955	-0.01337		; offset and temperature correction info
c440	LtGreen	17.42637		-0.02723	-0.02503	-0.02216	-0.01930	-0.01691	-0.01394	-0.01125	-0.00926	-0.00732	-0.00582	-0.00401	-0.00226	-0.00093	0.00000	0.00082	0.00123	0.00133	0.00097	0.00038	-0.00003	-0.00022	-0.00023	-0.00125		; offset and temperature correction info
c488	Yellow	18.03666		-0.00640	-0.00554	-0.00465	-0.00357	-0.00276	-0.00154	-0.00067	-0.00031	-0.00014	-0.00012	0.00046	0.00032	0.00020	0.00000	0.00001	-0.00024	-0.00060	-0.00084	-0.00126	-0.00180	-0.00276	-0.00304	-0.00427		; offset and temperature correction info
0.003500	0.004000	0.015000	0.020000	0.015000	0.020000	2500.000000	2000.000000	1000.000000	; maxANoise	maxCNoise	maxADifference	maxCDifference	minACounts	minCCounts	minRCounts	maxTempSdev	maxDepthSdev
0			; auxilliary capabilities
1			; acquisition binsize
0	2.20518	2.15356	1.80410	9.86961	9.13259	8.37082	10.89698	7.75689	5.13924	6.61107	6.29255	5.82534	4.40105	3.77293	3.31016	17.21370	13.83142	10.75095	29.61	6.1	0.00	-2.04	0.01755	0.01213	0.01534	0.01844	0.01909	0.01492	0.00554	0.01532	0.02034	0.01885	0.01308	0.01667	0.01726	0.01785	0.01393	0.00579	0.01625	0.02172
150	2.26877	2.18135	1.81205	9.85358	9.12453	8.39773	10.82919	7.67347	5.03996	6.69754	6.34059	5.90150	4.28633	3.66050	3.19875	17.29222	13.90240	10.81428
310	2.18128	2.11107	1.75293	9.89799	9.16959	8.42532	10.74399	7.62566	5.03152	6.70141	6.33187	5.85575	4.32618	3.74064	3.29364	17.19697	13.82133	10.73789
460	2.28575	2.21015	1.84254	9.85299	9.11750	8.38166	10.89346	7.73206	5.10516	6.64562	6.30104	5.84619	4.36079	3.73484	3.26852	17.20517	13.84069	10.76045
620	2.23709	2.15212	1.78491	9.85722	9.13129	8.40630	10.75148	7.62035	4.99554	6.74759	6.36406	5.93400	4.24230	3.63220	3.17768	17.31598	13.92743	10.82269
780	2.17140	2.10932	1.75396	9.90039	9.15369	8.41490	10.75530	7.64625	5.05855	6.66187	6.31085	5.83549	4.36334	3.77469	3.32472	17.11887	14.10158	10.67878
930	2.29551	2.21666	1.84810	10.00955	9.03877	8.45976	10.90044	7.74472	5.11220	6.62515	6.36172	5.87844	4.36508	3.73906	3.27459	17.23425	13.87402	10.78941
1080	2.24422	2.16095	1.79403	9.89964	9.15393	8.43489	10.80683	7.65460	5.02731	6.73419	6.37649	5.92689	4.28078	3.65929	3.19951	17.31216	13.92368	10.84126
1240	2.18383	2.11151	1.74945	9.93743	9.21824	8.47197	10.73480	7.59634	4.99008	6.79023	6.38962	5.94021	4.25111	3.65256	3.20701	17.28340	13.89624	10.79728
1400	2.21283	2.15192	1.80119	9.88719	9.13179	8.37428	10.86861	7.72656	5.10800	6.62211	6.30324	5.85625	4.36385	3.73673	3.26725	17.23133	13.86199	10.77849
1550	2.23208	2.14381	1.77381	9.90361	9.18466	8.45874	10.75126	7.60254	4.98038	6.81895	6.40534	5.98702	4.23305	3.62498	3.17097	17.33997	13.94633	10.83678	29.61	6.3	0.00	-2.04	0.01755	0.01213	0.01534	0.01844	0.01909	0.01492	0.00554	0.01532	0.02034	0.01885	0.01308	0.01667	0.01726	0.01785	0.01393	0.00579	0.01625	0.02172
1710	2.17275	2.11226	1.76208	9.90731	9.16567	8.40873	10.78525	7.66067	5.05196	6.69053	6.32428	5.85581	4.33516	3.72262	3.27105	17.22762	13.86376	10.77215
1860	2.24711	2.16702	1.80175	9.88650	9.15728	8.42373	10.79872	7.65547	5.02572	6.74207	6.36256	5.92828	4.27373	3.65043	3.18933	17.30558	13.93333	10.84515
2020	2.17493	2.10157	1.74393	9.93155	9.20102	8.46171	10.71867	7.59331	4.99200	6.75628	6.36277	5.90760	4.26483	3.66919	3.21672	17.25860	13.87867	10.78727
2180	2.22253	2.15753	1.79813	9.89431	9.15394	8.40726	10.82464	7.68780	5.06323	6.70735	6.34587	5.89211	4.32099	3.69556	3.23413	17.26435	13.89767	10.81104
2340	2.21001	2.12848	1.76484	9.91973	9.20225	8.46674	10.74540	7.60013	4.98388	6.81500	6.39668	5.96292	4.24086	3.63446	3.17674	17.32522	13.93457	10.83684
2500	2.17824	2.11918	1.76468	9.91521	9.17903	8.43052	10.76824	7.64478	5.04033	6.71916	6.35008	5.88777	4.31068	3.70741	3.25455	17.23184	13.86429	10.77136
2650	2.24812	2.17424	1.80887	9.88082	9.14272	8.40167	10.83370	7.68418	5.05661	6.69903	6.34473	5.90564	4.30369	3.67504	3.21288	17.27630	13.91201	10.83176
2820	2.18679	2.10939	1.74639	9.93194	9.21657	8.47967	10.73451	7.58059	4.97747	6.80588	6.39682	5.95190	4.23633	3.63698	3.18777	17.30950	13.91271	10.81887
2980	2.19116	2.13620	1.78327	9.89675	9.16096	8.40882	10.81928	7.68950	5.08011	6.68144	6.33459	5.87412	4.34768	3.73207	3.26667	17.23801	13.86671	10.78250
3130	2.24110	2.16022	1.79750	9.88673	9.15377	8.42281	10.79718	7.64934	5.02098	6.74726	6.37482	5.93812	4.27095	3.64900	3.18477	17.31635	13.93699	10.85070	29.55	6.4	0.00	-2.04	0.01754	0.01213	0.01533	0.01845	0.01909	0.01492	0.00553	0.01531	0.02034	0.01885	0.01309	0.01667	0.01726	0.01785	0.01393	0.00579	0.01625	0.02172
3300	2.17409	2.10211	1.74102	9.93904	9.22130	8.47951	10.71658	7.57865	4.97798	6.79961	6.39435	5.93658	4.24792	3.65256	3.20473	17.29706	13.89885	10.80609
3460	2.21070	2.15489	1.80192	9.88698	9.14498	8.39500	10.83828	7.72135	5.09795	6.66034	6.33708	5.87532	4.35804	3.73217	3.27110	17.24114	13.87094	10.79103
3610	2.23760	2.15475	1.78878	9.89275	9.17032	8.43766	10.79260	7.63584	5.00972	6.77214	6.38728	5.94438	4.26029	3.63959	3.18108	17.34377	13.95631	10.86167
3780	2.16798	2.10057	1.74179	9.94750	9.22226	8.48500	10.70579	7.58700	4.98616	6.78750	6.38084	5.92485	4.26115	3.66757	3.22811	17.27063	13.88576	10.78068
3930	2.23899	2.17930	1.82175	9.87590	9.13324	8.39460	10.86071	7.72243	5.09807	6.68803	6.33597	5.87787	4.35521	3.72855	3.26412	17.25262	13.87907	10.79538
4090	2.22842	2.14628	1.77923	9.91168	9.18122	8.46544	10.76922	7.60737	4.99071	6.80116	6.42127	6.17150	4.23726	3.62653	3.17079	17.35603	14.04121	10.82571
4250	2.16789	2.10128	1.74531	9.97882	9.17330	8.46170	10.71319	7.61355	5.01223	6.72480	6.37065	5.90229	4.28453	3.68245	3.22920	17.26803	13.89251	10.81121
4410	2.21995	2.15073	1.79116	9.90256	9.16318	8.42540	10.80191	7.66711	5.05536	6.72272	6.35961	5.90634	4.31463	3.70299	3.24314	17.27074	13.88651	10.79826
4570	2.23084	2.16043	1.79895	9.89285	9.16099	8.42260	10.82536	7.68379	5.06774	6.71552	6.35105	5.89289	4.33123	3.71975	3.25989	17.24558	13.86966	10.78307
4730	2.24559	2.17751	1.81651	9.87559	9.14158	8.40289	10.86943	7.70497	5.07943	6.68970	6.33745	5.88255	4.33365	3.70912	3.24599	17.23682	13.87365	10.79164	29.61	6.6	0.00	-2.04	0.01754	0.01213	0.01533	0.01845	0.01910	0.01492	0.00553	0.01531	0.02033	0.01886	0.01309	0.01667	0.01726	0.01784	0.01392	0.00579	0.01626	0.02173
4880	2.21993	2.14572	1.77930	9.88999	9.16661	8.42661	10.78809	7.63037	5.01211	6.73990	6.36075	5.91447	4.27094	3.65531	3.19747	17.27846	13.90462	10.81705
5050	2.18490	2.11596	1.75908	9.91564	9.19160	8.45194	10.74576	7.60887	5.00086	6.76973	6.38289	5.93095	4.26438	3.66444	3.21442	17.29357	13.90774	10.81352
5220	2.21095	2.14766	1.79561	9.90675	9.16852	8.42919	10.81639	7.68256	5.07264	6.71516	6.35834	5.89165	4.33378	3.72558	3.26475	17.25697	13.87705	10.79308
5370	2.24381	2.17018	1.80455	9.89350	9.16128	8.42706	10.82490	7.67271	5.05059	6.73152	6.36412	5.91561	4.30259	3.68174	3.22075	17.28694	13.90916	10.82561
5540	2.20092	2.12698	1.76592	9.92452	9.20124	8.46439	10.75551	7.60847	4.99719	6.79344	6.39878	5.95572	4.25301	3.64887	3.19356	17.32365	13.93370	10.83827
5710	2.18824	2.12744	1.76908	9.92411	9.19347	8.45011	10.76322	7.64847	5.04088	6.73685	6.37000	5.90443	4.31182	3.71370	3.25850	17.27564	13.88299	10.79505
5860	2.25006	2.17866	1.81530	9.89227	9.16379	8.42492	10.82820	7.69393	5.06863	6.71575	6.35801	5.90562	4.32164	3.69857	3.23475	17.27075	13.90403	10.82168
6020	2.20960	2.13279	1.76934	9.92144	9.19196	8.46004	10.76492	7.61424	4.99717	6.79250	6.39998	5.97174	4.24824	3.63870	3.17969	17.34715	13.95998	10.86357
6190	2.17570	2.10868	1.75204	9.94627	9.20718	8.45961	10.74222	7.61914	5.01747	6.74589	6.37035	5.90491	4.30829	3.71922	3.27021	17.25892	13.87517	10.78578
6350	2.26623	2.19423	1.82947	9.89257	9.16270	8.42392	10.86712	7.70641	5.07469	6.72545	6.36759	5.91869	4.32059	3.69479	3.22717	17.29140	13.92745	10.84754	29.61	6.7	0.00	-2.04	0.01754	0.01213	0.01533	0.01845	0.01910	0.01492	0.00553	0.01531	0.02034	0.01886	0.01309	0.01667	0.01726	0.01785	0.01393	0.00579	0.01626	0.02173
6510	2.19853	2.12272	1.76106	9.94959	9.22325	8.48977	10.73730	7.60142	4.99193	6.82522	6.41665	5.97625	4.25111	3.64857	3.19773	17.33490	13.94074	10.84400
6670	2.19831	2.13848	1.78222	9.92166	9.18295	8.43755	10.82233	7.67725	5.06349	6.71925	6.36693	5.90880	4.32703	3.71065	3.25214	17.26315	13.89586	10.81040
6830	2.23321	2.16004	1.79817	9.91018	9.17883	8.44071	10.82054	7.67178	5.05244	6.73763	6.37564	5.92032	4.30885	3.68979	3.22759	17.27466	13.90728	10.82028
6990	2.20987	2.13627	1.77300	9.92225	9.19076	8.45318	10.76081	7.62736	5.01568	6.75883	6.38171	5.93191	4.27368	3.66315	3.20318	17.29575	13.92205	10.83366
7150	2.19217	2.12078	1.76349	9.92796	9.19752	8.46015	10.75610	7.61415	5.00572	6.76877	6.38805	5.93926	4.26388	3.65699	3.19815	17.30065	13.92626	10.83572
7310	2.19098	2.12493	1.76456	9.92898	9.19483	8.45683	10.76531	7.62630	5.01403	6.76090	6.38327	5.93561	4.27593	3.67223	3.21670	17.30828	13.92861	10.83824
7480	2.20297	2.13485	1.77337	9.92979	9.19807	8.45976	10.79224	7.63545	5.01968	6.76856	6.39156	5.94070	4.27842	3.66899	3.20942	17.30555	13.92484	10.83742
7640	2.20020	2.12967	1.76980	9.93347	9.20186	8.46258	10.76749	7.63359	5.01856	6.76936	6.38941	5.93979	4.27332	3.66671	3.21094	17.30664	13.92628	10.83563
7800	2.20114	2.13286	1.76884	9.93280	9.20027	8.46010	10.78423	7.63089	5.01958	6.76275	6.38701	5.93747	4.27427	3.66893	3.20996	17.30370	13.92241	10.83547
7970	2.20194	2.13455	1.77437	9.93289	9.20474	8.46511	10.78021	7.63685	5.02489	6.76990	6.39224	5.94102	4.28002	3.67256	3.21406	17.30616	13.92926	10.84203	29.55	6.2	0.00	-2.04	0.01754	0.01213	0.01533	0.01845	0.01910	0.01492	0.00553	0.01531	0.02034	0.01886	0.01309	0.01667	0.01726	0.01785	0.01393	0.00579	0.01626	0.02173
8130	2.20279	2.13353	1.77364	9.93289	9.19981	8.46031	10.78151	7.63378	5.02488	6.76722	6.38992	5.94325	4.27793	3.67677	3.21607	17.30267	13.92950	10.84288
8300	2.20455	2.13394	1.77381	9.93363	9.20189	8.46783	10.77959	7.63826	5.02645	6.77894	6.39078	5.94562	4.27933	3.67339	3.21532	17.30474	13.92859	10.83904
8460	2.20757	2.13881	1.77876	9.93063	9.20284	8.46366	10.79888	7.64990	5.03627	6.76472	6.38694	5.93593	4.29283	3.68733	3.22588	17.30605	13.92655	10.83160
8630	2.21343	2.14052	1.78182	9.93247	9.19766	8.46243	10.79053	7.65052	5.03692	6.75538	6.38809	5.94074	4.28703	3.67900	3.22057	17.30768	13.92371	10.83503
8790	2.21059	2.13854	1.77825	9.92870	9.19652	8.45872	10.79902	7.64674	5.03175	6.76227	6.38782	5.94005	4.28402	3.67949	3.21768	17.30213	13.92417	10.83593
8960	2.20682	2.14141	1.78268	9.93244	9.20136	8.46523	10.79471	7.64936	5.03808	6.76337	6.39385	5.94017	4.29037	3.68570	3.22408	17.31303	13.92691	10.83742
9120	2.21428	2.14277	1.78248	9.92942	9.19567	8.45878	10.79081	7.65054	5.03526	6.76219	6.38981	5.93618	4.28835	3.68506	3.22656	17.29059	13.92128	10.83438
9280	2.21075	2.13973	1.77794	9.92829	9.19649	8.45921	10.79806	7.64218	5.03096	6.76404	6.38995	5.93996	4.28724	3.68049	3.22214	17.30354	13.93020	10.84077
9450	2.21190	2.14376	1.78428	9.93343	9.20082	8.46148	10.79471	7.65059	5.03709	6.76204	6.38968	5.93869	4.29269	3.68735	3.22320	17.29908	13.92337	10.83673
9610	2.21305	2.14534	1.78279	9.92961	9.19845	8.46194	10.79589	7.64687	5.03827	6.76643	6.39351	5.94314	4.29056	3.68342	3.22328	17.30419	13.92989	10.84365	29.61	6.2	0.00	-2.04	0.01754	0.01213	0.01533	0.01845	0.01910	0.01492	0.00553	0.01531	0.02034	0.01886	0.01309	0.01667	0.01726	0.01785	0.01393	0.00580	0.01626	0.02173
9780	2.21168	2.13935	1.77981	9.93244	9.19977	8.46119	10.78508	7.64580	5.03037	6.76358	6.39189	5.93925	4.29145	3.68394	3.22732	17.31651	13.92942	10.84230
9940	2.21564	2.14399	1.78280	9.93428	9.20161	8.46226	10.78727	7.65228	5.04073	6.76126	6.39275	5.93962	4.29449	3.68522	3.22778	17.31771	13.92865	10.83925
10110	2.21561	2.14722	1.78577	9.93496	9.20275	8.46535	10.78426	7.64889	5.03575	6.76662	6.39795	5.94633	4.29162	3.68298	3.22186	17.31400	13.93547	10.84681
10270	2.20948	2.14036	1.78137	9.93459	9.20275	8.46581	10.78255	7.64342	5.03179	6.76556	6.39510	5.94295	4.28905	3.68266	3.22175	17.32502	13.93540	10.84716
10440	2.21151	2.14214	1.78159	9.93520	9.20333	8.46380	10.78269	7.64689	5.03442	6.76604	6.39632	5.94373	4.28835	3.68058	3.22539	17.31029	13.92916	10.84465
10600	2.21017	2.14279	1.78277	9.93864	9.20703	8.46906	10.78036	7.64618	5.03564	6.77192	6.39977	5.94807	4.28914	3.68348	3.22474	17.32294	13.93682	10.84799
10770	2.21165	2.14040	1.77946	9.93470	9.20263	8.46726	10.78098	7.64318	5.03334	6.76959	6.39651	5.94602	4.29082	3.68497	3.22605	17.32327	13.93930	10.85167
10930	2.21099	2.14316	1.78470	9.93812	9.20660	8.47290	10.78884	7.64657	5.03551	6.76996	6.39705	5.95181	4.28797	3.68219	3.22153	17.31694	13.93633	10.84745
11100	2.21422	2.14634	1.78706	9.94397	9.21006	8.47421	10.78406	7.65008	5.03967	6.77628	6.40332	5.95211	4.29170	3.68479	3.22686	17.31716	13.93765	10.85021
11260	2.21317	2.14376	1.78384	9.94005	9.20558	8.47003	10.78045	7.65070	5.03479	6.77198	6.40120	5.94695	4.29106	3.68251	3.22426	17.32300	13.93961	10.85109	29.61	6.1	0.00	-2.04	0.01754	0.01213	0.01533	0.01845	0.01910	0.01492	0.00553	0.01531	0.02033	0.01886	0.01309	0.01667	0.01726	0.01785	0.01393	0.00580	0.01626	0.02173
11430	2.21053	2.14300	1.78129	9.93893	9.20808	8.46925	10.77867	7.64164	5.03143	6.77364	6.39625	5.94716	4.28694	3.68393	3.22362	17.32420	13.94140	10.85090
11590	2.21395	2.14347	1.78229	9.94169	9.20922	8.47366	10.78701	7.64904	5.03429	6.77301	6.40021	5.94895	4.28934	3.68397	3.22444	17.31995	13.94181	10.84967
11760	2.21270	2.14546	1.78573	9.94357	9.21223	8.47459	10.77778	7.65027	5.03577	6.77463	6.40248	5.94990	4.29208	3.68508	3.22848	17.32398	13.94254	10.85262
11920	2.21423	2.14358	1.78187	9.94406	9.21277	8.47490	10.77710	7.64589	5.03458	6.77439	6.40356	5.95159	4.28697	3.68310	3.22479	17.32344	13.94130	10.85242
12090	2.21402	2.14198	1.78473	9.94394	9.21234	8.47477	10.78989	7.65252	5.03745	6.77409	6.40495	5.95212	4.29204	3.68585	3.22666	17.32944	13.94277	10.85577
12250	2.21683	2.14459	1.78444	9.94617	9.21198	8.47458	10.79160	7.64807	5.03431	6.77427	6.40546	5.95168	4.29157	3.68676	3.22611	17.33021	13.95054	10.86021
12420	2.21584	2.14396	1.78650	9.95049	9.21675	8.48061	10.79304	7.65223	5.03967	6.77730	6.40666	5.95411	4.29184	3.68560	3.22639	17.33217	13.94940	10.85839
12580	2.21477	2.14477	1.78579	9.94804	9.21326	8.47750	10.79845	7.64686	5.03528	6.77608	6.40641	5.95492	4.28872	3.68398	3.22377	17.33567	13.94738	10.86007
12750	2.21274	2.14267	1.78363	9.95172	9.21836	8.48193	10.78975	7.64726	5.03764	6.77827	6.40962	5.95822	4.29100	3.68435	3.22629	17.33895	13.94999	10.86260
12910	2.21100	2.14313	1.78334	9.95094	9.21647	8.48020	10.79550	7.64730	5.03153	6.77792	6.40865	5.95677	4.29227	3.68365	3.22889	17.33607	13.95587	10.86720	29.61	6.0	0.00	-2.04	0.01754	0.01212	0.01533	0.01845	0.01910	0.01492	0.00553	0.01531	0.02033	0.01886	0.01309	0.01667	0.01726	0.01785	0.01392	0.00580	0.01626	0.02173
13080	2.21473	2.14514	1.78403	9.95516	9.22132	8.48532	10.78900	7.64871	5.03534	6.78115	6.41086	5.95918	4.29188	3.68464	3.22755	17.33028	13.95193	10.86407
13240	2.21215	2.14442	1.78399	9.95305	9.21880	8.48315	10.79016	7.64748	5.03744	6.77773	6.40851	5.95618	4.28992	3.68290	3.22325	17.31805	13.95107	10.86238
13410	2.21235	2.14362	1.78500	9.95295	9.21986	8.48376	10.78612	7.65136	5.03678	6.77972	6.41083	5.95922	4.29163	3.68312	3.22605	17.33181	13.95460	10.86514
13570	2.21305	2.14283	1.78312	9.95212	9.21753	8.48110	10.77423	7.64355	5.03373	6.77983	6.40896	5.95787	4.29063	3.68583	3.22769	17.33017	13.95683	10.86788
13740	2.21809	2.14564	1.78613	9.95454	9.22099	8.48562	10.80482	7.64899	5.03650	6.78148	6.41112	5.95948	4.29130	3.68712	3.22812	17.34011	13.95695	10.86476
13910	2.21503	2.14134	1.78537	9.95244	9.22051	8.48341	10.77833	7.64995	5.03646	6.78076	6.41245	5.96067	4.28966	3.68363	3.22427	17.33465	13.95294	10.86510
14070	2.21316	2.14331	1.78219	9.95427	9.22074	8.48222	10.78640	7.64454	5.03318	6.77950	6.41227	5.95921	4.28780	3.68145	3.22466	17.33333	13.95431	10.86423
14240	2.21173	2.14548	1.78636	9.95529	9.22171	8.48457	10.78838	7.64899	5.03436	6.78163	6.41321	5.95984	4.28925	3.68405	3.22375	17.32929	13.95286	10.86425
14400	2.21449	2.14210	1.78505	9.95175	9.21818	8.48055	10.76357	7.64609	5.03407	6.77779	6.41089	5.95703	4.28764	3.68395	3.22373	17.33399	13.95455	10.86460
14570	2.21224	2.14340	1.78450	9.95440	9.22330	8.48305	10.78802	7.65328	5.03856	6.78233	6.41379	5.96030	4.29089	3.68172	3.22695	17.33397	13.95616	10.86445	29.61	6.0	0.00	-2.04	0.01754	0.01212	0.01533	0.01845	0.01910	0.01492	0.00553	0.01531	0.02033	0.01886	0.01309	0.01667	0.01725	0.01784	0.01392	0.00580	0.01626	0.02173
14730	2.21391	2.14450	1.78600	9.95520	9.22245	8.48283	10.78535	7.64881	5.03763	6.78206	6.41335	5.96077	4.29091	3.68327	3.22598	17.33878	13.95608	10.86501
14900	2.21224	2.14432	1.78400	9.95640	9.22371	8.48271	10.78487	7.64965	5.03408	6.78179	6.41280	5.96020	4.29122	3.68708	3.22715	17.34118	13.95849	10.86769
15070	2.21358	2.14306	1.78397	9.95893	9.22480	8.48461	10.78514	7.64959	5.03857	6.78300	6.41538	5.96065	4.29193	3.68301	3.22606	17.33736	13.95442	10.86678
15230	2.21132	2.14146	1.78500	9.95815	9.22582	8.48380	10.78774	7.65016	5.03534	6.78337	6.41591	5.96320	4.29048	3.68309	3.22244	17.33506	13.95579	10.86432
15400	2.21482	2.14476	1.78577	9.95919	9.22520	8.48855	10.80089	7.65098	5.03693	6.78644	6.41707	5.96428	4.29326	3.68709	3.22381	17.34402	13.95662	10.86778
15560	2.21233	2.14147	1.78264	9.95842	9.22579	8.48769	10.78309	7.64865	5.03412	6.78501	6.41810	5.96408	4.28829	3.68242	3.22364	17.34096	13.95426	10.86719
15730	2.21317	2.14147	1.78291	9.95971	9.22430	8.48687	10.79034	7.64606	5.03313	6.78543	6.41745	5.96371	4.28990	3.68485	3.22629	17.34228	13.95937	10.87084
15890	2.21419	2.14294	1.78567	9.96089	9.22541	8.48852	10.77755	7.64868	5.03663	6.78647	6.41672	5.96548	4.28978	3.68586	3.22673	17.33921	13.95566	10.86710
16060	2.21605	2.14419	1.78580	9.96357	9.23040	8.49407	10.79301	7.65283	5.03869	6.78835	6.42198	5.96938	4.29268	3.68483	3.22508	17.33626	13.95976	10.87052
16220	2.21324	2.14274	1.78602	9.96259	9.22601	8.48914	10.78579	7.64884	5.03573	6.78445	6.41852	5.96515	4.28960	3.68013	3.22375	17.34527	13.95517	10.86956	29.66	6.2	0.00	-2.04	0.01754	0.01212	0.01533	0.01845	0.01910	0.01492	0.00553	0.01531	0.02033	0.01886	0.01309	0.01667	0.01725	0.01784	0.01392	0.00580	0.01626	0.02173
16390	2.21063	2.13900	1.78318	9.96036	9.22322	8.48648	10.77348	7.64536	5.02888	6.78669	6.41689	5.96330	4.28615	3.68275	3.22464	17.33194	13.95768	10.87039
16550	2.21387	2.14297	1.78523	9.96098	9.22671	8.48779	10.78490	7.64979	5.03672	6.78637	6.41803	5.96740	4.28889	3.68445	3.22590	17.34823	13.95659	10.86796
16720	2.21470	2.14552	1.78715	9.96564	9.23106	8.49488	10.78045	7.65398	5.04002	6.78974	6.42327	5.97129	4.29267	3.68595	3.22790	17.35326	13.96359	10.87200
16880	2.21374	2.14287	1.78354	9.96504	9.22973	8.49120	10.77191	7.64848	5.03702	6.78797	6.41985	5.96816	4.28638	3.68110	3.22213	17.34221	13.95737	10.86814
17050	2.21046	2.14211	1.78474	9.96203	9.22734	8.49001	10.77813	7.64963	5.03621	6.78790	6.41970	5.96809	4.28922	3.68257	3.22493	17.33522	13.95799	10.86999
17210	2.21246	2.14108	1.78540	9.96078	9.22593	8.48858	10.78120	7.64539	5.03377	6.78643	6.41738	5.96518	4.28798	3.68647	3.22639	17.33041	13.95535	10.86914
17380	2.21328	2.14401	1.78507	9.95993	9.22569	8.48778	10.79722	7.64731	5.03693	6.78508	6.41841	5.96617	4.28966	3.68407	3.22376	17.32768	13.95006	10.86781
17540	2.21230	2.14129	1.78579	9.95888	9.22821	8.49068	10.78456	7.64934	5.03675	6.78931	6.42166	5.97182	4.28959	3.68463	3.22710	17.33478	13.95654	10.87155
17710	2.21300	2.14058	1.78527	9.96206	9.22879	8.49072	10.79674	7.65245	5.03873	6.78839	6.42124	5.96990	4.28917	3.68373	3.22463	17.33511	13.95527	10.86956
17870	2.21421	2.14264	1.78386	9.96228	9.22750	8.49086	10.79920	7.64524	5.03276	6.78908	6.42276	5.96946	4.28782	3.68604	3.22750	17.34033	13.95947	10.87414	29.61	6.1	0.00	-2.04	0.01754	0.01212	0.01533	0.01846	0.01910	0.01493	0.00553	0.01530	0.02033	0.01886	0.01309	0.01667	0.01725	0.01784	0.01392	0.00580	0.01626	0.02174
18040	2.21378	2.14191	1.78381	9.96476	9.23170	8.49203	10.78105	7.64677	5.03372	6.78960	6.42235	5.96988	4.28714	3.68314	3.22544	17.33662	13.95846	10.87160
18200	2.21614	2.14516	1.78709	9.96851	9.23242	8.49661	10.78612	7.65085	5.03927	6.79255	6.42600	5.97314	4.29039	3.68604	3.22804	17.34405	13.96144	10.87616
18370	2.21445	2.14497	1.78587	9.96800	9.23340	8.49459	10.79433	7.64373	5.03467	6.79288	6.42496	5.97474	4.29069	3.68443	3.22495	17.33476	13.96159	10.87415
18530	2.21139	2.14130	1.78512	9.96531	9.23099	8.49077	10.77838	7.64200	5.03132	6.78887	6.42404	5.97353	4.28775	3.68243	3.22491	17.34558	13.96374	10.87586
18700	2.21341	2.14208	1.78531	9.96814	9.23380	8.49367	10.79166	7.64773	5.03588	6.79166	6.42575	5.97357	4.28981	3.68334	3.22427	17.34175	13.96123	10.87389
18860	2.21522	2.14862	1.78673	9.97104	9.23705	8.49861	10.78283	7.65182	5.03881	6.79586	6.42911	5.97770	4.29249	3.68643	3.22630	17.34624	13.96540	10.87740
19030	2.21592	2.14321	1.78617	9.96979	9.23625	8.49721	10.77838	7.64272	5.03305	6.79485	6.42832	5.97746	4.28568	3.68112	3.22121	17.34624	13.96120	10.87560
19190	2.21306	2.14203	1.78644	9.96709	9.23334	8.49568	10.77093	7.64106	5.03214	6.79604	6.42900	5.97890	4.28629	3.68122	3.22254	17.33465	13.96263	10.87549
19360	2.21371	2.14314	1.78481	9.96780	9.23500	8.49676	10.78105	7.64469	5.03131	6.79584	6.42959	5.97810	4.28715	3.68521	3.22412	17.34646	13.96260	10.87762
19520	2.21291	2.14001	1.78623	9.96976	9.23736	8.49889	10.77849	7.64401	5.03467	6.79622	6.43043	5.97824	4.28673	3.68241	3.22305	17.33869	13.96284	10.87611	29.61	6.2	0.00	-2.04	0.01754	0.01212	0.01533	0.01846	0.01910	0.01493	0.00553	0.01530	0.02033	0.01886	0.01309	0.01667	0.01725	0.01784	0.01392	0.00580	0.01626	0.02174
19690	2.21128	2.14169	1.78547	9.96949	9.23757	8.50082	10.78232	7.64561	5.03307	6.79825	6.43117	5.97949	4.29038	3.68305	3.22502	17.34372	13.96380	10.87873
19850	2.21178	2.14163	1.78356	9.97100	9.23821	8.50014	10.77343	7.64324	5.02861	6.79777	6.42804	5.97694	4.29008	3.68596	3.22725	17.34460	13.96673	10.88070
20020	2.21646	2.14383	1.78593	9.97476	9.24186	8.50306	10.77945	7.64599	5.03627	6.79991	6.43209	5.97910	4.29258	3.68387	3.22458	17.34164	13.96512	10.87771
20180	2.21237	2.14168	1.78328	9.97144	9.23812	8.49783	10.77541	7.63925	5.03237	6.79686	6.42790	5.97759	4.28549	3.68120	3.22084	17.33443	13.95851	10.87282
20350	2.21182	2.13965	1.78134	9.96714	9.23382	8.49532	10.78027	7.64046	5.02828	6.79286	6.42726	5.97466	4.28867	3.68422	3.22444	17.34416	13.96473	10.88117
20510	2.21343	2.14342	1.78729	9.97511	9.24132	8.50173	10.78636	7.64336	5.03340	6.79931	6.43209	5.98111	4.28715	3.68231	3.22400	17.34274	13.96250	10.87605
20680	2.21301	2.14209	1.78448	9.96937	9.23780	8.49733	10.77316	7.64499	5.03078	6.79699	6.42974	5.98069	4.28495	3.68120	3.22070	17.33585	13.96281	10.87620
20840	2.21234	2.14214	1.78623	9.97125	9.23951	8.49922	10.80342	7.64294	5.03424	6.79742	6.43316	5.98099	4.28971	3.68243	3.22358	17.34394	13.96463	10.87806
21010	2.21111	2.14015	1.78206	9.97265	9.23976	8.49838	10.77336	7.64281	5.03101	6.79673	6.43219	5.98004	4.28550	3.68352	3.22513	17.34219	13.96611	10.87983
21170	2.21282	2.14296	1.78463	9.97496	9.24181	8.50105	10.78876	7.64293	5.03228	6.79969	6.43324	5.98216	4.28854	3.68364	3.22497	17.34896	13.96432	10.87939	29.61	6.1	0.00	-2.04	0.01753	0.01212	0.01533	0.01846	0.01910	0.01493	0.00553	0.01530	0.02033	0.01886	0.01309	0.01667	0.01725	0.01784	0.01392	0.00580	0.01626	0.02173
21340	2.21187	2.14221	1.78417	9.97573	9.24152	8.50194	10.77542	7.63966	5.03027	6.80119	6.43524	5.98304	4.28531	3.68119	3.22294	17.34076	13.96321	10.87736
21500	2.21674	2.14329	1.78663	9.97637	9.24323	8.50432	10.78555	7.64229	5.03336	6.80171	6.43530	5.98387	4.28850	3.68444	3.22466	17.34327	13.96497	10.87925
21670	2.21218	2.14073	1.78272	9.97445	9.24157	8.50234	10.78520	7.64172	5.03227	6.79921	6.43566	5.98171	4.28831	3.68132	3.22107	17.34316	13.96404	10.87816
21830	2.21140	2.14079	1.78425	9.97252	9.23847	8.49843	10.79698	7.63667	5.03143	6.79771	6.43274	5.98150	4.28716	3.68061	3.22190	17.34251	13.96668	10.88033
22000	2.21124	2.14257	1.78664	9.97580	9.24167	8.50047	10.77617	7.64303	5.03159	6.79937	6.43493	5.98364	4.28594	3.68165	3.22434	17.34622	13.96715	10.87886
22170	2.21244	2.14286	1.78502	9.97680	9.24121	8.50215	10.78568	7.63525	5.02858	6.80265	6.43686	5.98549	4.28663	3.68524	3.22766	17.35082	13.97218	10.88502
22330	2.21696	2.14756	1.78805	9.98219	9.24789	8.50894	10.78637	7.64469	5.03681	6.80777	6.44147	5.99056	4.28948	3.68519	3.22414	17.34491	13.97257	10.88537
22500	2.21403	2.14193	1.78485	9.98088	9.24601	8.50930	10.77453	7.64189	5.03132	6.80809	6.44175	5.98963	4.28437	3.68193	3.21793	17.34087	13.96967	10.88461
22660	2.20979	2.14140	1.78647	9.98000	9.24648	8.51211	10.78685	7.64159	5.03256	6.80909	6.44295	5.99077	4.28727	3.68423	3.22279	17.34316	13.97034	10.88514
22830	2.21198	2.13965	1.78457	9.97856	9.24267	8.50632	10.77275	7.63999	5.02911	6.80529	6.43762	5.98735	4.28716	3.68372	3.22412	17.34525	13.97167	10.88764	29.66	6.1	0.00	-2.04	0.01753	0.01212	0.01533	0.01846	0.01910	0.01493	0.00553	0.01530	0.02033	0.01886	0.01309	0.01667	0.01725	0.01784	0.01392	0.00580	0.01626	0.02174
22990	2.21314	2.14041	1.78392	9.97895	9.24409	8.50822	10.76974	7.64318	5.03078	6.80808	6.44135	5.98993	4.28557	3.68197	3.22331	17.34667	13.96835	10.88236
23150	2.21263	2.14303	1.78659	9.97903	9.24621	8.51189	10.79691	7.64313	5.03371	6.81083	6.44443	5.99275	4.28748	3.68402	3.22090	17.35367	13.97221	10.88636
23320	2.21227	2.14094	1.78431	9.98015	9.24395	8.50889	10.77713	7.63811	5.02805	6.80598	6.43846	5.98748	4.28803	3.68252	3.22283	17.34721	13.97221	10.88829
23480	2.21465	2.13776	1.78448	9.98177	9.24727	8.51165	10.79205	7.64610	5.03040	6.80764	6.44101	5.99062	4.28562	3.67904	3.22263	17.34383	13.97063	10.88577
23650	2.21225	2.13956	1.78565	9.98314	9.24939	8.51332	10.77795	7.64493	5.03240	6.81119	6.44491	5.99371	4.28792	3.68311	3.22408	17.35236	13.97190	10.88829
23810	2.21084	2.13897	1.78349	9.98133	9.24759	8.51080	10.77925	7.64034	5.03016	6.81070	6.44124	5.99230	4.28554	3.67980	3.21927	17.34328	13.97071	10.88793
23980	2.20989	2.13983	1.78217	9.97945	9.24558	8.51145	10.79588	7.64115	5.02758	6.81044	6.44158	5.99370	4.28254	3.68141	3.22186	17.35082	13.97159	10.88793
24140	2.21028	2.13736	1.78264	9.97878	9.24483	8.51056	10.78061	7.64206	5.02901	6.81008	6.44209	5.99328	4.28453	3.68229	3.22350	17.35575	13.97764	10.89270
24310	2.21260	2.14188	1.78622	9.98393	9.24971	8.51376	10.77884	7.64175	5.03281	6.81178	6.44369	5.99473	4.28567	3.68186	3.22176	17.35225	13.97270	10.88770
24470	2.21083	2.14254	1.78578	9.98100	9.24912	8.51378	10.77076	7.63996	5.03196	6.81351	6.44371	5.99576	4.28453	3.68090	3.22041	17.34926	13.97271	10.88936	29.61	6.0	0.00	-2.04	0.01753	0.01212	0.01533	0.01846	0.01911	0.01493	0.00553	0.01530	0.02032	0.01886	0.01309	0.01667	0.01725	0.01784	0.01392	0.00580	0.01626	0.02174
24640	2.21346	2.14061	1.78725	9.98403	9.25061	8.51511	10.79807	7.64729	5.03159	6.81361	6.44561	5.99617	4.28767	3.68387	3.22418	17.35407	13.97635	10.89016
24800	2.21176	2.13928	1.78467	9.98271	9.25028	8.51621	10.77794	7.64061	5.02986	6.81242	6.44458	5.99272	4.28553	3.68012	3.22157	17.34707	13.97391	10.89024
24970	2.21218	2.13963	1.78515	9.98382	9.24950	8.51615	10.77268	7.64455	5.03273	6.81519	6.44622	5.99675	4.28600	3.68208	3.22141	17.35331	13.97471	10.89122
25130	2.21197	2.13695	1.78498	9.98365	9.24972	8.51465	10.77179	7.63865	5.02825	6.81264	6.44431	5.99582	4.28784	3.68573	3.22682	17.35495	13.97762	10.89495
25300	2.21457	2.14421	1.78452	9.98684	9.25312	8.51787	10.77712	7.64064	5.03344	6.81610	6.44809	5.99825	4.28324	3.68254	3.22106	17.35834	13.97697	10.89204
25460	2.21154	2.13859	1.78709	9.98321	9.25112	8.51498	10.77397	7.63737	5.03128	6.81125	6.44520	5.99401	4.28410	3.68082	3.22126	17.35407	13.97440	10.88859
25630	2.21284	2.14167	1.78617	9.98233	9.25003	8.51447	10.78232	7.63699	5.02833	6.81329	6.44513	5.99662	4.28596	3.68006	3.22096	17.35911	13.97840	10.89034
25790	2.21222	2.13985	1.78527	9.98075	9.24663	8.50923	10.77363	7.64048	5.02903	6.80872	6.44278	5.99196	4.28673	3.68409	3.22529	17.35484	13.97391	10.88992
25960	2.21173	2.14332	1.78480	9.98250	9.24942	8.51454	10.78081	7.64445	5.03217	6.81101	6.44603	5.99425	4.28801	3.68210	3.22304	17.34762	13.97173	10.88698
26120	2.21008	2.13919	1.78498	9.98117	9.24913	8.51349	10.78984	7.64080	5.02925	6.81409	6.44521	5.99557	4.28322	3.67834	3.22164	17.34616	13.97096	10.88864	29.66	6.0	0.00	-2.04	0.01753	0.01212	0.01533	0.01846	0.01911	0.01493	0.00553	0.01530	0.02032	0.01886	0.01309	0.01667	0.01725	0.01784	0.01392	0.00580	0.01626	0.02174
26290	2.21281	2.14316	1.78750	9.98360	9.25215	8.51471	10.78532	7.64604	5.03360	6.81329	6.44661	5.99769	4.28678	3.68250	3.22252	17.35349	13.97264	10.88892
26450	2.21335	2.13882	1.78296	9.98204	9.24812	8.51088	10.77834	7.63847	5.02959	6.80891	6.44434	5.99419	4.28874	3.68849	3.22914	17.34572	13.97630	10.89230
26620	2.21666	2.14457	1.78981	9.98514	9.25273	8.51707	10.79471	7.65010	5.03531	6.81490	6.44806	5.99867	4.28879	3.68341	3.22599	17.35491	13.97389	10.89047
26790	2.21337	2.14320	1.78608	9.98505	9.25046	8.51521	10.78279	7.64073	5.03421	6.81346	6.44898	5.99757	4.28459	3.68274	3.22486	17.35163	13.97142	10.88759
26950	2.21503	2.14367	1.79056	9.98633	9.25438	8.51872	10.78526	7.64716	5.03658	6.81898	6.45054	6.00266	4.29131	3.68468	3.22587	17.35743	13.97581	10.89077
27110	2.21395	2.14188	1.78606	9.98724	9.25237	8.51558	10.79272	7.64204	5.02911	6.81460	6.44967	5.99821	4.28487	3.68069	3.22237	17.35283	13.97168	10.88686
27280	2.21163	2.14019	1.78484	9.98256	9.25018	8.51470	10.77219	7.63582	5.02906	6.81310	6.44605	5.99762	4.28378	3.68038	3.22252	17.35185	13.97088	10.88827
27440	2.21289	2.14232	1.78485	9.98441	9.25177	8.51412	10.77964	7.63812	5.03081	6.81472	6.44832	5.99804	4.28596	3.68546	3.22136	17.35688	13.97454	10.89086
27610	2.21178	2.14203	1.78742	9.98692	9.25107	8.51959	10.78779	7.64278	5.03243	6.81766	6.44990	5.99898	4.28291	3.68082	3.21856	17.35710	13.97137	10.88949
27780	2.21242	2.14020	1.78891	9.98559	9.25324	8.51865	10.76871	7.64823	5.03350	6.81664	6.45101	5.99853	4.28743	3.68494	3.22429	17.35622	13.97499	10.89330	29.66	6.1	0.00	-2.04	0.01753	0.01212	0.01533	0.01846	0.01911	0.01493	0.00553	0.01530	0.02032	0.01886	0.01309	0.01667	0.01725	0.01784	0.01392	0.00580	0.01626	0.02174
27940	2.20971	2.13913	1.78528	9.98891	9.25431	8.51637	10.77630	7.64074	5.03159	6.81582	6.45116	6.00024	4.28488	3.67986	3.22215	17.35206	13.97380	10.89259
28110	2.21026	2.13983	1.78387	9.98632	9.25215	8.51344	10.76987	7.63913	5.03083	6.81346	6.44793	5.99800	4.28909	3.68597	3.22825	17.34681	13.97666	10.89314
28270	2.21479	2.14359	1.78712	9.98979	9.25732	8.52077	10.77938	7.64123	5.03006	6.82167	6.45270	6.00449	4.28367	3.68146	3.22260	17.35129	13.97645	10.89566
28440	2.21197	2.13855	1.78624	9.99161	9.25993	8.52201	10.79389	7.63739	5.02842	6.82281	6.45459	6.00438	4.28369	3.68189	3.22020	17.35446	13.97461	10.89132
28600	2.21380	2.14237	1.78718	9.99033	9.25917	8.51989	10.78437	7.64118	5.02985	6.81998	6.45285	6.00447	4.28592	3.68122	3.22341	17.35534	13.97616	10.89366
28770	2.21060	2.14138	1.78665	9.98903	9.25679	8.51865	10.76441	7.63784	5.02979	6.82179	6.45401	6.00495	4.28378	3.68158	3.22126	17.35512	13.97658	10.89220
28930	2.21051	2.14094	1.78490	9.98855	9.25495	8.51788	10.76004	7.63443	5.02604	6.81870	6.45212	6.00103	4.28391	3.68080	3.22484	17.35107	13.97380	10.89408
29100	2.21223	2.14089	1.78687	9.99039	9.25917	8.51953	10.77712	7.63500	5.02943	6.82170	6.45347	6.00468	4.28332	3.67973	3.22233	17.35425	13.97390	10.89099
29260	2.21308	2.14274	1.78666	9.99046	9.25719	8.51807	10.77719	7.63910	5.03148	6.82086	6.45419	6.00567	4.28522	3.68022	3.22110	17.35140	13.97520	10.89166
29430	2.21287	2.14312	1.78713	9.99261	9.25983	8.52446	10.77655	7.63897	5.03186	6.82391	6.45682	6.00639	4.28707	3.68321	3.22497	17.35873	13.97729	10.89667	29.61	6.2	0.00	-2.04	0.01753	0.01212	0.01532	0.01846	0.01911	0.01493	0.00553	0.01530	0.02032	0.01886	0.01309	0.01667	0.01725	0.01784	0.01392	0.00580	0.01626	0.02174
29600	2.21147	2.13941	1.78347	9.99450	9.26140	8.52255	10.77901	7.63700	5.02750	6.82395	6.45508	6.00702	4.28251	3.67864	3.21742	17.35446	13.97513	10.89521
29760	2.21124	2.13915	1.78544	9.99340	9.26026	8.52204	10.77087	7.63784	5.02799	6.82266	6.45592	6.00692	4.28498	3.68009	3.22148	17.35578	13.97627	10.89693
29930	2.21134	2.14047	1.78534	9.99572	9.26278	8.52586	10.77429	7.63558	5.02800	6.82559	6.45621	6.00800	4.28457	3.68188	3.22476	17.35983	13.98046	10.89783
30090	2.21416	2.14015	1.78533	9.99617	9.26048	8.52459	10.77587	7.63781	5.02776	6.82422	6.45796	6.00715	4.28460	3.68189	3.22549	17.36027	13.98105	10.90102
30260	2.21299	2.14155	1.78703	9.99826	9.26322	8.52586	10.76691	7.63554	5.02973	6.82710	6.46028	6.01091	4.28341	3.68195	3.22105	17.36235	13.97882	10.89818
30420	2.21190	2.13939	1.78461	9.99310	9.25960	8.52478	10.77730	7.63564	5.02827	6.82472	6.45748	6.00696	4.28352	3.68052	3.21949	17.36147	13.97596	10.89393
30590	2.21251	2.14253	1.78584	9.99483	9.26399	8.52810	10.77935	7.63905	5.03173	6.82785	6.46239	6.01152	4.28613	3.68280	3.22188	17.36958	13.98129	10.89985
30750	2.21030	2.14134	1.78424	9.99611	9.26339	8.52713	10.77053	7.63434	5.02828	6.82580	6.46013	6.00930	4.28478	3.68125	3.22269	17.36903	13.97926	10.89691
30920	2.20930	2.13603	1.78382	9.99326	9.25946	8.52408	10.76992	7.63482	5.02623	6.82531	6.45998	6.01006	4.28315	3.68092	3.22492	17.36596	13.98027	10.89835
31090	2.21296	2.14026	1.78527	9.99624	9.26189	8.52620	10.77624	7.63430	5.02827	6.82570	6.45918	6.00918	4.28456	3.68352	3.22218	17.35825	13.98101	10.89852	29.61	6.1	0.00	-2.04	0.01753	0.01212	0.01532	0.01846	0.01910	0.01493	0.00553	0.01530	0.02032	0.01886	0.01309	0.01667	0.01725	0.01784	0.01392	0.00580	0.01626	0.02174
31250	2.21166	2.13941	1.78456	9.99467	9.26047	8.52545	10.77952	7.63293	5.02733	6.82594	6.45897	6.01051	4.28347	3.67958	3.22077	17.35201	13.98010	10.89767
31420	2.21184	2.13968	1.78572	9.99683	9.26344	8.52711	10.77863	7.63712	5.02867	6.82855	6.46080	6.01062	4.28428	3.67951	3.21949	17.35376	13.97979	10.89723
31580	2.21026	2.13850	1.78235	9.99336	9.25995	8.52270	10.77268	7.63432	5.02327	6.82653	6.45825	6.00840	4.28047	3.68161	3.22116	17.35628	13.98457	10.90217
31750	2.21322	2.14107	1.78550	9.99823	9.26421	8.52573	10.76523	7.63432	5.02786	6.82809	6.46063	6.01075	4.28637	3.68344	3.22044	17.36208	13.98142	10.90095
31910	2.21209	2.13837	1.78506	9.99578	9.26281	8.52764	10.78226	7.63613	5.02953	6.82915	6.46299	6.01231	4.28367	3.68205	3.22111	17.36756	13.98018	10.89932
32080	2.21299	2.13877	1.78600	9.99656	9.26358	8.52890	10.76407	7.63596	5.02672	6.82882	6.46362	6.01379	4.28529	3.68220	3.22283	17.35858	13.98771	10.90326
32240	2.21279	2.14071	1.78603	10.00001	9.26543	8.53149	10.77507	7.63662	5.02714	6.83119	6.46665	6.01608	4.28384	3.67931	3.21728	17.36066	13.98327	10.90051
32410	2.21145	2.13994	1.78550	9.99675	9.26383	8.52906	10.77425	7.63430	5.02739	6.82810	6.46232	6.01296	4.28371	3.67912	3.21952	17.35059	13.98116	10.90017
32570	2.20851	2.13603	1.78353	9.99584	9.26451	8.52912	10.77425	7.63566	5.02834	6.82925	6.46358	6.01349	4.28336	3.67893	3.22299	17.35858	13.98051	10.90268
32740	2.21147	2.13906	1.78461	9.99653	9.26759	8.53135	10.76046	7.63278	5.02511	6.83074	6.46546	6.01425	4.28480	3.68259	3.22444	17.36089	13.98819	10.90728	29.61	6.1	0.00	-2.04	0.01753	0.01212	0.01532	0.01846	0.01910	0.01493	0.00553	0.01530	0.02032	0.01886	0.01309	0.01667	0.01725	0.01784	0.01392	0.00580	0.01626	0.02174
32900	2.21379	2.13963	1.78653	10.00215	9.26940	8.53412	10.77707	7.63206	5.02555	6.83651	6.46876	6.01883	4.28301	3.67930	3.21917	17.36549	13.98708	10.90309
33070	2.20912	2.13820	1.78704	9.99968	9.26904	8.53304	10.77638	7.63419	5.02489	6.83533	6.47056	6.01908	4.28061	3.67704	3.21922	17.36111	13.98570	10.90215
33230	2.21169	2.13866	1.78669	10.00062	9.27012	8.53413	10.76975	7.63631	5.02617	6.83701	6.47041	6.01956	4.28137	3.67733	3.21816	17.35716	13.98583	10.90360
33400	2.20695	2.13762	1.78347	9.99742	9.26662	8.52971	10.75698	7.63057	5.02241	6.83111	6.46788	6.01436	4.28129	3.68080	3.22387	17.35859	13.98814	10.90704
33570	2.21276	2.13883	1.78345	10.00314	9.27158	8.53476	10.77132	7.63292	5.02786	6.83552	6.47023	6.01886	4.28275	3.67960	3.21883	17.36122	13.98533	10.90423
33730	2.21147	2.13572	1.78711	10.00118	9.26841	8.53153	10.77023	7.63173	5.02562	6.83382	6.46993	6.02071	4.27759	3.67731	3.21987	17.36165	13.98248	10.90396
33900	2.21086	2.13965	1.78643	10.00159	9.27242	8.53497	10.77310	7.63828	5.03049	6.83707	6.47334	6.02179	4.28503	3.68265	3.22169	17.35815	13.98765	10.90751
34060	2.21087	2.13797	1.78488	10.00483	9.27198	8.53313	10.78069	7.63597	5.02626	6.83471	6.47115	6.02157	4.28355	3.67850	3.21983	17.36823	13.99090	10.90876
34230	2.20999	2.13827	1.78382	10.00356	9.27188	8.53385	10.76791	7.63285	5.02719	6.83528	6.47118	6.02067	4.28279	3.67977	3.22055	17.35804	13.99240	10.90951
34390	2.21271	2.13958	1.78729	10.00541	9.27521	8.53791	10.77212	7.63560	5.02860	6.83773	6.47121	6.02092	4.28178	3.68048	3.22050	17.36354	13.99111	10.90744	29.55	6.0	0.00	-2.04	0.01753	0.01212	0.01532	0.01846	0.01910	0.01493	0.00553	0.01530	0.02032	0.01886	0.01309	0.01667	0.01725	0.01784	0.01392	0.00580	0.01626	0.02174
34560	2.21004	2.13998	1.78621	10.00629	9.27229	8.53709	10.76112	7.63465	5.02647	6.83792	6.47161	6.01983	4.28379	3.68247	3.22167	17.36945	13.99519	10.91039
34720	2.21417	2.13995	1.78725	10.00891	9.27628	8.53843	10.78909	7.63524	5.02756	6.83950	6.47348	6.02440	4.28298	3.67893	3.21846	17.36518	13.99158	10.90910
34890	2.20975	2.13875	1.78593	10.00593	9.27366	8.53721	10.77356	7.63569	5.02679	6.83819	6.47248	6.02351	4.28050	3.67670	3.21791	17.36124	13.98823	10.90647
35050	2.21153	2.13888	1.78541	10.00305	9.27330	8.53754	10.76904	7.63411	5.02770	6.84072	6.47390	6.02486	4.28165	3.67970	3.22095	17.36934	13.98966	10.90846
35220	2.21348	2.13967	1.78643	10.00508	9.27321	8.53813	10.77527	7.63203	5.02299	6.83885	6.47263	6.02428	4.28358	3.68076	3.22247	17.37077	13.99059	10.91158
35380	2.21300	2.13998	1.78635	10.00774	9.27538	8.54075	10.77014	7.63550	5.02625	6.84132	6.47487	6.02559	4.28293	3.68053	3.22136	17.36748	13.99044	10.90959
35550	2.21228	2.13870	1.78612	10.00511	9.27363	8.53591	10.75702	7.63146	5.02488	6.83803	6.47200	6.02500	4.27949	3.67641	3.21713	17.36277	13.98607	10.90701
35720	2.21323	2.13847	1.78809	10.00589	9.27580	8.53936	10.75941	7.63688	5.02908	6.84250	6.47751	6.02903	4.28347	3.68017	3.22184	17.36682	13.99280	10.91105
35880	2.21060	2.13950	1.78655	10.00840	9.27365	8.53916	10.78272	7.63077	5.02602	6.84072	6.47642	6.02698	4.28238	3.68048	3.21989	17.36496	13.99005	10.90782
36050	2.21131	2.13673	1.78603	10.00592	9.27347	8.53853	10.76060	7.62896	5.02597	6.84107	6.47502	6.02523	4.28387	3.68007	3.21985	17.36134	13.99034	10.91139	29.61	6.1	0.00	-2.04	0.01753	0.01212	0.01532	0.01846	0.01910	0.01493	0.00553	0.01530	0.02032	0.01886	0.01309	0.01667	0.01725	0.01784	0.01392	0.00580	0.01626	0.02174
36210	2.21218	2.13884	1.78577	10.00929	9.27705	8.54341	10.76688	7.63404	5.02620	6.84196	6.47795	6.02790	4.28254	3.67887	3.21994	17.36495	13.99078	10.91025
36380	2.21287	2.14044	1.78925	10.01147	9.28087	8.54462	10.77707	7.63709	5.02901	6.84607	6.48244	6.03459	4.28372	3.68093	3.22367	17.37262	13.99739	10.91536
36540	2.21240	2.14053	1.78585	10.01298	9.27837	8.54247	10.78788	7.63275	5.02495	6.84302	6.47919	6.03013	4.28138	3.67683	3.21944	17.37120	13.99463	10.91171
36710	2.20914	2.13546	1.78347	10.00835	9.27615	8.54011	10.76073	7.63114	5.02271	6.84184	6.47784	6.02737	4.28034	3.68085	3.22113	17.36495	13.99294	10.91426
36870	2.21028	2.13928	1.78549	10.01270	9.27939	8.54582	10.76702	7.63231	5.02381	6.84512	6.47878	6.03163	4.27936	3.67842	3.21670	17.36736	13.99276	10.91255
37040	2.21399	2.13964	1.78691	10.01464	9.28279	8.54634	10.78459	7.63649	5.02973	6.84729	6.48360	6.03444	4.28413	3.68038	3.22206	17.37021	13.99640	10.91587
37200	2.21240	2.13857	1.78637	10.01280	9.28029	8.54452	10.76285	7.63397	5.02765	6.84428	6.47955	6.03098	4.28027	3.67676	3.21728	17.36978	13.99388	10.91266
37370	2.20925	2.13869	1.78524	10.01163	9.28030	8.54567	10.77577	7.63553	5.02545	6.84572	6.48235	6.03225	4.28166	3.67808	3.21884	17.36725	13.99536	10.91282
37530	2.20960	2.13638	1.78614	10.01150	9.27941	8.54252	10.76907	7.63242	5.02501	6.84467	6.48004	6.03134	4.28239	3.68074	3.21954	17.37569	13.99427	10.91380
37700	2.21199	2.13761	1.78446	10.00977	9.27874	8.54146	10.77419	7.63130	5.02177	6.84129	6.47708	6.02791	4.27773	3.67619	3.21677	17.37173	13.99208	10.91091	29.61	6.0	0.00	-2.04	0.01753	0.01212	0.01532	0.01846	0.01910	0.01492	0.00553	0.01530	0.02032	0.01886	0.01308	0.01667	0.01725	0.01784	0.01392	0.00580	0.01626	0.02174
37860	2.21044	2.13448	1.78687	10.00961	9.27935	8.54356	10.78445	7.63962	5.03108	6.84386	6.48073	6.03219	4.28236	3.68063	3.21943	17.36778	13.99658	10.91496
38030	2.21151	2.13699	1.78539	10.01179	9.27996	8.54248	10.78657	7.63078	5.02758	6.84336	6.48115	6.03008	4.28249	3.67610	3.22009	17.36745	13.99590	10.91485
38190	2.20948	2.13616	1.78408	10.01246	9.28001	8.54034	10.77507	7.62769	5.02365	6.84259	6.48133	6.03089	4.27962	3.68016	3.21783	17.36943	13.99954	10.91747
38360	2.21228	2.13948	1.78582	10.01376	9.28075	8.54327	10.77036	7.63313	5.02520	6.84472	6.48462	6.03286	4.27799	3.67766	3.21978	17.37513	13.99702	10.91469
38520	2.21228	2.14265	1.78864	10.01590	9.28154	8.54668	10.77487	7.63959	5.02939	6.84792	6.48552	6.03570	4.28417	3.68106	3.22165	17.37633	14.00243	10.91983
38690	2.21168	2.13800	1.78651	10.01587	9.28178	8.54427	10.77398	7.63319	5.02748	6.84429	6.48303	6.03346	4.28325	3.67793	3.21714	17.37162	13.99697	10.91630
38850	2.21024	2.13489	1.78419	10.01218	9.27896	8.54143	10.76769	7.62991	5.02196	6.84038	6.48021	6.03025	4.28082	3.67835	3.22002	17.37896	13.99884	10.91906
39020	2.21025	2.13959	1.78461	10.01590	9.28312	8.54522	10.77152	7.63427	5.02433	6.84558	6.48399	6.03328	4.28230	3.67905	3.21856	17.37864	13.99686	10.91683
39180	2.21196	2.14054	1.78780	10.01544	9.28422	8.54522	10.76919	7.63818	5.02877	6.84701	6.48571	6.03594	4.28619	3.67924	3.22292	17.37666	14.00178	10.91905
39350	2.21090	2.13951	1.78353	10.01589	9.28250	8.54370	10.77536	7.62994	5.02203	6.84532	6.48383	6.03561	4.28384	3.68059	3.22265	17.37425	14.00240	10.92187	29.66	6.1	0.00	-2.04	0.01753	0.01212	0.01532	0.01846	0.01910	0.01493	0.00553	0.01530	0.02032	0.01886	0.01309	0.01667	0.01725	0.01784	0.01392	0.00580	0.01626	0.02174
39510	2.21312	2.13945	1.78738	10.01685	9.28448	8.54744	10.75460	7.63571	5.02701	6.84900	6.48651	6.03827	4.28115	3.67876	3.21927	17.37776	14.00261	10.92014
39680	2.21055	2.13686	1.78633	10.01700	9.28393	8.54723	10.76737	7.63341	5.02474	6.84889	6.48914	6.03941	4.28214	3.68015	3.21751	17.37524	14.00165	10.92074
39840	2.21350	2.13843	1.78746	10.01707	9.28469	8.54835	10.77099	7.63606	5.02703	6.84920	6.48858	6.03942	4.28214	3.67898	3.21657	17.36801	13.99837	10.91955
40010	2.20966	2.13718	1.78678	10.01696	9.28213	8.55098	10.77858	7.63697	5.02844	6.85149	6.49029	6.03756	4.28261	3.67924	3.22078	17.36823	14.00165	10.92047
40170	2.20958	2.13702	1.78517	10.01740	9.28408	8.54724	10.77078	7.62996	5.02303	6.84636	6.48490	6.03642	4.28145	3.67883	3.22052	17.37316	14.00344	10.92131
40340	2.21090	2.13646	1.78720	10.01799	9.28440	8.54997	10.77721	7.62974	5.02867	6.84859	6.48653	6.03680	4.28140	3.67734	3.21842	17.37327	13.99964	10.91818
40500	2.20771	2.13752	1.78645	10.01468	9.28183	8.54947	10.77372	7.63075	5.02667	6.84917	6.48777	6.03822	4.28196	3.67606	3.22048	17.37206	13.99933	10.91776
40670	2.20936	2.13600	1.78392	10.01368	9.28084	8.54554	10.75630	7.62942	5.02183	6.84585	6.48538	6.03611	4.27884	3.67923	3.22003	17.37623	14.00160	10.92021
40830	2.21014	2.13695	1.78679	10.01588	9.28356	8.54881	10.75719	7.63256	5.02225	6.84839	6.48672	6.03751	4.28043	3.67769	3.21809	17.37097	13.99741	10.91695
41000	2.21058	2.13985	1.78779	10.01619	9.28461	8.55127	10.76700	7.63396	5.02626	6.85041	6.49104	6.04001	4.28251	3.68209	3.21974	17.37381	14.00178	10.92156	29.66	6.2	0.00	-2.04	0.01753	0.01212	0.01532	0.01846	0.01910	0.01493	0.00553	0.01530	0.02032	0.01886	0.01309	0.01667	0.01725	0.01784	0.01392	0.00580	0.01626	0.02174
41160	2.21030	2.13801	1.78555	10.01602	9.28496	8.54904	10.76215	7.63108	5.02487	6.84905	6.48831	6.03950	4.28274	3.68123	3.22104	17.38138	14.00204	10.92425
41320	2.21335	2.13924	1.78710	10.01977	9.28770	8.55198	10.74584	7.63290	5.02500	6.85157	6.49019	6.04272	4.28000	3.67761	3.22081	17.37721	14.00186	10.92222
41490	2.21117	2.13966	1.78873	10.02120	9.29073	8.55536	10.76830	7.63410	5.02683	6.85592	6.49455	6.04547	4.28310	3.68015	3.21970	17.38423	14.00620	10.92654
41650	2.20994	2.13636	1.78763	10.02271	9.28913	8.55359	10.76270	7.63176	5.02409	6.85505	6.49109	6.04255	4.28313	3.67838	3.22047	17.37206	14.00659	10.92723
41820	2.21326	2.13747	1.78797	10.02217	9.28804	8.55403	10.76051	7.63287	5.02558	6.85563	6.49152	6.04295	4.27988	3.67829	3.22083	17.37359	14.00102	10.92079
41980	2.21254	2.13792	1.78658	10.02056	9.28829	8.55377	10.77110	7.63388	5.02679	6.85371	6.49253	6.04420	4.28180	3.67892	3.21968	17.37217	14.00240	10.92285
42140	2.20985	2.13727	1.78374	10.01880	9.28382	8.55017	10.77063	7.62715	5.02144	6.85022	6.48937	6.03989	4.27921	3.67588	3.22000	17.37041	14.00056	10.92176
42310	2.20947	2.13430	1.78379	10.01954	9.28624	8.55045	10.77281	7.63103	5.02454	6.85254	6.49040	6.04160	4.27970	3.67831	3.21524	17.37304	14.00045	10.92199
42470	2.21014	2.13539	1.78251	10.01880	9.28455	8.54975	10.75608	7.63601	5.02332	6.84953	6.49057	6.04141	4.27983	3.67777	3.21889	17.37502	14.00259	10.92317
42640	2.21068	2.13734	1.78661	10.02146	9.28802	8.55357	10.76551	7.63427	5.02455	6.85349	6.49452	6.03881	4.27931	3.67972	3.21729	17.37462	14.00437	10.92377	29.61	6.0	0.00	-2.04	0.01753	0.01212	0.01532	0.01846	0.01910	0.01493	0.00553	0.01530	0.02032	0.01886	0.01308	0.01667	0.01725	0.01784	0.01392	0.00580	0.01626	0.02173
42810	2.21165	2.13652	1.78573	10.02121	9.28914	8.55263	10.77925	7.63070	5.02424	6.85157	6.49118	6.04209	4.28280	3.68007	3.22397	17.37484	14.00666	10.92432
42970	2.21412	2.13988	1.78786	10.02253	9.28969	8.55212	10.78397	7.63816	5.02964	6.85103	6.49008	6.04205	4.28359	3.68042	3.22108	17.37901	14.00148	10.92191
43140	2.21177	2.13766	1.78834	10.01916	9.28692	8.55163	10.77849	7.63637	5.02521	6.85092	6.49007	6.04199	4.27867	3.67893	3.22128	17.37199	13.99971	10.92058
43300	2.21025	2.13687	1.78934	10.01909	9.28755	8.55300	10.77125	7.63685	5.02818	6.85397	6.49272	6.04495	4.28182	3.68098	3.22032	17.37177	13.99958	10.92490
43470	2.21148	2.13562	1.78832	10.01922	9.28732	8.55119	10.76284	7.63365	5.02618	6.85097	6.49092	6.04258	4.27988	3.67951	3.22017	17.37418	14.00184	10.92190
43630	2.20933	2.13752	1.78596	10.01812	9.28486	8.54892	10.76250	7.62862	5.02194	6.85035	6.48820	6.04229	4.28075	3.68123	3.22073	17.37418	14.00353	10.92526
43800	2.21341	2.13804	1.79021	10.02036	9.28788	8.54964	10.77125	7.63504	5.02617	6.85287	6.49112	6.04346	4.28207	3.67783	3.21862	17.37681	14.00106	10.92149
43960	2.21325	2.14001	1.78839	10.01859	9.28546	8.55110	10.78842	7.63399	5.02724	6.85153	6.49185	6.04356	4.27897	3.67628	3.21829	17.36728	14.00018	10.91930
44130	2.21183	2.14163	1.78892	10.02141	9.28790	8.55263	10.77111	7.63424	5.02824	6.85461	6.49307	6.04580	4.28276	3.68063	3.22158	17.37593	14.00223	10.92443
44300	2.21466	2.13732	1.78892	10.02044	9.28722	8.55196	10.77218	7.63160	5.02403	6.85302	6.49209	6.04312	4.28026	3.67842	3.21959	17.37322	13.99791	10.92194	29.66	6.1	0.00	-2.04	0.01753	0.01212	0.01532	0.01845	0.01910	0.01492	0.00553	0.01530	0.02032	0.01886	0.01308	0.01667	0.01725	0.01784	0.01392	0.00580	0.01626	0.02174
44460	2.21259	2.13790	1.78868	10.01996	9.28631	8.55123	10.77409	7.62811	5.02174	6.85157	6.49055	6.04202	4.28167	3.68234	3.22084	17.37848	14.00431	10.92628
44630	2.21277	2.13980	1.78921	10.02504	9.29092	8.55609	10.78230	7.63076	5.02544	6.85403	6.49505	6.04359	4.28009	3.68108	3.21820	17.37585	14.00473	10.92565
44790	2.21285	2.13784	1.79012	10.02607	9.29368	8.55599	10.76275	7.63436	5.02837	6.85497	6.49203	6.04457	4.28036	3.68123	3.21987	17.37903	14.00361	10.92459
44960	2.21199	2.13888	1.78884	10.02782	9.29357	8.55549	10.75906	7.63168	5.03011	6.85456	6.49365	6.04537	4.28153	3.67975	3.22091	17.37859	14.00611	10.92765
45120	2.21184	2.14061	1.78623	10.02828	9.29547	8.55543	10.78045	7.63371	5.02705	6.85378	6.49357	6.04444	4.27943	3.67884	3.21956	17.37969	14.00574	10.92694
45290	2.21282	2.13628	1.78736	10.02551	9.29280	8.55597	10.78175	7.63083	5.02520	6.85485	6.49559	6.04719	4.28048	3.67916	3.21862	17.37432	14.00822	10.92743
45450	2.20990	2.13556	1.78676	10.02721	9.29299	8.55355	10.76350	7.62903	5.02284	6.85451	6.49377	6.04392	4.28271	3.68037	3.22162	17.38375	14.01134	10.93182
45620	2.21511	2.13999	1.79063	10.03140	9.29787	8.55757	10.76978	7.63234	5.02891	6.85679	6.49713	6.04680	4.28210	3.67925	3.21935	17.38287	14.00981	10.93103
45780	2.21327	2.13762	1.78866	10.03135	9.29709	8.55510	10.76896	7.63084	5.02440	6.85562	6.49577	6.04667	4.27688	3.67729	3.21457	17.38057	14.00569	10.92680
45950	2.21214	2.13866	1.78884	10.02815	9.29652	8.55684	10.78051	7.63534	5.02487	6.85701	6.49674	6.04759	4.28085	3.67850	3.21795	17.38803	14.00824	10.92964	29.55	6.2	0.00	-2.04	0.01753	0.01212	0.01532	0.01846	0.01910	0.01492	0.00553	0.01530	0.02032	0.01886	0.01308	0.01667	0.01725	0.01784	0.01392	0.00580	0.01626	0.02174
46110	2.21097	2.13868	1.78613	10.02726	9.29208	8.55337	10.76697	7.62569	5.02171	6.85298	6.49454	6.04536	4.28164	3.67721	3.21824	17.38057	14.01207	10.93231
46280	2.20904	2.13948	1.78713	10.03002	9.29547	8.55783	10.77087	7.63524	5.02333	6.85641	6.49792	6.04761	4.28158	3.67865	3.21906	17.38430	14.00754	10.92963
46440	2.21224	2.13915	1.79003	10.03193	9.29826	8.56093	10.78475	7.63828	5.02888	6.85991	6.49966	6.05102	4.28398	3.68004	3.21979	17.38232	14.01353	10.93586
46610	2.21417	2.13772	1.78769	10.03163	9.29617	8.55967	10.77387	7.63011	5.02392	6.85920	6.49814	6.04941	4.28215	3.67828	3.21975	17.38002	14.01129	10.93148
46770	2.20968	2.13587	1.78584	10.02832	9.29385	8.55874	10.74349	7.62818	5.02325	6.85728	6.49742	6.04745	4.27873	3.68027	3.21957	17.38660	14.01233	10.93450
46940	2.21223	2.13687	1.78577	10.02889	9.29664	8.55834	10.77230	7.63259	5.02379	6.85788	6.49787	6.04845	4.28065	3.67725	3.21424	17.38156	14.00952	10.93105
47100	2.21127	2.13754	1.79005	10.02950	9.29452	8.55926	10.77948	7.63289	5.02396	6.85960	6.49841	6.04956	4.28128	3.67989	3.21789	17.38419	14.01088	10.93319
47270	2.21119	2.13759	1.78767	10.02729	9.29234	8.55724	10.74874	7.63127	5.02153	6.85616	6.49713	6.04767	4.28071	3.67700	3.21817	17.38309	14.01048	10.93068
47430	2.21128	2.13698	1.78622	10.02590	9.29273	8.55735	10.77504	7.63397	5.02341	6.85669	6.49642	6.04868	4.27902	3.67959	3.21897	17.38079	14.01022	10.93188
47600	2.21082	2.13893	1.78746	10.02658	9.29234	8.55746	10.76127	7.62832	5.02220	6.85755	6.49608	6.04698	4.28161	3.68012	3.21973	17.38397	14.01342	10.93278	29.61	5.9	0.00	-2.04	0.01753	0.01212	0.01532	0.01846	0.01910	0.01493	0.00553	0.01530	0.02032	0.01886	0.01309	0.01667	0.01725	0.01784	0.01392	0.00580	0.01626	0.02173
47760	2.21194	2.14012	1.78890	10.02792	9.29293	8.55692	10.76722	7.63354	5.02549	6.85607	6.49495	6.04674	4.28073	3.67867	3.21685	17.37969	14.01016	10.92870
47930	2.21010	2.13662	1.78807	10.02515	9.28995	8.55611	10.76790	7.62854	5.02028	6.85421	6.49454	6.04498	4.27795	3.67895	3.21726	17.37684	14.00646	10.92763
48090	2.20995	2.13571	1.78821	10.02319	9.29004	8.55497	10.75486	7.62877	5.02513	6.85552	6.49454	6.04695	4.27959	3.67739	3.21916	17.37969	14.01060	10.92983
48260	2.21238	2.13780	1.78832	10.02598	9.29082	8.55598	10.77296	7.62737	5.02129	6.85683	6.49678	6.04742	4.27984	3.68011	3.22185	17.37980	14.01329	10.93213
48420	2.21411	2.13766	1.78941	10.02538	9.29174	8.55626	10.76366	7.63204	5.02308	6.85578	6.49540	6.04574	4.28088	3.67666	3.21765	17.37980	14.00985	10.92965
48590	2.21045	2.13737	1.78715	10.02418	9.28743	8.55548	10.74851	7.63060	5.02230	6.85358	6.49393	6.04473	4.27744	3.67278	3.21902	17.37728	14.00849	10.92746
48760	2.21260	2.13708	1.78749	10.02176	9.28944	8.55563	10.76366	7.62946	5.02336	6.85648	6.49569	6.04607	4.28023	3.67792	3.21690	17.37563	14.00886	10.92798
48920	2.21046	2.13587	1.78792	10.02209	9.28740	8.55310	10.75841	7.62653	5.01961	6.85305	6.49367	6.04249	4.28057	3.68086	3.22203	17.37816	14.01300	10.93264
49090	2.21254	2.14244	1.78960	10.02573	9.29129	8.55611	10.76667	7.63231	5.02229	6.85695	6.49548	6.04788	4.28191	3.67724	3.21878	17.38013	14.01024	10.92988
49250	2.21109	2.13723	1.78810	10.02184	9.28817	8.55441	10.75734	7.63042	5.02311	6.85616	6.49565	6.04698	4.27764	3.67811	3.21647	17.37992	14.00604	10.92513	29.61	5.9	0.00	-2.04	0.01753	0.01212	0.01532	0.01846	0.01910	0.01492	0.00553	0.01530	0.02032	0.01886	0.01308	0.01667	0.01725	0.01784	0.01392	0.00580	0.01626	0.02174
49420	2.21230	2.13833	1.78856	10.02380	9.29020	8.55751	10.76130	7.63319	5.02754	6.85740	6.49629	6.04800	4.28291	3.68192	3.22051	17.38508	14.00864	10.92948
49580	2.21022	2.13564	1.78604	10.02347	9.28751	8.55448	10.76786	7.62776	5.02123	6.85263	6.49306	6.04348	4.27757	3.67514	3.21772	17.38179	14.00802	10.92639
49750	2.20925	2.13458	1.78654	10.02006	9.28615	8.55324	10.77374	7.62834	5.02026	6.85143	6.49222	6.04215	4.27846	3.67817	3.21685	17.37861	14.00630	10.92704
49910	2.21117	2.13609	1.78699	10.02085	9.28701	8.55350	10.76233	7.63054	5.02381	6.85384	6.49347	6.04509	4.27718	3.67484	3.21909	17.37751	14.00505	10.92550
50080	2.21228	2.13872	1.79041	10.02377	9.29087	8.55344	10.76773	7.63019	5.02290	6.85867	6.49751	6.04686	4.28084	3.68112	3.21774	17.37378	14.00833	10.92889
50240	2.21159	2.13732	1.78885	10.02125	9.28841	8.55493	10.76786	7.62724	5.02201	6.85407	6.49382	6.04421	4.27873	3.67610	3.21685	17.37707	14.00568	10.92419
50410	2.20870	2.13562	1.78701	10.02085	9.28828	8.55348	10.76602	7.62612	5.02181	6.85407	6.49389	6.04502	4.27964	3.67416	3.21898	17.38442	14.00240	10.92839
50570	2.20999	2.13647	1.78775	10.02274	9.28630	8.55203	10.75857	7.62231	5.02068	6.85162	6.49169	6.04240	4.27669	3.67691	3.21714	17.38157	14.00721	10.92712
50740	2.21220	2.13644	1.78695	10.02454	9.29032	8.55610	10.77005	7.62989	5.02165	6.85645	6.49522	6.04475	4.27584	3.67654	3.21749	17.37554	14.00578	10.92432
50900	2.21111	2.13871	1.78747	10.02020	9.28756	8.55279	10.75545	7.62368	5.02041	6.85584	6.49525	6.04580	4.27608	3.67496	3.21692	17.37674	14.00273	10.92113	29.61	6.0	0.00	-2.04	0.01753	0.01212	0.01532	0.01846	0.01910	0.01493	0.00553	0.01530	0.02032	0.01886	0.01309	0.01667	0.01725	0.01784	0.01392	0.00580	0.01626	0.02174
51070	2.21168	2.13987	1.78825	10.02156	9.28805	8.55557	10.78347	7.63134	5.02217	6.85533	6.49604	6.04618	4.27856	3.67876	3.21724	17.37641	14.00718	10.92444
51230	2.20841	2.13600	1.78487	10.02186	9.28537	8.55403	10.77081	7.62154	5.01970	6.85353	6.49267	6.04218	4.28027	3.68015	3.22280	17.38211	14.00817	10.92622
51400	2.21211	2.13864	1.78785	10.02250	9.28795	8.55436	10.77006	7.62484	5.01984	6.85543	6.49318	6.04547	4.27991	3.67896	3.21850	17.38518	14.00450	10.92329
51560	2.21119	2.13609	1.78587	10.01963	9.28704	8.55382	10.75517	7.62371	5.01958	6.85746	6.49317	6.04716	4.27672	3.67551	3.21960	17.37038	14.00244	10.92049
51730	2.21116	2.13894	1.78947	10.02350	9.28999	8.55617	10.75900	7.62837	5.02297	6.86038	6.49644	6.04978	4.27658	3.67983	3.21730	17.37948	14.00770	10.92673
51890	2.21122	2.13661	1.78751	10.02185	9.28829	8.55381	10.76849	7.62542	5.01866	6.85580	6.49345	6.04485	4.27538	3.67598	3.21786	17.37356	14.00466	10.92295
52060	2.20753	2.13491	1.78653	10.02049	9.28641	8.55129	10.76665	7.62417	5.02000	6.85473	6.49281	6.04702	4.27739	3.67638	3.21573	17.37707	14.00487	10.92357
52220	2.20857	2.13584	1.78761	10.02119	9.28815	8.55225	10.78532	7.62009	5.01985	6.85314	6.49229	6.04345	4.27788	3.67549	3.21545	17.38047	14.00427	10.92041
52390	2.21075	2.13762	1.78835	10.02035	9.28810	8.55074	10.77526	7.62760	5.02209	6.85290	6.49212	6.04402	4.27816	3.67711	3.21800	17.37597	14.00578	10.92377
52560	2.20977	2.13414	1.78504	10.01918	9.28556	8.54983	10.75147	7.62214	5.01745	6.85020	6.48940	6.04122	4.27473	3.67492	3.21572	17.37674	14.00107	10.92058	29.61	6.1	0.00	-2.04	0.01753	0.01212	0.01532	0.01846	0.01910	0.01493	0.00553	0.01530	0.02032	0.01886	0.01308	0.01667	0.01725	0.01784	0.01392	0.00580	0.01626	0.02174
52720	2.20927	2.13386	1.78736	10.01828	9.28494	8.54932	10.75372	7.62132	5.02074	6.85064	6.49132	6.04241	4.27859	3.67840	3.21744	17.37795	14.00338	10.92256
52890	2.21099	2.13439	1.78715	10.01978	9.28719	8.55138	10.77175	7.62728	5.02053	6.85201	6.49191	6.04389	4.27827	3.67713	3.21678	17.37477	14.00427	10.92376
53050	2.21019	2.13593	1.78743	10.01988	9.28520	8.55010	10.78222	7.62202	5.01770	6.85170	6.49183	6.04290	4.27860	3.67763	3.22041	17.37894	14.00713	10.92523
53220	2.21186	2.13906	1.79036	10.02193	9.28776	8.55126	10.75686	7.62596	5.02078	6.85356	6.49286	6.04473	4.27993	3.67951	3.21811	17.38069	14.00237	10.92224
53380	2.21037	2.13578	1.78671	10.01783	9.28473	8.55325	10.75475	7.62189	5.01864	6.85300	6.49121	6.04334	4.27446	3.67409	3.21506	17.37302	14.00276	10.92018
53550	2.21107	2.13704	1.79111	10.01859	9.28583	8.55279	10.76533	7.63025	5.02082	6.85450	6.49277	6.04397	4.27984	3.67779	3.21974	17.37641	14.00390	10.92244
53710	2.21074	2.13554	1.78728	10.01910	9.28511	8.55002	10.76403	7.61976	5.01971	6.85231	6.49075	6.04161	4.27800	3.67607	3.21533	17.38179	14.00179	10.92010
53880	2.20954	2.13547	1.78637	10.01489	9.28173	8.54618	10.75509	7.62333	5.01602	6.85014	6.48813	6.04145	4.27688	3.67712	3.21561	17.37170	14.00198	10.92151
54040	2.21074	2.13570	1.78827	10.01742	9.28384	8.54865	10.76355	7.62098	5.01799	6.85159	6.49066	6.04318	4.27659	3.67548	3.21717	17.37170	13.99740	10.91646
54210	2.21047	2.13848	1.78923	10.01657	9.28631	8.55274	10.77282	7.62581	5.02270	6.85555	6.49480	6.04477	4.27898	3.67539	3.21841	17.37470	14.00127	10.92069	29.61	6.0	0.00	-2.04	0.01753	0.01212	0.01532	0.01846	0.01910	0.01493	0.00553	0.01530	0.02032	0.01886	0.01308	0.01667	0.01725	0.01784	0.01392	0.00580	0.01626	0.02174
54370	2.21052	2.13476	1.78852	10.01740	9.28345	8.54808	10.76065	7.62356	5.01674	6.84997	6.49109	6.04050	4.27524	3.67509	3.21520	17.37821	13.99695	10.91773
54540	2.20736	2.13377	1.78597	10.01445	9.28006	8.54693	10.75635	7.62200	5.01600	6.85087	6.48988	6.04254	4.27657	3.67414	3.21768	17.36988	14.00062	10.91989
54710	2.21127	2.13665	1.78691	10.01766	9.28387	8.54966	10.75335	7.62480	5.01874	6.85283	6.49166	6.04452	4.27591	3.67352	3.21536	17.35860	13.99500	10.91692
54870	2.21084	2.13763	1.78904	10.01608	9.28450	8.55212	10.74905	7.62624	5.01905	6.85403	6.49322	6.04295	4.27756	3.67595	3.22007	17.36747	13.99887	10.91963
55030	2.21141	2.13605	1.78739	10.01469	9.28138	8.54694	10.74789	7.62554	5.01777	6.84827	6.48639	6.03872	4.27575	3.67533	3.21322	17.36528	13.99370	10.91488
55200	2.20877	2.13376	1.78591	10.01201	9.27957	8.54675	10.76256	7.61963	5.01529	6.84914	6.48588	6.03897	4.27763	3.67519	3.21597	17.37371	13.99653	10.91615
55360	2.20983	2.13431	1.78640	10.01381	9.27979	8.54592	10.74468	7.62251	5.01526	6.84935	6.48792	6.04008	4.27579	3.67663	3.21384	17.36396	13.99479	10.91743
55530	2.21090	2.13426	1.78733	10.01462	9.28155	8.54827	10.75512	7.62175	5.01820	6.84958	6.48700	6.04088	4.27452	3.67380	3.21611	17.35794	13.99263	10.91311
55700	2.20843	2.13540	1.79023	10.01031	9.28213	8.54926	10.75287	7.62606	5.01822	6.85248	6.49100	6.04378	4.27795	3.67460	3.21699	17.37273	13.99497	10.91696
55860	2.21297	2.13323	1.78560	10.01397	9.27985	8.54686	10.74543	7.62346	5.01557	6.84831	6.48810	6.04052	4.27710	3.67414	3.21698	17.36558	13.99226	10.91376	29.61	6.2	0.00	-2.04	0.01753	0.01212	0.01532	0.01845	0.01910	0.01492	0.00553	0.01530	0.02032	0.01886	0.01308	0.01667	0.01725	0.01784	0.01392	0.00580	0.01626	0.02174
56030	2.20946	2.13319	1.78569	10.01056	9.27784	8.54302	10.75430	7.61922	5.01602	6.84566	6.48435	6.03960	4.27725	3.67621	3.21884	17.36700	13.99328	10.91433
56190	2.21153	2.13617	1.78991	10.01251	9.27915	8.54519	10.76817	7.62043	5.01649	6.84634	6.48570	6.03840	4.27447	3.67463	3.21162	17.36470	13.99273	10.91408
56360	2.20828	2.13507	1.78497	10.01231	9.27870	8.54549	10.74421	7.62207	5.01647	6.84587	6.48502	6.03675	4.27310	3.67188	3.21388	17.36109	13.99148	10.91398
56520	2.20815	2.13386	1.78857	10.01338	9.28128	8.54563	10.77213	7.61959	5.01443	6.85083	6.49023	6.04437	4.27414	3.67509	3.21299	17.36251	13.99653	10.91589
56690	2.20975	2.13569	1.78678	10.01318	9.27767	8.54495	10.74748	7.61762	5.01591	6.84912	6.48787	6.03979	4.27614	3.67403	3.21170	17.35868	13.99278	10.91256
56850	2.20792	2.13177	1.78705	10.01095	9.27680	8.54409	10.75089	7.61800	5.01517	6.84825	6.48628	6.03867	4.27558	3.67531	3.21450	17.36415	13.99013	10.91223
57020	2.21180	2.13426	1.78741	10.01127	9.27756	8.54611	10.76393	7.61839	5.01591	6.84911	6.48690	6.03679	4.27568	3.67437	3.21229	17.35463	13.98751	10.90916
57180	2.21101	2.13738	1.78799	10.01133	9.28000	8.54750	10.74823	7.62596	5.01809	6.85004	6.48741	6.04058	4.27820	3.67679	3.21707	17.36678	13.99099	10.91254
57350	2.21131	2.13219	1.78856	10.01047	9.27577	8.54317	10.76113	7.61770	5.01717	6.84669	6.48422	6.03675	4.27399	3.67330	3.21574	17.35846	13.98649	10.90893
57510	2.20687	2.13351	1.78386	10.00665	9.27162	8.53879	10.75020	7.61267	5.00917	6.84395	6.48022	6.03402	4.27153	3.67105	3.21174	17.36536	13.98562	10.90912	29.61	6.1	0.00	-2.04	0.01753	0.01212	0.01532	0.01845	0.01910	0.01493	0.00553	0.01530	0.02032	0.01886	0.01308	0.01667	0.01724	0.01783	0.01392	0.00580	0.01626	0.02174
57680	2.20853	2.13396	1.78400	10.00632	9.27434	8.54058	10.76515	7.61500	5.01281	6.84576	6.48095	6.03550	4.27619	3.67202	3.21319	17.36328	13.98855	10.91145
57840	2.21060	2.13512	1.78767	10.01109	9.28043	8.54288	10.75852	7.61940	5.01659	6.84968	6.48446	6.03958	4.27554	3.67261	3.21410	17.36404	13.98884	10.91028
58010	2.20828	2.13382	1.78745	10.00948	9.27799	8.54394	10.73956	7.62188	5.01683	6.84862	6.48577	6.03987	4.27417	3.67187	3.21286	17.35901	13.98759	10.91171
58170	2.20770	2.13172	1.78495	10.00779	9.27563	8.54149	10.75238	7.61547	5.01217	6.84606	6.48189	6.03963	4.27298	3.66840	3.20940	17.36383	13.98853	10.91143
58330	2.20813	2.13232	1.78564	10.01029	9.27486	8.53982	10.73936	7.61773	5.01207	6.84492	6.48242	6.03640	4.27172	3.66964	3.21177	17.36098	13.98715	10.90818
58500	2.20609	2.13105	1.78460	10.00738	9.27277	8.54006	10.73534	7.61634	5.01013	6.84489	6.48000	6.03510	4.27282	3.67176	3.21286	17.36854	13.98855	10.91193
58660	2.20765	2.13240	1.78709	10.01149	9.27644	8.54309	10.74467	7.61686	5.01258	6.84764	6.48260	6.03592	4.27442	3.66972	3.21213	17.35594	13.98679	10.90870
58830	2.20706	2.13309	1.78392	10.00795	9.27567	8.54209	10.75846	7.62004	5.01502	6.84818	6.48346	6.03672	4.27442	3.67275	3.21159	17.35594	13.98749	10.91114
58990	2.20494	2.12982	1.78444	10.00489	9.27109	8.53896	10.74304	7.61604	5.01051	6.84447	6.48056	6.03405	4.27362	3.67083	3.21137	17.36328	13.98996	10.91305
59160	2.20723	2.13344	1.78625	10.00879	9.27347	8.54128	10.75296	7.61430	5.01465	6.84596	6.48308	6.03693	4.27113	3.66936	3.21105	17.36144	13.98943	10.91114	29.66	6.0	0.00	-2.04	0.01753	0.01212	0.01532	0.01845	0.01910	0.01493	0.00553	0.01530	0.02032	0.01886	0.01308	0.01667	0.01724	0.01783	0.01392	0.00580	0.01626	0.02173
59320	2.20719	2.13440	1.78767	10.00966	9.27691	8.54343	10.75043	7.61875	5.01658	6.84959	6.48374	6.03930	4.27429	3.67260	3.21246	17.35936	13.98834	10.91122
59490	2.20738	2.13205	1.78511	10.00683	9.27514	8.53977	10.74661	7.61634	5.01213	6.84600	6.48162	6.03516	4.27524	3.67518	3.21508	17.36199	13.99336	10.91555
59650	2.21109	2.13373	1.78788	10.01367	9.28062	8.54636	10.74075	7.61766	5.01762	6.85054	6.48505	6.03975	4.27484	3.67223	3.21262	17.36769	13.99130	10.91305
59820	2.20616	2.13212	1.78429	10.00916	9.27673	8.54324	10.75009	7.61462	5.01267	6.84615	6.48108	6.03529	4.27505	3.67188	3.20926	17.35597	13.98852	10.91028
59980	2.20566	2.13197	1.78564	10.01067	9.27712	8.54254	10.75057	7.61807	5.01413	6.84878	6.48476	6.03867	4.27276	3.67314	3.21124	17.36812	13.99216	10.91308
60150	2.20671	2.13282	1.78603	10.01066	9.27761	8.54050	10.74484	7.61651	5.01400	6.84600	6.48204	6.03715	4.27265	3.67214	3.21461	17.37108	13.99486	10.91489
60310	2.20931	2.13521	1.78594	10.01252	9.28002	8.54349	10.74791	7.61800	5.01474	6.85068	6.48467	6.04011	4.27302	3.67134	3.21114	17.37086	13.99060	10.91137
60480	2.20701	2.13729	1.78776	10.01455	9.28329	8.54630	10.74873	7.62083	5.01937	6.85329	6.48801	6.04265	4.27738	3.67540	3.21330	17.36769	13.99850	10.91534
60640	2.20720	2.13491	1.78792	10.01334	9.27974	8.54249	10.74348	7.62207	5.01748	6.84739	6.48486	6.03889	4.27483	3.67101	3.21342	17.37185	13.99281	10.91204
60810	2.20449	2.13316	1.78669	10.01137	9.27899	8.54229	10.77150	7.61960	5.01385	6.84850	6.48510	6.04006	4.27815	3.67468	3.21275	17.36374	13.99278	10.91222	29.66	6.2	0.00	-2.04	0.01753	0.01212	0.01532	0.01846	0.01910	0.01493	0.00553	0.01530	0.02032	0.01886	0.01308	0.01667	0.01724	0.01783	0.01392	0.00580	0.01626	0.02174
60970	2.20564	2.13208	1.78466	10.01065	9.27636	8.54125	10.74623	7.61611	5.01222	6.84671	6.48262	6.03660	4.27293	3.66960	3.21106	17.36944	13.98883	10.91120
61140	2.20538	2.13114	1.78307	10.01106	9.27760	8.54205	10.73049	7.61717	5.01473	6.84494	6.48296	6.03596	4.26943	3.66883	3.20954	17.35225	13.98621	10.90933
61300	2.20292	2.13098	1.78512	10.00888	9.27788	8.54022	10.75012	7.61660	5.01345	6.84564	6.48318	6.03763	4.27381	3.67011	3.21308	17.36024	13.98964	10.91137
61470	2.20546	2.12965	1.78227	10.00946	9.27600	8.53931	10.75196	7.61218	5.01085	6.84551	6.48354	6.03706	4.27142	3.67172	3.21431	17.36571	13.99099	10.91314
61630	2.20690	2.13233	1.78558	10.01247	9.27894	8.53909	10.75080	7.61640	5.01286	6.84786	6.48592	6.03628	4.27281	3.67249	3.21159	17.35652	13.99135	10.91148
61800	2.20476	2.13339	1.78666	10.01022	9.27901	8.54188	10.75114	7.61578	5.01371	6.84858	6.48573	6.04038	4.27211	3.67122	3.20992	17.35575	13.98587	10.90738
61960	2.20623	2.13367	1.78498	10.01123	9.27981	8.54362	10.74862	7.61831	5.01354	6.85057	6.48842	6.04072	4.27265	3.67089	3.21527	17.36155	13.98953	10.90996
62130	2.20379	2.13119	1.78371	10.01146	9.27758	8.54302	10.73812	7.61111	5.01241	6.84761	6.48591	6.03964	4.27122	3.67044	3.21041	17.35794	13.98938	10.91045
62290	2.20556	2.13157	1.78458	10.01059	9.27717	8.54317	10.73689	7.61415	5.01209	6.84714	6.48534	6.03788	4.27184	3.67240	3.21374	17.35630	13.98670	10.90949
62460	2.20480	2.13183	1.78411	10.01011	9.27744	8.54336	10.75504	7.61697	5.01186	6.84717	6.48701	6.04007	4.27165	3.67223	3.21036	17.35767	13.98552	10.90682	29.66	5.9	0.00	-2.04	0.01753	0.01212	0.01532	0.01845	0.01910	0.01492	0.00553	0.01530	0.02032	0.01886	0.01308	0.01667	0.01724	0.01783	0.01392	0.00580	0.01626	0.02174
62620	2.20636	2.13069	1.78735	10.01138	9.28009	8.54363	10.73833	7.61823	5.01417	6.84843	6.48748	6.03931	4.27540	3.67308	3.21255	17.35526	13.99204	10.91014
62790	2.20379	2.13252	1.78447	10.01087	9.27826	8.54129	10.74024	7.61319	5.01235	6.84482	6.48515	6.03789	4.27358	3.66838	3.20942	17.35165	13.98689	10.90772
62950	2.20237	2.13099	1.78468	10.00726	9.27246	8.53993	10.74542	7.61183	5.00981	6.84474	6.48272	6.03482	4.26879	3.66736	3.21107	17.35472	13.98837	10.90758
63120	2.20292	2.12916	1.78143	10.00894	9.27459	8.54173	10.75217	7.61168	5.01006	6.84741	6.48330	6.03924	4.27126	3.66938	3.20952	17.35942	13.98767	10.90995
63280	2.20490	2.13300	1.78413	10.01058	9.27792	8.54188	10.73717	7.61357	5.01166	6.84830	6.48957	6.03942	4.27073	3.66708	3.21152	17.36194	13.98770	10.90848
63450	2.20224	2.12874	1.78483	10.00887	9.27914	8.54291	10.73397	7.61577	5.01150	6.85029	6.48733	6.04277	4.27247	3.66996	3.20878	17.35669	13.98622	10.91003
63610	2.20385	2.13026	1.78255	10.00842	9.27584	8.53922	10.75846	7.60839	5.00783	6.84515	6.48434	6.03703	4.26918	3.66973	3.21181	17.36085	13.98713	10.90984
63770	2.20367	2.13024	1.78296	10.00893	9.27752	8.54200	10.76891	7.61083	5.00985	6.85011	6.48403	6.04010	4.26767	3.66704	3.20860	17.35833	13.98510	10.90722
63940	2.20267	2.12555	1.78118	10.00676	9.27693	8.54095	10.74201	7.61200	5.00883	6.84751	6.48666	6.03970	4.26930	3.66568	3.20744	17.35264	13.98510	10.91000
64100	2.20126	2.12578	1.78051	10.00873	9.27658	8.54129	10.75288	7.60859	5.00712	6.84617	6.48511	6.03754	4.26638	3.66621	3.21032	17.35296	13.98138	10.90631	29.55	5.9	0.00	-2.04	0.01753	0.01212	0.01532	0.01845	0.01910	0.01493	0.00553	0.01530	0.02032	0.01886	0.01308	0.01667	0.01724	0.01783	0.01392	0.00580	0.01626	0.02174
64270	2.20248	2.13054	1.78498	10.01024	9.28209	8.54507	10.74919	7.61681	5.01377	6.84839	6.48756	6.03930	4.27455	3.67156	3.21063	17.35723	13.98767	10.91135
64430	2.20255	2.12930	1.78126	10.00952	9.27883	8.54239	10.75902	7.61345	5.00824	6.84842	6.48447	6.03910	4.27242	3.67120	3.21006	17.35340	13.98822	10.91237
64600	2.20450	2.12893	1.78301	10.01176	9.28057	8.54460	10.74033	7.61440	5.00892	6.85080	6.48806	6.04277	4.26727	3.66743	3.20981	17.35712	13.98562	10.90854
64760	2.20095	2.12924	1.78239	10.00978	9.27900	8.54504	10.75329	7.60914	5.01026	6.85188	6.49059	6.04199	4.26870	3.66779	3.20884	17.35022	13.98500	10.90882
64920	2.20186	2.12637	1.78190	10.00780	9.27529	8.54157	10.75404	7.60613	5.00508	6.84643	6.48528	6.03708	4.27011	3.66812	3.20799	17.34727	13.98572	10.91007
65090	2.20413	2.12745	1.78283	10.00895	9.27914	8.54477	10.75199	7.60769	5.00708	6.84907	6.48681	6.03861	4.26816	3.66914	3.20642	17.35569	13.98489	10.90998
65250	2.20255	2.12984	1.78266	10.01032	9.27791	8.54501	10.73815	7.61175	5.00625	6.85118	6.48876	6.04215	4.26701	3.66834	3.20683	17.35701	13.98785	10.91196
65420	2.20347	2.12840	1.78066	10.00951	9.27846	8.54389	10.74735	7.60769	5.00726	6.84975	6.48711	6.04114	4.26781	3.66802	3.20989	17.35931	13.98780	10.91423
65590	2.20265	2.12913	1.78384	10.01202	9.27987	8.54522	10.74087	7.60774	5.01020	6.85012	6.48844	6.04306	4.26956	3.66649	3.20837	17.36347	13.98650	10.91096
65750	2.20110	2.12631	1.78194	10.01159	9.27890	8.54619	10.73498	7.60583	5.00604	6.85093	6.48847	6.04266	4.26568	3.66890	3.20629	17.35322	13.98457	10.91144	29.66	6.0	0.00	-2.04	0.01753	0.01212	0.01532	0.01845	0.01910	0.01493	0.00553	0.01530	0.02032	0.01886	0.01308	0.01667	0.01724	0.01783	0.01392	0.00580	0.01626	0.02174
65920	2.20328	2.12909	1.78369	10.01137	9.27858	8.54746	10.74663	7.60730	5.00791	6.85126	6.48831	6.04235	4.26726	3.66581	3.20893	17.36263	13.98722	10.91226
66080	2.20200	2.13047	1.78507	10.00959	9.27668	8.54595	10.73028	7.60785	5.00888	6.84997	6.48677	6.04053	4.26592	3.66532	3.20558	17.35563	13.98717	10.91117
66250	2.20055	2.12702	1.78288	10.00819	9.27721	8.54432	10.73171	7.60974	5.00902	6.85042	6.48651	6.04101	4.26950	3.66637	3.20881	17.35968	13.98849	10.91159
66410	2.20192	2.12795	1.78365	10.00726	9.27509	8.54374	10.73804	7.60727	5.00741	6.85162	6.48799	6.04312	4.26671	3.66848	3.20985	17.36044	13.99047	10.91475
66580	2.20424	2.12891	1.78321	10.01220	9.28034	8.54832	10.75113	7.61239	5.00997	6.85369	6.49056	6.04491	4.26828	3.66683	3.20955	17.35978	13.99208	10.91498
66740	2.20212	2.12715	1.78462	10.01023	9.27766	8.54603	10.72817	7.60074	5.00619	6.85055	6.48766	6.03996	4.26361	3.66372	3.20557	17.36066	13.98639	10.90955
66910	2.20273	2.13058	1.78480	10.00862	9.27714	8.54639	10.73790	7.60954	5.00775	6.85373	6.48925	6.04254	4.26605	3.66794	3.20743	17.35453	13.98860	10.91238
67070	2.20331	2.12842	1.78095	10.00842	9.27556	8.54452	10.73716	7.60625	5.00540	6.85081	6.48597	6.04087	4.26725	3.66903	3.21091	17.36055	13.99411	10.91506
67240	2.20239	2.12834	1.78368	10.01163	9.27834	8.54552	10.75107	7.60693	5.01044	6.85071	6.48879	6.04234	4.26957	3.66677	3.20804	17.35924	13.99211	10.91545
67400	2.20086	2.12653	1.78232	10.01071	9.27743	8.54491	10.73946	7.60671	5.00601	6.85201	6.48719	6.04201	4.26628	3.66545	3.20600	17.36294	13.98868	10.91140	29.61	6.0	0.00	-2.04	0.01753	0.01212	0.01532	0.01845	0.01910	0.01493	0.00553	0.01530	0.02032	0.01886	0.01308	0.01667	0.01724	0.01783	0.01392	0.00580	0.01626	0.02174
67570	2.20159	2.12780	1.78585	10.01101	9.28044	8.54639	10.74662	7.61019	5.01030	6.85395	6.48908	6.04458	4.26824	3.66667	3.20966	17.36425	13.99277	10.91502
67730	2.20161	2.12833	1.78167	10.00967	9.27710	8.54493	10.73810	7.60664	5.00545	6.85031	6.48550	6.04042	4.26812	3.66811	3.20881	17.35484	13.99277	10.91671
67900	2.20239	2.12582	1.78387	10.01052	9.27894	8.54562	10.74382	7.60724	5.00709	6.85051	6.48749	6.04008	4.26626	3.66532	3.20637	17.35768	13.98902	10.91345
68060	2.20060	2.12819	1.77960	10.00756	9.27649	8.54331	10.74587	7.60451	5.00660	6.85062	6.48716	6.04034	4.26537	3.66444	3.20756	17.34849	13.98484	10.91059
68230	2.20110	2.12781	1.78277	10.00801	9.27825	8.54529	10.72427	7.61102	5.00805	6.85463	6.48873	6.04394	4.26751	3.66655	3.20796	17.36349	13.99027	10.91425
68390	2.20204	2.12658	1.78397	10.00646	9.27375	8.54183	10.73673	7.60557	5.00421	6.84950	6.48623	6.04200	4.26454	3.66678	3.20764	17.36425	13.98913	10.91181
68560	2.20356	2.12853	1.78519	10.00687	9.27445	8.54379	10.74369	7.60773	5.00532	6.85147	6.48615	6.04143	4.26593	3.66624	3.20913	17.35878	13.98858	10.91328
68730	2.20306	2.12645	1.78472	10.00941	9.27572	8.54412	10.74403	7.60647	5.00624	6.85115	6.48621	6.04072	4.26896	3.67062	3.20936	17.35823	13.99648	10.91627
68890	2.20627	2.13106	1.78748	10.01279	9.28143	8.54876	10.75624	7.61065	5.01021	6.85465	6.48988	6.04459	4.26831	3.66846	3.21027	17.35517	13.99196	10.91507
69060	2.20392	2.12825	1.78528	10.01159	9.27974	8.54689	10.74624	7.60570	5.00862	6.85358	6.48725	6.04337	4.26615	3.66353	3.20609	17.36339	13.99097	10.91288	29.66	5.9	0.00	-2.04	0.01753	0.01212	0.01532	0.01845	0.01910	0.01493	0.00553	0.01530	0.02032	0.01886	0.01308	0.01667	0.01724	0.01783	0.01392	0.00580	0.01626	0.02173
69220	2.20334	2.12616	1.78525	10.00843	9.27910	8.54864	10.75995	7.60997	5.01135	6.85470	6.49095	6.04586	4.26959	3.66731	3.20955	17.35901	13.99388	10.91489
69390	2.20303	2.12758	1.78583	10.01027	9.27774	8.54580	10.75169	7.60875	5.00724	6.85256	6.48740	6.04353	4.26760	3.66646	3.20525	17.36087	13.99245	10.91099
